创建为新数据集,样品 043 用户 Administrator 日期 星期五, 七月 20 2018
cm-1,%T
10000.00,1.34
9999.00,1.33
9998.00,1.33
9997.00,1.33
9996.00,1.33
9995.00,1.33
9994.00,1.33
9993.00,1.33
9992.00,1.32
9991.00,1.32
9990.00,1.32
9989.00,1.32
9988.00,1.32
9987.00,1.32
9986.00,1.32
9985.00,1.33
9984.00,1.33
9983.00,1.33
9982.00,1.33
9981.00,1.33
9980.00,1.33
9979.00,1.33
9978.00,1.33
9977.00,1.33
9976.00,1.33
9975.00,1.33
9974.00,1.33
9973.00,1.33
9972.00,1.33
9971.00,1.33
9970.00,1.33
9969.00,1.33
9968.00,1.33
9967.00,1.32
9966.00,1.32
9965.00,1.32
9964.00,1.32
9963.00,1.32
9962.00,1.32
9961.00,1.32
9960.00,1.31
9959.00,1.31
9958.00,1.31
9957.00,1.31
9956.00,1.31
9955.00,1.31
9954.00,1.31
9953.00,1.31
9952.00,1.31
9951.00,1.31
9950.00,1.31
9949.00,1.31
9948.00,1.31
9947.00,1.31
9946.00,1.31
9945.00,1.31
9944.00,1.30
9943.00,1.30
9942.00,1.30
9941.00,1.30
9940.00,1.30
9939.00,1.30
9938.00,1.30
9937.00,1.30
9936.00,1.30
9935.00,1.30
9934.00,1.30
9933.00,1.30
9932.00,1.30
9931.00,1.30
9930.00,1.30
9929.00,1.31
9928.00,1.31
9927.00,1.31
9926.00,1.31
9925.00,1.31
9924.00,1.31
9923.00,1.31
9922.00,1.31
9921.00,1.30
9920.00,1.30
9919.00,1.30
9918.00,1.30
9917.00,1.30
9916.00,1.30
9915.00,1.30
9914.00,1.30
9913.00,1.29
9912.00,1.29
9911.00,1.29
9910.00,1.29
9909.00,1.29
9908.00,1.29
9907.00,1.29
9906.00,1.29
9905.00,1.29
9904.00,1.29
9903.00,1.29
9902.00,1.29
9901.00,1.29
9900.00,1.29
9899.00,1.29
9898.00,1.29
9897.00,1.29
9896.00,1.29
9895.00,1.28
9894.00,1.28
9893.00,1.28
9892.00,1.28
9891.00,1.28
9890.00,1.28
9889.00,1.28
9888.00,1.28
9887.00,1.28
9886.00,1.28
9885.00,1.27
9884.00,1.27
9883.00,1.27
9882.00,1.27
9881.00,1.27
9880.00,1.27
9879.00,1.27
9878.00,1.27
9877.00,1.27
9876.00,1.27
9875.00,1.27
9874.00,1.27
9873.00,1.27
9872.00,1.27
9871.00,1.27
9870.00,1.27
9869.00,1.27
9868.00,1.28
9867.00,1.28
9866.00,1.28
9865.00,1.28
9864.00,1.28
9863.00,1.28
9862.00,1.28
9861.00,1.28
9860.00,1.28
9859.00,1.28
9858.00,1.28
9857.00,1.28
9856.00,1.28
9855.00,1.29
9854.00,1.29
9853.00,1.29
9852.00,1.29
9851.00,1.29
9850.00,1.29
9849.00,1.28
9848.00,1.28
9847.00,1.28
9846.00,1.28
9845.00,1.28
9844.00,1.28
9843.00,1.28
9842.00,1.28
9841.00,1.28
9840.00,1.29
9839.00,1.29
9838.00,1.29
9837.00,1.29
9836.00,1.29
9835.00,1.29
9834.00,1.30
9833.00,1.30
9832.00,1.30
9831.00,1.31
9830.00,1.31
9829.00,1.31
9828.00,1.32
9827.00,1.32
9826.00,1.32
9825.00,1.32
9824.00,1.33
9823.00,1.33
9822.00,1.33
9821.00,1.33
9820.00,1.33
9819.00,1.33
9818.00,1.33
9817.00,1.33
9816.00,1.33
9815.00,1.33
9814.00,1.32
9813.00,1.32
9812.00,1.32
9811.00,1.32
9810.00,1.31
9809.00,1.31
9808.00,1.31
9807.00,1.31
9806.00,1.31
9805.00,1.31
9804.00,1.31
9803.00,1.31
9802.00,1.31
9801.00,1.31
9800.00,1.31
9799.00,1.31
9798.00,1.32
9797.00,1.32
9796.00,1.32
9795.00,1.32
9794.00,1.32
9793.00,1.33
9792.00,1.33
9791.00,1.33
9790.00,1.33
9789.00,1.33
9788.00,1.33
9787.00,1.33
9786.00,1.33
9785.00,1.33
9784.00,1.33
9783.00,1.33
9782.00,1.33
9781.00,1.33
9780.00,1.33
9779.00,1.33
9778.00,1.32
9777.00,1.32
9776.00,1.32
9775.00,1.32
9774.00,1.32
9773.00,1.32
9772.00,1.32
9771.00,1.32
9770.00,1.32
9769.00,1.31
9768.00,1.31
9767.00,1.31
9766.00,1.31
9765.00,1.31
9764.00,1.31
9763.00,1.31
9762.00,1.31
9761.00,1.31
9760.00,1.31
9759.00,1.31
9758.00,1.31
9757.00,1.31
9756.00,1.31
9755.00,1.31
9754.00,1.31
9753.00,1.31
9752.00,1.31
9751.00,1.31
9750.00,1.30
9749.00,1.30
9748.00,1.30
9747.00,1.30
9746.00,1.30
9745.00,1.30
9744.00,1.30
9743.00,1.30
9742.00,1.30
9741.00,1.30
9740.00,1.30
9739.00,1.30
9738.00,1.30
9737.00,1.30
9736.00,1.30
9735.00,1.30
9734.00,1.30
9733.00,1.30
9732.00,1.30
9731.00,1.30
9730.00,1.30
9729.00,1.30
9728.00,1.30
9727.00,1.30
9726.00,1.30
9725.00,1.30
9724.00,1.30
9723.00,1.30
9722.00,1.30
9721.00,1.30
9720.00,1.30
9719.00,1.29
9718.00,1.29
9717.00,1.29
9716.00,1.30
9715.00,1.30
9714.00,1.30
9713.00,1.30
9712.00,1.30
9711.00,1.30
9710.00,1.30
9709.00,1.30
9708.00,1.31
9707.00,1.31
9706.00,1.31
9705.00,1.31
9704.00,1.31
9703.00,1.31
9702.00,1.31
9701.00,1.31
9700.00,1.32
9699.00,1.31
9698.00,1.31
9697.00,1.31
9696.00,1.31
9695.00,1.31
9694.00,1.31
9693.00,1.31
9692.00,1.31
9691.00,1.31
9690.00,1.31
9689.00,1.31
9688.00,1.31
9687.00,1.31
9686.00,1.31
9685.00,1.31
9684.00,1.31
9683.00,1.31
9682.00,1.31
9681.00,1.31
9680.00,1.31
9679.00,1.31
9678.00,1.31
9677.00,1.31
9676.00,1.31
9675.00,1.31
9674.00,1.31
9673.00,1.31
9672.00,1.31
9671.00,1.31
9670.00,1.31
9669.00,1.31
9668.00,1.31
9667.00,1.31
9666.00,1.31
9665.00,1.31
9664.00,1.31
9663.00,1.31
9662.00,1.31
9661.00,1.31
9660.00,1.31
9659.00,1.31
9658.00,1.31
9657.00,1.31
9656.00,1.31
9655.00,1.31
9654.00,1.31
9653.00,1.31
9652.00,1.31
9651.00,1.30
9650.00,1.30
9649.00,1.30
9648.00,1.30
9647.00,1.30
9646.00,1.30
9645.00,1.29
9644.00,1.29
9643.00,1.29
9642.00,1.29
9641.00,1.29
9640.00,1.29
9639.00,1.29
9638.00,1.29
9637.00,1.29
9636.00,1.29
9635.00,1.29
9634.00,1.29
9633.00,1.29
9632.00,1.29
9631.00,1.29
9630.00,1.29
9629.00,1.30
9628.00,1.30
9627.00,1.30
9626.00,1.30
9625.00,1.30
9624.00,1.31
9623.00,1.31
9622.00,1.31
9621.00,1.31
9620.00,1.31
9619.00,1.31
9618.00,1.31
9617.00,1.31
9616.00,1.31
9615.00,1.31
9614.00,1.31
9613.00,1.31
9612.00,1.31
9611.00,1.30
9610.00,1.30
9609.00,1.30
9608.00,1.29
9607.00,1.29
9606.00,1.29
9605.00,1.28
9604.00,1.28
9603.00,1.27
9602.00,1.27
9601.00,1.27
9600.00,1.27
9599.00,1.26
9598.00,1.26
9597.00,1.26
9596.00,1.26
9595.00,1.27
9594.00,1.27
9593.00,1.27
9592.00,1.27
9591.00,1.28
9590.00,1.28
9589.00,1.29
9588.00,1.29
9587.00,1.29
9586.00,1.30
9585.00,1.30
9584.00,1.31
9583.00,1.31
9582.00,1.31
9581.00,1.31
9580.00,1.31
9579.00,1.32
9578.00,1.32
9577.00,1.32
9576.00,1.32
9575.00,1.31
9574.00,1.31
9573.00,1.31
9572.00,1.31
9571.00,1.31
9570.00,1.31
9569.00,1.31
9568.00,1.31
9567.00,1.31
9566.00,1.31
9565.00,1.31
9564.00,1.31
9563.00,1.31
9562.00,1.31
9561.00,1.31
9560.00,1.31
9559.00,1.31
9558.00,1.31
9557.00,1.32
9556.00,1.32
9555.00,1.32
9554.00,1.32
9553.00,1.32
9552.00,1.32
9551.00,1.32
9550.00,1.32
9549.00,1.32
9548.00,1.32
9547.00,1.32
9546.00,1.32
9545.00,1.32
9544.00,1.33
9543.00,1.33
9542.00,1.33
9541.00,1.33
9540.00,1.33
9539.00,1.33
9538.00,1.33
9537.00,1.33
9536.00,1.33
9535.00,1.33
9534.00,1.33
9533.00,1.33
9532.00,1.33
9531.00,1.33
9530.00,1.33
9529.00,1.33
9528.00,1.33
9527.00,1.33
9526.00,1.33
9525.00,1.32
9524.00,1.32
9523.00,1.32
9522.00,1.32
9521.00,1.32
9520.00,1.31
9519.00,1.31
9518.00,1.31
9517.00,1.31
9516.00,1.31
9515.00,1.31
9514.00,1.31
9513.00,1.31
9512.00,1.31
9511.00,1.31
9510.00,1.31
9509.00,1.31
9508.00,1.31
9507.00,1.31
9506.00,1.31
9505.00,1.31
9504.00,1.31
9503.00,1.31
9502.00,1.31
9501.00,1.31
9500.00,1.31
9499.00,1.31
9498.00,1.31
9497.00,1.31
9496.00,1.31
9495.00,1.31
9494.00,1.31
9493.00,1.31
9492.00,1.31
9491.00,1.31
9490.00,1.31
9489.00,1.31
9488.00,1.31
9487.00,1.31
9486.00,1.31
9485.00,1.31
9484.00,1.31
9483.00,1.31
9482.00,1.31
9481.00,1.31
9480.00,1.31
9479.00,1.30
9478.00,1.30
9477.00,1.30
9476.00,1.30
9475.00,1.31
9474.00,1.31
9473.00,1.31
9472.00,1.31
9471.00,1.31
9470.00,1.31
9469.00,1.31
9468.00,1.31
9467.00,1.31
9466.00,1.31
9465.00,1.31
9464.00,1.31
9463.00,1.31
9462.00,1.31
9461.00,1.31
9460.00,1.31
9459.00,1.31
9458.00,1.31
9457.00,1.31
9456.00,1.31
9455.00,1.31
9454.00,1.31
9453.00,1.31
9452.00,1.31
9451.00,1.31
9450.00,1.31
9449.00,1.31
9448.00,1.31
9447.00,1.31
9446.00,1.31
9445.00,1.31
9444.00,1.31
9443.00,1.31
9442.00,1.31
9441.00,1.31
9440.00,1.31
9439.00,1.31
9438.00,1.31
9437.00,1.31
9436.00,1.31
9435.00,1.31
9434.00,1.31
9433.00,1.31
9432.00,1.31
9431.00,1.31
9430.00,1.31
9429.00,1.31
9428.00,1.31
9427.00,1.31
9426.00,1.31
9425.00,1.31
9424.00,1.31
9423.00,1.31
9422.00,1.31
9421.00,1.31
9420.00,1.31
9419.00,1.31
9418.00,1.31
9417.00,1.31
9416.00,1.31
9415.00,1.31
9414.00,1.31
9413.00,1.31
9412.00,1.31
9411.00,1.31
9410.00,1.31
9409.00,1.31
9408.00,1.31
9407.00,1.31
9406.00,1.31
9405.00,1.31
9404.00,1.31
9403.00,1.31
9402.00,1.32
9401.00,1.32
9400.00,1.32
9399.00,1.32
9398.00,1.32
9397.00,1.31
9396.00,1.31
9395.00,1.31
9394.00,1.31
9393.00,1.31
9392.00,1.31
9391.00,1.31
9390.00,1.30
9389.00,1.30
9388.00,1.30
9387.00,1.30
9386.00,1.30
9385.00,1.30
9384.00,1.30
9383.00,1.30
9382.00,1.30
9381.00,1.30
9380.00,1.30
9379.00,1.30
9378.00,1.30
9377.00,1.30
9376.00,1.30
9375.00,1.30
9374.00,1.30
9373.00,1.30
9372.00,1.30
9371.00,1.30
9370.00,1.30
9369.00,1.30
9368.00,1.31
9367.00,1.31
9366.00,1.31
9365.00,1.31
9364.00,1.31
9363.00,1.31
9362.00,1.31
9361.00,1.31
9360.00,1.31
9359.00,1.31
9358.00,1.31
9357.00,1.31
9356.00,1.31
9355.00,1.31
9354.00,1.31
9353.00,1.31
9352.00,1.31
9351.00,1.31
9350.00,1.31
9349.00,1.31
9348.00,1.31
9347.00,1.31
9346.00,1.31
9345.00,1.31
9344.00,1.31
9343.00,1.31
9342.00,1.31
9341.00,1.32
9340.00,1.32
9339.00,1.32
9338.00,1.32
9337.00,1.32
9336.00,1.32
9335.00,1.32
9334.00,1.32
9333.00,1.32
9332.00,1.32
9331.00,1.32
9330.00,1.32
9329.00,1.32
9328.00,1.32
9327.00,1.32
9326.00,1.32
9325.00,1.32
9324.00,1.32
9323.00,1.33
9322.00,1.33
9321.00,1.33
9320.00,1.33
9319.00,1.33
9318.00,1.33
9317.00,1.33
9316.00,1.33
9315.00,1.33
9314.00,1.33
9313.00,1.33
9312.00,1.33
9311.00,1.33
9310.00,1.33
9309.00,1.33
9308.00,1.33
9307.00,1.33
9306.00,1.33
9305.00,1.32
9304.00,1.32
9303.00,1.32
9302.00,1.32
9301.00,1.32
9300.00,1.32
9299.00,1.31
9298.00,1.31
9297.00,1.31
9296.00,1.31
9295.00,1.31
9294.00,1.31
9293.00,1.31
9292.00,1.31
9291.00,1.31
9290.00,1.31
9289.00,1.31
9288.00,1.31
9287.00,1.31
9286.00,1.31
9285.00,1.32
9284.00,1.32
9283.00,1.32
9282.00,1.32
9281.00,1.32
9280.00,1.32
9279.00,1.32
9278.00,1.32
9277.00,1.32
9276.00,1.32
9275.00,1.32
9274.00,1.32
9273.00,1.32
9272.00,1.32
9271.00,1.32
9270.00,1.32
9269.00,1.32
9268.00,1.32
9267.00,1.31
9266.00,1.31
9265.00,1.31
9264.00,1.31
9263.00,1.31
9262.00,1.31
9261.00,1.31
9260.00,1.31
9259.00,1.31
9258.00,1.31
9257.00,1.31
9256.00,1.31
9255.00,1.31
9254.00,1.31
9253.00,1.31
9252.00,1.31
9251.00,1.31
9250.00,1.31
9249.00,1.31
9248.00,1.31
9247.00,1.31
9246.00,1.32
9245.00,1.32
9244.00,1.32
9243.00,1.32
9242.00,1.32
9241.00,1.32
9240.00,1.32
9239.00,1.32
9238.00,1.32
9237.00,1.32
9236.00,1.32
9235.00,1.33
9234.00,1.33
9233.00,1.33
9232.00,1.33
9231.00,1.33
9230.00,1.33
9229.00,1.33
9228.00,1.33
9227.00,1.33
9226.00,1.33
9225.00,1.33
9224.00,1.33
9223.00,1.33
9222.00,1.33
9221.00,1.33
9220.00,1.33
9219.00,1.33
9218.00,1.33
9217.00,1.33
9216.00,1.32
9215.00,1.32
9214.00,1.32
9213.00,1.32
9212.00,1.32
9211.00,1.31
9210.00,1.31
9209.00,1.31
9208.00,1.31
9207.00,1.31
9206.00,1.31
9205.00,1.30
9204.00,1.30
9203.00,1.30
9202.00,1.30
9201.00,1.30
9200.00,1.30
9199.00,1.30
9198.00,1.31
9197.00,1.31
9196.00,1.31
9195.00,1.31
9194.00,1.31
9193.00,1.31
9192.00,1.32
9191.00,1.32
9190.00,1.32
9189.00,1.32
9188.00,1.33
9187.00,1.33
9186.00,1.33
9185.00,1.33
9184.00,1.33
9183.00,1.33
9182.00,1.33
9181.00,1.33
9180.00,1.33
9179.00,1.33
9178.00,1.33
9177.00,1.33
9176.00,1.33
9175.00,1.33
9174.00,1.32
9173.00,1.32
9172.00,1.32
9171.00,1.32
9170.00,1.32
9169.00,1.32
9168.00,1.31
9167.00,1.31
9166.00,1.31
9165.00,1.31
9164.00,1.31
9163.00,1.32
9162.00,1.32
9161.00,1.32
9160.00,1.32
9159.00,1.32
9158.00,1.32
9157.00,1.32
9156.00,1.32
9155.00,1.33
9154.00,1.33
9153.00,1.33
9152.00,1.33
9151.00,1.33
9150.00,1.33
9149.00,1.33
9148.00,1.33
9147.00,1.33
9146.00,1.33
9145.00,1.33
9144.00,1.33
9143.00,1.32
9142.00,1.32
9141.00,1.32
9140.00,1.32
9139.00,1.32
9138.00,1.32
9137.00,1.32
9136.00,1.32
9135.00,1.31
9134.00,1.31
9133.00,1.31
9132.00,1.31
9131.00,1.31
9130.00,1.31
9129.00,1.31
9128.00,1.30
9127.00,1.30
9126.00,1.30
9125.00,1.30
9124.00,1.30
9123.00,1.30
9122.00,1.30
9121.00,1.30
9120.00,1.30
9119.00,1.30
9118.00,1.30
9117.00,1.30
9116.00,1.30
9115.00,1.30
9114.00,1.30
9113.00,1.30
9112.00,1.30
9111.00,1.30
9110.00,1.30
9109.00,1.30
9108.00,1.30
9107.00,1.30
9106.00,1.30
9105.00,1.31
9104.00,1.31
9103.00,1.31
9102.00,1.31
9101.00,1.31
9100.00,1.31
9099.00,1.31
9098.00,1.31
9097.00,1.31
9096.00,1.31
9095.00,1.31
9094.00,1.31
9093.00,1.31
9092.00,1.31
9091.00,1.31
9090.00,1.31
9089.00,1.31
9088.00,1.31
9087.00,1.31
9086.00,1.31
9085.00,1.31
9084.00,1.31
9083.00,1.31
9082.00,1.31
9081.00,1.31
9080.00,1.32
9079.00,1.32
9078.00,1.32
9077.00,1.32
9076.00,1.32
9075.00,1.32
9074.00,1.32
9073.00,1.32
9072.00,1.32
9071.00,1.32
9070.00,1.32
9069.00,1.32
9068.00,1.32
9067.00,1.32
9066.00,1.32
9065.00,1.33
9064.00,1.33
9063.00,1.33
9062.00,1.33
9061.00,1.33
9060.00,1.33
9059.00,1.33
9058.00,1.33
9057.00,1.33
9056.00,1.33
9055.00,1.33
9054.00,1.33
9053.00,1.33
9052.00,1.33
9051.00,1.33
9050.00,1.33
9049.00,1.33
9048.00,1.33
9047.00,1.33
9046.00,1.33
9045.00,1.33
9044.00,1.33
9043.00,1.32
9042.00,1.32
9041.00,1.32
9040.00,1.32
9039.00,1.32
9038.00,1.32
9037.00,1.32
9036.00,1.32
9035.00,1.32
9034.00,1.32
9033.00,1.32
9032.00,1.32
9031.00,1.32
9030.00,1.32
9029.00,1.32
9028.00,1.32
9027.00,1.32
9026.00,1.32
9025.00,1.32
9024.00,1.32
9023.00,1.32
9022.00,1.32
9021.00,1.32
9020.00,1.32
9019.00,1.32
9018.00,1.32
9017.00,1.32
9016.00,1.32
9015.00,1.32
9014.00,1.32
9013.00,1.32
9012.00,1.32
9011.00,1.32
9010.00,1.32
9009.00,1.32
9008.00,1.32
9007.00,1.31
9006.00,1.31
9005.00,1.31
9004.00,1.31
9003.00,1.31
9002.00,1.31
9001.00,1.31
9000.00,1.31
8999.00,1.31
8998.00,1.31
8997.00,1.31
8996.00,1.31
8995.00,1.31
8994.00,1.31
8993.00,1.31
8992.00,1.31
8991.00,1.31
8990.00,1.31
8989.00,1.31
8988.00,1.31
8987.00,1.31
8986.00,1.31
8985.00,1.31
8984.00,1.31
8983.00,1.31
8982.00,1.31
8981.00,1.30
8980.00,1.30
8979.00,1.30
8978.00,1.30
8977.00,1.30
8976.00,1.30
8975.00,1.30
8974.00,1.30
8973.00,1.30
8972.00,1.31
8971.00,1.31
8970.00,1.31
8969.00,1.31
8968.00,1.31
8967.00,1.31
8966.00,1.31
8965.00,1.31
8964.00,1.31
8963.00,1.31
8962.00,1.31
8961.00,1.32
8960.00,1.32
8959.00,1.32
8958.00,1.32
8957.00,1.32
8956.00,1.32
8955.00,1.32
8954.00,1.33
8953.00,1.33
8952.00,1.33
8951.00,1.33
8950.00,1.33
8949.00,1.33
8948.00,1.33
8947.00,1.33
8946.00,1.33
8945.00,1.33
8944.00,1.33
8943.00,1.33
8942.00,1.33
8941.00,1.33
8940.00,1.33
8939.00,1.33
8938.00,1.33
8937.00,1.33
8936.00,1.33
8935.00,1.33
8934.00,1.32
8933.00,1.32
8932.00,1.32
8931.00,1.32
8930.00,1.32
8929.00,1.32
8928.00,1.31
8927.00,1.31
8926.00,1.31
8925.00,1.31
8924.00,1.31
8923.00,1.31
8922.00,1.31
8921.00,1.31
8920.00,1.31
8919.00,1.30
8918.00,1.30
8917.00,1.30
8916.00,1.30
8915.00,1.30
8914.00,1.30
8913.00,1.30
8912.00,1.30
8911.00,1.30
8910.00,1.30
8909.00,1.30
8908.00,1.30
8907.00,1.30
8906.00,1.30
8905.00,1.30
8904.00,1.30
8903.00,1.30
8902.00,1.30
8901.00,1.30
8900.00,1.30
8899.00,1.30
8898.00,1.31
8897.00,1.31
8896.00,1.31
8895.00,1.31
8894.00,1.31
8893.00,1.31
8892.00,1.31
8891.00,1.31
8890.00,1.31
8889.00,1.31
8888.00,1.31
8887.00,1.31
8886.00,1.31
8885.00,1.31
8884.00,1.32
8883.00,1.31
8882.00,1.31
8881.00,1.31
8880.00,1.31
8879.00,1.31
8878.00,1.31
8877.00,1.31
8876.00,1.31
8875.00,1.31
8874.00,1.31
8873.00,1.31
8872.00,1.30
8871.00,1.30
8870.00,1.30
8869.00,1.30
8868.00,1.30
8867.00,1.30
8866.00,1.30
8865.00,1.29
8864.00,1.29
8863.00,1.29
8862.00,1.29
8861.00,1.29
8860.00,1.29
8859.00,1.29
8858.00,1.29
8857.00,1.29
8856.00,1.29
8855.00,1.29
8854.00,1.29
8853.00,1.30
8852.00,1.30
8851.00,1.30
8850.00,1.30
8849.00,1.30
8848.00,1.30
8847.00,1.30
8846.00,1.30
8845.00,1.30
8844.00,1.31
8843.00,1.31
8842.00,1.31
8841.00,1.31
8840.00,1.31
8839.00,1.31
8838.00,1.31
8837.00,1.31
8836.00,1.31
8835.00,1.31
8834.00,1.31
8833.00,1.30
8832.00,1.30
8831.00,1.30
8830.00,1.30
8829.00,1.30
8828.00,1.30
8827.00,1.30
8826.00,1.30
8825.00,1.30
8824.00,1.30
8823.00,1.29
8822.00,1.29
8821.00,1.29
8820.00,1.29
8819.00,1.29
8818.00,1.29
8817.00,1.29
8816.00,1.29
8815.00,1.29
8814.00,1.29
8813.00,1.29
8812.00,1.29
8811.00,1.29
8810.00,1.29
8809.00,1.29
8808.00,1.29
8807.00,1.29
8806.00,1.29
8805.00,1.29
8804.00,1.29
8803.00,1.29
8802.00,1.29
8801.00,1.29
8800.00,1.29
8799.00,1.29
8798.00,1.29
8797.00,1.29
8796.00,1.29
8795.00,1.28
8794.00,1.28
8793.00,1.28
8792.00,1.28
8791.00,1.28
8790.00,1.28
8789.00,1.28
8788.00,1.28
8787.00,1.28
8786.00,1.28
8785.00,1.28
8784.00,1.28
8783.00,1.28
8782.00,1.28
8781.00,1.28
8780.00,1.28
8779.00,1.28
8778.00,1.28
8777.00,1.28
8776.00,1.28
8775.00,1.28
8774.00,1.28
8773.00,1.28
8772.00,1.29
8771.00,1.29
8770.00,1.29
8769.00,1.29
8768.00,1.29
8767.00,1.29
8766.00,1.29
8765.00,1.29
8764.00,1.29
8763.00,1.29
8762.00,1.28
8761.00,1.28
8760.00,1.28
8759.00,1.28
8758.00,1.27
8757.00,1.27
8756.00,1.27
8755.00,1.27
8754.00,1.26
8753.00,1.26
8752.00,1.26
8751.00,1.26
8750.00,1.25
8749.00,1.25
8748.00,1.25
8747.00,1.25
8746.00,1.25
8745.00,1.25
8744.00,1.25
8743.00,1.25
8742.00,1.25
8741.00,1.25
8740.00,1.25
8739.00,1.26
8738.00,1.26
8737.00,1.26
8736.00,1.26
8735.00,1.26
8734.00,1.26
8733.00,1.26
8732.00,1.26
8731.00,1.26
8730.00,1.26
8729.00,1.26
8728.00,1.26
8727.00,1.26
8726.00,1.26
8725.00,1.26
8724.00,1.26
8723.00,1.26
8722.00,1.26
8721.00,1.26
8720.00,1.26
8719.00,1.25
8718.00,1.25
8717.00,1.25
8716.00,1.25
8715.00,1.25
8714.00,1.25
8713.00,1.24
8712.00,1.24
8711.00,1.24
8710.00,1.24
8709.00,1.24
8708.00,1.23
8707.00,1.23
8706.00,1.23
8705.00,1.23
8704.00,1.23
8703.00,1.23
8702.00,1.23
8701.00,1.23
8700.00,1.23
8699.00,1.23
8698.00,1.23
8697.00,1.24
8696.00,1.24
8695.00,1.24
8694.00,1.24
8693.00,1.25
8692.00,1.25
8691.00,1.25
8690.00,1.25
8689.00,1.25
8688.00,1.26
8687.00,1.26
8686.00,1.26
8685.00,1.26
8684.00,1.26
8683.00,1.26
8682.00,1.26
8681.00,1.26
8680.00,1.26
8679.00,1.26
8678.00,1.26
8677.00,1.26
8676.00,1.25
8675.00,1.25
8674.00,1.25
8673.00,1.25
8672.00,1.25
8671.00,1.25
8670.00,1.25
8669.00,1.25
8668.00,1.24
8667.00,1.24
8666.00,1.24
8665.00,1.24
8664.00,1.24
8663.00,1.24
8662.00,1.24
8661.00,1.24
8660.00,1.24
8659.00,1.24
8658.00,1.23
8657.00,1.23
8656.00,1.23
8655.00,1.23
8654.00,1.23
8653.00,1.23
8652.00,1.23
8651.00,1.23
8650.00,1.23
8649.00,1.23
8648.00,1.23
8647.00,1.23
8646.00,1.23
8645.00,1.24
8644.00,1.24
8643.00,1.24
8642.00,1.24
8641.00,1.24
8640.00,1.24
8639.00,1.24
8638.00,1.24
8637.00,1.24
8636.00,1.24
8635.00,1.24
8634.00,1.24
8633.00,1.24
8632.00,1.23
8631.00,1.23
8630.00,1.23
8629.00,1.23
8628.00,1.22
8627.00,1.22
8626.00,1.22
8625.00,1.22
8624.00,1.22
8623.00,1.21
8622.00,1.21
8621.00,1.21
8620.00,1.21
8619.00,1.21
8618.00,1.21
8617.00,1.20
8616.00,1.20
8615.00,1.20
8614.00,1.20
8613.00,1.20
8612.00,1.20
8611.00,1.20
8610.00,1.20
8609.00,1.20
8608.00,1.20
8607.00,1.20
8606.00,1.20
8605.00,1.20
8604.00,1.20
8603.00,1.20
8602.00,1.21
8601.00,1.21
8600.00,1.21
8599.00,1.21
8598.00,1.21
8597.00,1.21
8596.00,1.21
8595.00,1.21
8594.00,1.21
8593.00,1.21
8592.00,1.21
8591.00,1.21
8590.00,1.21
8589.00,1.21
8588.00,1.21
8587.00,1.21
8586.00,1.21
8585.00,1.21
8584.00,1.21
8583.00,1.21
8582.00,1.21
8581.00,1.20
8580.00,1.20
8579.00,1.20
8578.00,1.20
8577.00,1.20
8576.00,1.20
8575.00,1.20
8574.00,1.19
8573.00,1.19
8572.00,1.19
8571.00,1.19
8570.00,1.19
8569.00,1.19
8568.00,1.19
8567.00,1.18
8566.00,1.18
8565.00,1.18
8564.00,1.18
8563.00,1.18
8562.00,1.18
8561.00,1.18
8560.00,1.18
8559.00,1.18
8558.00,1.18
8557.00,1.18
8556.00,1.18
8555.00,1.18
8554.00,1.18
8553.00,1.18
8552.00,1.18
8551.00,1.18
8550.00,1.18
8549.00,1.18
8548.00,1.18
8547.00,1.18
8546.00,1.18
8545.00,1.18
8544.00,1.18
8543.00,1.18
8542.00,1.18
8541.00,1.18
8540.00,1.18
8539.00,1.19
8538.00,1.19
8537.00,1.19
8536.00,1.19
8535.00,1.19
8534.00,1.19
8533.00,1.19
8532.00,1.19
8531.00,1.19
8530.00,1.19
8529.00,1.19
8528.00,1.19
8527.00,1.18
8526.00,1.18
8525.00,1.18
8524.00,1.18
8523.00,1.18
8522.00,1.18
8521.00,1.18
8520.00,1.17
8519.00,1.17
8518.00,1.17
8517.00,1.17
8516.00,1.17
8515.00,1.16
8514.00,1.16
8513.00,1.16
8512.00,1.16
8511.00,1.15
8510.00,1.15
8509.00,1.15
8508.00,1.15
8507.00,1.15
8506.00,1.15
8505.00,1.15
8504.00,1.15
8503.00,1.14
8502.00,1.14
8501.00,1.14
8500.00,1.14
8499.00,1.14
8498.00,1.14
8497.00,1.14
8496.00,1.14
8495.00,1.14
8494.00,1.14
8493.00,1.15
8492.00,1.15
8491.00,1.15
8490.00,1.15
8489.00,1.15
8488.00,1.15
8487.00,1.14
8486.00,1.14
8485.00,1.14
8484.00,1.14
8483.00,1.14
8482.00,1.14
8481.00,1.14
8480.00,1.14
8479.00,1.14
8478.00,1.14
8477.00,1.14
8476.00,1.14
8475.00,1.14
8474.00,1.14
8473.00,1.14
8472.00,1.14
8471.00,1.14
8470.00,1.15
8469.00,1.15
8468.00,1.15
8467.00,1.15
8466.00,1.14
8465.00,1.14
8464.00,1.14
8463.00,1.14
8462.00,1.14
8461.00,1.14
8460.00,1.14
8459.00,1.14
8458.00,1.13
8457.00,1.13
8456.00,1.13
8455.00,1.13
8454.00,1.13
8453.00,1.12
8452.00,1.12
8451.00,1.12
8450.00,1.12
8449.00,1.12
8448.00,1.11
8447.00,1.11
8446.00,1.11
8445.00,1.11
8444.00,1.11
8443.00,1.10
8442.00,1.10
8441.00,1.10
8440.00,1.10
8439.00,1.10
8438.00,1.10
8437.00,1.10
8436.00,1.10
8435.00,1.10
8434.00,1.10
8433.00,1.10
8432.00,1.10
8431.00,1.10
8430.00,1.10
8429.00,1.10
8428.00,1.10
8427.00,1.10
8426.00,1.10
8425.00,1.11
8424.00,1.11
8423.00,1.11
8422.00,1.11
8421.00,1.11
8420.00,1.11
8419.00,1.12
8418.00,1.12
8417.00,1.12
8416.00,1.12
8415.00,1.12
8414.00,1.13
8413.00,1.13
8412.00,1.13
8411.00,1.13
8410.00,1.13
8409.00,1.13
8408.00,1.13
8407.00,1.14
8406.00,1.14
8405.00,1.14
8404.00,1.14
8403.00,1.14
8402.00,1.14
8401.00,1.14
8400.00,1.14
8399.00,1.14
8398.00,1.14
8397.00,1.14
8396.00,1.14
8395.00,1.14
8394.00,1.14
8393.00,1.15
8392.00,1.15
8391.00,1.15
8390.00,1.15
8389.00,1.15
8388.00,1.15
8387.00,1.15
8386.00,1.15
8385.00,1.15
8384.00,1.15
8383.00,1.15
8382.00,1.15
8381.00,1.15
8380.00,1.15
8379.00,1.15
8378.00,1.15
8377.00,1.15
8376.00,1.15
8375.00,1.15
8374.00,1.16
8373.00,1.16
8372.00,1.16
8371.00,1.16
8370.00,1.16
8369.00,1.16
8368.00,1.16
8367.00,1.17
8366.00,1.17
8365.00,1.17
8364.00,1.17
8363.00,1.17
8362.00,1.17
8361.00,1.17
8360.00,1.17
8359.00,1.17
8358.00,1.17
8357.00,1.17
8356.00,1.17
8355.00,1.17
8354.00,1.17
8353.00,1.17
8352.00,1.17
8351.00,1.17
8350.00,1.17
8349.00,1.17
8348.00,1.17
8347.00,1.17
8346.00,1.17
8345.00,1.17
8344.00,1.17
8343.00,1.17
8342.00,1.17
8341.00,1.17
8340.00,1.17
8339.00,1.17
8338.00,1.17
8337.00,1.17
8336.00,1.17
8335.00,1.17
8334.00,1.17
8333.00,1.17
8332.00,1.17
8331.00,1.17
8330.00,1.17
8329.00,1.17
8328.00,1.17
8327.00,1.17
8326.00,1.17
8325.00,1.17
8324.00,1.17
8323.00,1.17
8322.00,1.17
8321.00,1.17
8320.00,1.17
8319.00,1.17
8318.00,1.18
8317.00,1.18
8316.00,1.18
8315.00,1.18
8314.00,1.18
8313.00,1.18
8312.00,1.18
8311.00,1.18
8310.00,1.18
8309.00,1.18
8308.00,1.18
8307.00,1.18
8306.00,1.18
8305.00,1.18
8304.00,1.18
8303.00,1.17
8302.00,1.17
8301.00,1.17
8300.00,1.17
8299.00,1.17
8298.00,1.17
8297.00,1.17
8296.00,1.17
8295.00,1.17
8294.00,1.17
8293.00,1.17
8292.00,1.18
8291.00,1.18
8290.00,1.18
8289.00,1.18
8288.00,1.18
8287.00,1.18
8286.00,1.18
8285.00,1.18
8284.00,1.18
8283.00,1.18
8282.00,1.18
8281.00,1.18
8280.00,1.18
8279.00,1.18
8278.00,1.18
8277.00,1.18
8276.00,1.18
8275.00,1.18
8274.00,1.18
8273.00,1.18
8272.00,1.18
8271.00,1.18
8270.00,1.18
8269.00,1.18
8268.00,1.18
8267.00,1.18
8266.00,1.18
8265.00,1.18
8264.00,1.18
8263.00,1.18
8262.00,1.18
8261.00,1.18
8260.00,1.18
8259.00,1.18
8258.00,1.18
8257.00,1.18
8256.00,1.18
8255.00,1.18
8254.00,1.18
8253.00,1.18
8252.00,1.18
8251.00,1.18
8250.00,1.18
8249.00,1.18
8248.00,1.19
8247.00,1.19
8246.00,1.19
8245.00,1.19
8244.00,1.19
8243.00,1.19
8242.00,1.19
8241.00,1.19
8240.00,1.19
8239.00,1.19
8238.00,1.19
8237.00,1.19
8236.00,1.19
8235.00,1.19
8234.00,1.19
8233.00,1.19
8232.00,1.20
8231.00,1.20
8230.00,1.20
8229.00,1.20
8228.00,1.20
8227.00,1.20
8226.00,1.20
8225.00,1.20
8224.00,1.21
8223.00,1.21
8222.00,1.21
8221.00,1.21
8220.00,1.21
8219.00,1.21
8218.00,1.21
8217.00,1.21
8216.00,1.21
8215.00,1.21
8214.00,1.21
8213.00,1.21
8212.00,1.21
8211.00,1.21
8210.00,1.21
8209.00,1.21
8208.00,1.21
8207.00,1.21
8206.00,1.21
8205.00,1.21
8204.00,1.21
8203.00,1.21
8202.00,1.21
8201.00,1.21
8200.00,1.21
8199.00,1.20
8198.00,1.20
8197.00,1.21
8196.00,1.21
8195.00,1.21
8194.00,1.21
8193.00,1.21
8192.00,1.21
8191.00,1.21
8190.00,1.21
8189.00,1.21
8188.00,1.21
8187.00,1.22
8186.00,1.22
8185.00,1.22
8184.00,1.22
8183.00,1.22
8182.00,1.22
8181.00,1.22
8180.00,1.22
8179.00,1.22
8178.00,1.23
8177.00,1.23
8176.00,1.23
8175.00,1.23
8174.00,1.23
8173.00,1.23
8172.00,1.23
8171.00,1.23
8170.00,1.23
8169.00,1.24
8168.00,1.24
8167.00,1.24
8166.00,1.24
8165.00,1.24
8164.00,1.24
8163.00,1.24
8162.00,1.24
8161.00,1.24
8160.00,1.24
8159.00,1.24
8158.00,1.24
8157.00,1.24
8156.00,1.24
8155.00,1.24
8154.00,1.24
8153.00,1.24
8152.00,1.24
8151.00,1.24
8150.00,1.24
8149.00,1.24
8148.00,1.24
8147.00,1.24
8146.00,1.24
8145.00,1.24
8144.00,1.24
8143.00,1.24
8142.00,1.24
8141.00,1.24
8140.00,1.24
8139.00,1.24
8138.00,1.24
8137.00,1.25
8136.00,1.25
8135.00,1.25
8134.00,1.25
8133.00,1.25
8132.00,1.25
8131.00,1.25
8130.00,1.25
8129.00,1.25
8128.00,1.25
8127.00,1.25
8126.00,1.25
8125.00,1.25
8124.00,1.25
8123.00,1.25
8122.00,1.25
8121.00,1.25
8120.00,1.25
8119.00,1.25
8118.00,1.25
8117.00,1.25
8116.00,1.25
8115.00,1.25
8114.00,1.25
8113.00,1.25
8112.00,1.25
8111.00,1.25
8110.00,1.25
8109.00,1.25
8108.00,1.25
8107.00,1.25
8106.00,1.26
8105.00,1.26
8104.00,1.26
8103.00,1.26
8102.00,1.26
8101.00,1.26
8100.00,1.26
8099.00,1.26
8098.00,1.26
8097.00,1.26
8096.00,1.26
8095.00,1.26
8094.00,1.26
8093.00,1.26
8092.00,1.26
8091.00,1.26
8090.00,1.26
8089.00,1.26
8088.00,1.26
8087.00,1.26
8086.00,1.26
8085.00,1.25
8084.00,1.25
8083.00,1.25
8082.00,1.25
8081.00,1.25
8080.00,1.25
8079.00,1.25
8078.00,1.25
8077.00,1.26
8076.00,1.26
8075.00,1.26
8074.00,1.26
8073.00,1.26
8072.00,1.26
8071.00,1.26
8070.00,1.26
8069.00,1.27
8068.00,1.27
8067.00,1.27
8066.00,1.27
8065.00,1.27
8064.00,1.27
8063.00,1.27
8062.00,1.27
8061.00,1.27
8060.00,1.27
8059.00,1.27
8058.00,1.27
8057.00,1.27
8056.00,1.27
8055.00,1.27
8054.00,1.27
8053.00,1.27
8052.00,1.27
8051.00,1.27
8050.00,1.27
8049.00,1.27
8048.00,1.27
8047.00,1.27
8046.00,1.27
8045.00,1.27
8044.00,1.27
8043.00,1.27
8042.00,1.27
8041.00,1.27
8040.00,1.27
8039.00,1.27
8038.00,1.27
8037.00,1.27
8036.00,1.27
8035.00,1.27
8034.00,1.28
8033.00,1.28
8032.00,1.28
8031.00,1.28
8030.00,1.28
8029.00,1.28
8028.00,1.28
8027.00,1.28
8026.00,1.28
8025.00,1.28
8024.00,1.28
8023.00,1.28
8022.00,1.28
8021.00,1.28
8020.00,1.28
8019.00,1.27
8018.00,1.27
8017.00,1.27
8016.00,1.27
8015.00,1.27
8014.00,1.27
8013.00,1.27
8012.00,1.27
8011.00,1.27
8010.00,1.27
8009.00,1.27
8008.00,1.27
8007.00,1.27
8006.00,1.28
8005.00,1.28
8004.00,1.28
8003.00,1.28
8002.00,1.28
8001.00,1.28
8000.00,1.28
7999.00,1.28
7998.00,1.28
7997.00,1.28
7996.00,1.28
7995.00,1.28
7994.00,1.29
7993.00,1.29
7992.00,1.29
7991.00,1.29
7990.00,1.29
7989.00,1.29
7988.00,1.29
7987.00,1.29
7986.00,1.29
7985.00,1.29
7984.00,1.29
7983.00,1.29
7982.00,1.29
7981.00,1.29
7980.00,1.29
7979.00,1.29
7978.00,1.29
7977.00,1.29
7976.00,1.29
7975.00,1.29
7974.00,1.29
7973.00,1.30
7972.00,1.30
7971.00,1.30
7970.00,1.30
7969.00,1.30
7968.00,1.30
7967.00,1.30
7966.00,1.30
7965.00,1.30
7964.00,1.30
7963.00,1.30
7962.00,1.30
7961.00,1.30
7960.00,1.30
7959.00,1.30
7958.00,1.30
7957.00,1.30
7956.00,1.30
7955.00,1.30
7954.00,1.30
7953.00,1.29
7952.00,1.29
7951.00,1.29
7950.00,1.29
7949.00,1.29
7948.00,1.29
7947.00,1.29
7946.00,1.29
7945.00,1.29
7944.00,1.29
7943.00,1.29
7942.00,1.29
7941.00,1.29
7940.00,1.29
7939.00,1.29
7938.00,1.29
7937.00,1.29
7936.00,1.29
7935.00,1.29
7934.00,1.29
7933.00,1.29
7932.00,1.29
7931.00,1.29
7930.00,1.29
7929.00,1.29
7928.00,1.29
7927.00,1.29
7926.00,1.29
7925.00,1.29
7924.00,1.29
7923.00,1.29
7922.00,1.29
7921.00,1.29
7920.00,1.29
7919.00,1.29
7918.00,1.29
7917.00,1.29
7916.00,1.29
7915.00,1.30
7914.00,1.30
7913.00,1.30
7912.00,1.30
7911.00,1.30
7910.00,1.30
7909.00,1.30
7908.00,1.30
7907.00,1.30
7906.00,1.30
7905.00,1.30
7904.00,1.30
7903.00,1.30
7902.00,1.30
7901.00,1.30
7900.00,1.30
7899.00,1.30
7898.00,1.30
7897.00,1.30
7896.00,1.30
7895.00,1.30
7894.00,1.30
7893.00,1.30
7892.00,1.30
7891.00,1.30
7890.00,1.30
7889.00,1.31
7888.00,1.31
7887.00,1.31
7886.00,1.31
7885.00,1.31
7884.00,1.31
7883.00,1.31
7882.00,1.31
7881.00,1.31
7880.00,1.31
7879.00,1.31
7878.00,1.31
7877.00,1.31
7876.00,1.31
7875.00,1.31
7874.00,1.31
7873.00,1.30
7872.00,1.30
7871.00,1.30
7870.00,1.30
7869.00,1.30
7868.00,1.30
7867.00,1.30
7866.00,1.30
7865.00,1.30
7864.00,1.30
7863.00,1.30
7862.00,1.30
7861.00,1.30
7860.00,1.30
7859.00,1.30
7858.00,1.30
7857.00,1.31
7856.00,1.31
7855.00,1.31
7854.00,1.31
7853.00,1.31
7852.00,1.31
7851.00,1.31
7850.00,1.31
7849.00,1.31
7848.00,1.31
7847.00,1.31
7846.00,1.31
7845.00,1.31
7844.00,1.31
7843.00,1.31
7842.00,1.31
7841.00,1.31
7840.00,1.31
7839.00,1.31
7838.00,1.31
7837.00,1.31
7836.00,1.31
7835.00,1.31
7834.00,1.31
7833.00,1.31
7832.00,1.31
7831.00,1.31
7830.00,1.31
7829.00,1.31
7828.00,1.31
7827.00,1.31
7826.00,1.31
7825.00,1.31
7824.00,1.31
7823.00,1.31
7822.00,1.32
7821.00,1.32
7820.00,1.32
7819.00,1.32
7818.00,1.32
7817.00,1.32
7816.00,1.32
7815.00,1.32
7814.00,1.32
7813.00,1.32
7812.00,1.32
7811.00,1.32
7810.00,1.32
7809.00,1.32
7808.00,1.32
7807.00,1.32
7806.00,1.32
7805.00,1.32
7804.00,1.32
7803.00,1.32
7802.00,1.32
7801.00,1.32
7800.00,1.32
7799.00,1.32
7798.00,1.32
7797.00,1.32
7796.00,1.32
7795.00,1.32
7794.00,1.32
7793.00,1.32
7792.00,1.32
7791.00,1.32
7790.00,1.32
7789.00,1.32
7788.00,1.32
7787.00,1.32
7786.00,1.32
7785.00,1.32
7784.00,1.32
7783.00,1.32
7782.00,1.32
7781.00,1.32
7780.00,1.32
7779.00,1.32
7778.00,1.32
7777.00,1.32
7776.00,1.32
7775.00,1.32
7774.00,1.32
7773.00,1.32
7772.00,1.32
7771.00,1.32
7770.00,1.32
7769.00,1.32
7768.00,1.32
7767.00,1.32
7766.00,1.32
7765.00,1.32
7764.00,1.32
7763.00,1.32
7762.00,1.32
7761.00,1.32
7760.00,1.32
7759.00,1.32
7758.00,1.32
7757.00,1.32
7756.00,1.32
7755.00,1.33
7754.00,1.33
7753.00,1.33
7752.00,1.33
7751.00,1.33
7750.00,1.33
7749.00,1.33
7748.00,1.33
7747.00,1.32
7746.00,1.32
7745.00,1.32
7744.00,1.32
7743.00,1.32
7742.00,1.32
7741.00,1.32
7740.00,1.32
7739.00,1.32
7738.00,1.32
7737.00,1.32
7736.00,1.32
7735.00,1.32
7734.00,1.32
7733.00,1.32
7732.00,1.32
7731.00,1.32
7730.00,1.32
7729.00,1.32
7728.00,1.32
7727.00,1.32
7726.00,1.32
7725.00,1.32
7724.00,1.32
7723.00,1.32
7722.00,1.32
7721.00,1.33
7720.00,1.33
7719.00,1.33
7718.00,1.33
7717.00,1.33
7716.00,1.33
7715.00,1.33
7714.00,1.32
7713.00,1.32
7712.00,1.32
7711.00,1.32
7710.00,1.32
7709.00,1.32
7708.00,1.32
7707.00,1.32
7706.00,1.32
7705.00,1.32
7704.00,1.32
7703.00,1.32
7702.00,1.32
7701.00,1.32
7700.00,1.32
7699.00,1.32
7698.00,1.32
7697.00,1.32
7696.00,1.32
7695.00,1.32
7694.00,1.32
7693.00,1.32
7692.00,1.33
7691.00,1.33
7690.00,1.33
7689.00,1.33
7688.00,1.33
7687.00,1.33
7686.00,1.33
7685.00,1.33
7684.00,1.33
7683.00,1.33
7682.00,1.33
7681.00,1.33
7680.00,1.33
7679.00,1.33
7678.00,1.33
7677.00,1.33
7676.00,1.33
7675.00,1.33
7674.00,1.33
7673.00,1.33
7672.00,1.33
7671.00,1.33
7670.00,1.33
7669.00,1.33
7668.00,1.33
7667.00,1.33
7666.00,1.33
7665.00,1.33
7664.00,1.33
7663.00,1.33
7662.00,1.33
7661.00,1.33
7660.00,1.33
7659.00,1.33
7658.00,1.33
7657.00,1.33
7656.00,1.33
7655.00,1.33
7654.00,1.33
7653.00,1.33
7652.00,1.33
7651.00,1.32
7650.00,1.32
7649.00,1.32
7648.00,1.32
7647.00,1.32
7646.00,1.32
7645.00,1.32
7644.00,1.32
7643.00,1.32
7642.00,1.32
7641.00,1.32
7640.00,1.33
7639.00,1.33
7638.00,1.33
7637.00,1.33
7636.00,1.33
7635.00,1.33
7634.00,1.33
7633.00,1.33
7632.00,1.33
7631.00,1.33
7630.00,1.33
7629.00,1.33
7628.00,1.33
7627.00,1.33
7626.00,1.33
7625.00,1.33
7624.00,1.33
7623.00,1.33
7622.00,1.33
7621.00,1.33
7620.00,1.33
7619.00,1.33
7618.00,1.33
7617.00,1.33
7616.00,1.33
7615.00,1.33
7614.00,1.33
7613.00,1.33
7612.00,1.33
7611.00,1.33
7610.00,1.33
7609.00,1.33
7608.00,1.33
7607.00,1.33
7606.00,1.33
7605.00,1.33
7604.00,1.33
7603.00,1.33
7602.00,1.33
7601.00,1.33
7600.00,1.33
7599.00,1.33
7598.00,1.33
7597.00,1.33
7596.00,1.33
7595.00,1.33
7594.00,1.33
7593.00,1.33
7592.00,1.33
7591.00,1.33
7590.00,1.33
7589.00,1.33
7588.00,1.33
7587.00,1.33
7586.00,1.33
7585.00,1.33
7584.00,1.33
7583.00,1.33
7582.00,1.33
7581.00,1.33
7580.00,1.33
7579.00,1.33
7578.00,1.32
7577.00,1.32
7576.00,1.32
7575.00,1.32
7574.00,1.32
7573.00,1.32
7572.00,1.32
7571.00,1.32
7570.00,1.33
7569.00,1.33
7568.00,1.33
7567.00,1.33
7566.00,1.33
7565.00,1.33
7564.00,1.33
7563.00,1.33
7562.00,1.33
7561.00,1.33
7560.00,1.33
7559.00,1.33
7558.00,1.33
7557.00,1.33
7556.00,1.33
7555.00,1.33
7554.00,1.33
7553.00,1.32
7552.00,1.32
7551.00,1.32
7550.00,1.32
7549.00,1.32
7548.00,1.32
7547.00,1.32
7546.00,1.32
7545.00,1.32
7544.00,1.32
7543.00,1.32
7542.00,1.32
7541.00,1.32
7540.00,1.32
7539.00,1.32
7538.00,1.32
7537.00,1.32
7536.00,1.32
7535.00,1.32
7534.00,1.32
7533.00,1.32
7532.00,1.32
7531.00,1.32
7530.00,1.32
7529.00,1.32
7528.00,1.32
7527.00,1.32
7526.00,1.32
7525.00,1.32
7524.00,1.32
7523.00,1.32
7522.00,1.32
7521.00,1.32
7520.00,1.32
7519.00,1.32
7518.00,1.32
7517.00,1.31
7516.00,1.31
7515.00,1.31
7514.00,1.31
7513.00,1.31
7512.00,1.31
7511.00,1.31
7510.00,1.31
7509.00,1.31
7508.00,1.31
7507.00,1.31
7506.00,1.31
7505.00,1.30
7504.00,1.30
7503.00,1.30
7502.00,1.30
7501.00,1.30
7500.00,1.30
7499.00,1.30
7498.00,1.30
7497.00,1.30
7496.00,1.30
7495.00,1.30
7494.00,1.30
7493.00,1.30
7492.00,1.30
7491.00,1.30
7490.00,1.30
7489.00,1.30
7488.00,1.29
7487.00,1.29
7486.00,1.29
7485.00,1.29
7484.00,1.29
7483.00,1.29
7482.00,1.29
7481.00,1.29
7480.00,1.29
7479.00,1.29
7478.00,1.29
7477.00,1.29
7476.00,1.29
7475.00,1.29
7474.00,1.29
7473.00,1.28
7472.00,1.28
7471.00,1.28
7470.00,1.28
7469.00,1.28
7468.00,1.28
7467.00,1.28
7466.00,1.28
7465.00,1.28
7464.00,1.28
7463.00,1.28
7462.00,1.28
7461.00,1.28
7460.00,1.28
7459.00,1.28
7458.00,1.28
7457.00,1.28
7456.00,1.28
7455.00,1.28
7454.00,1.27
7453.00,1.27
7452.00,1.27
7451.00,1.27
7450.00,1.27
7449.00,1.27
7448.00,1.27
7447.00,1.27
7446.00,1.27
7445.00,1.27
7444.00,1.27
7443.00,1.27
7442.00,1.27
7441.00,1.27
7440.00,1.27
7439.00,1.27
7438.00,1.26
7437.00,1.26
7436.00,1.26
7435.00,1.26
7434.00,1.26
7433.00,1.26
7432.00,1.26
7431.00,1.26
7430.00,1.26
7429.00,1.26
7428.00,1.26
7427.00,1.26
7426.00,1.26
7425.00,1.26
7424.00,1.25
7423.00,1.25
7422.00,1.25
7421.00,1.25
7420.00,1.25
7419.00,1.25
7418.00,1.25
7417.00,1.25
7416.00,1.25
7415.00,1.25
7414.00,1.25
7413.00,1.25
7412.00,1.24
7411.00,1.24
7410.00,1.24
7409.00,1.24
7408.00,1.24
7407.00,1.24
7406.00,1.24
7405.00,1.24
7404.00,1.24
7403.00,1.24
7402.00,1.23
7401.00,1.23
7400.00,1.23
7399.00,1.23
7398.00,1.23
7397.00,1.23
7396.00,1.22
7395.00,1.22
7394.00,1.22
7393.00,1.22
7392.00,1.22
7391.00,1.21
7390.00,1.21
7389.00,1.21
7388.00,1.21
7387.00,1.21
7386.00,1.21
7385.00,1.20
7384.00,1.20
7383.00,1.20
7382.00,1.20
7381.00,1.20
7380.00,1.20
7379.00,1.20
7378.00,1.20
7377.00,1.20
7376.00,1.20
7375.00,1.20
7374.00,1.20
7373.00,1.20
7372.00,1.20
7371.00,1.20
7370.00,1.20
7369.00,1.20
7368.00,1.20
7367.00,1.20
7366.00,1.20
7365.00,1.20
7364.00,1.20
7363.00,1.20
7362.00,1.20
7361.00,1.20
7360.00,1.20
7359.00,1.20
7358.00,1.20
7357.00,1.20
7356.00,1.20
7355.00,1.20
7354.00,1.20
7353.00,1.20
7352.00,1.20
7351.00,1.20
7350.00,1.20
7349.00,1.20
7348.00,1.20
7347.00,1.20
7346.00,1.19
7345.00,1.19
7344.00,1.19
7343.00,1.19
7342.00,1.19
7341.00,1.19
7340.00,1.19
7339.00,1.19
7338.00,1.19
7337.00,1.19
7336.00,1.19
7335.00,1.19
7334.00,1.19
7333.00,1.19
7332.00,1.18
7331.00,1.18
7330.00,1.18
7329.00,1.18
7328.00,1.18
7327.00,1.18
7326.00,1.18
7325.00,1.18
7324.00,1.18
7323.00,1.18
7322.00,1.18
7321.00,1.18
7320.00,1.18
7319.00,1.18
7318.00,1.18
7317.00,1.17
7316.00,1.17
7315.00,1.17
7314.00,1.17
7313.00,1.17
7312.00,1.17
7311.00,1.16
7310.00,1.16
7309.00,1.16
7308.00,1.16
7307.00,1.16
7306.00,1.16
7305.00,1.16
7304.00,1.15
7303.00,1.15
7302.00,1.15
7301.00,1.15
7300.00,1.15
7299.00,1.15
7298.00,1.15
7297.00,1.15
7296.00,1.15
7295.00,1.15
7294.00,1.14
7293.00,1.14
7292.00,1.14
7291.00,1.14
7290.00,1.14
7289.00,1.14
7288.00,1.14
7287.00,1.14
7286.00,1.14
7285.00,1.14
7284.00,1.13
7283.00,1.13
7282.00,1.13
7281.00,1.13
7280.00,1.13
7279.00,1.13
7278.00,1.13
7277.00,1.12
7276.00,1.12
7275.00,1.12
7274.00,1.12
7273.00,1.12
7272.00,1.12
7271.00,1.12
7270.00,1.11
7269.00,1.11
7268.00,1.11
7267.00,1.11
7266.00,1.11
7265.00,1.11
7264.00,1.11
7263.00,1.11
7262.00,1.11
7261.00,1.11
7260.00,1.11
7259.00,1.10
7258.00,1.10
7257.00,1.10
7256.00,1.10
7255.00,1.10
7254.00,1.10
7253.00,1.10
7252.00,1.09
7251.00,1.09
7250.00,1.09
7249.00,1.09
7248.00,1.09
7247.00,1.08
7246.00,1.08
7245.00,1.08
7244.00,1.08
7243.00,1.07
7242.00,1.07
7241.00,1.07
7240.00,1.07
7239.00,1.06
7238.00,1.06
7237.00,1.06
7236.00,1.05
7235.00,1.05
7234.00,1.05
7233.00,1.05
7232.00,1.04
7231.00,1.04
7230.00,1.04
7229.00,1.03
7228.00,1.03
7227.00,1.03
7226.00,1.02
7225.00,1.02
7224.00,1.01
7223.00,1.01
7222.00,1.01
7221.00,1.00
7220.00,1.00
7219.00,1.00
7218.00,0.99
7217.00,0.99
7216.00,0.98
7215.00,0.98
7214.00,0.98
7213.00,0.97
7212.00,0.97
7211.00,0.96
7210.00,0.96
7209.00,0.95
7208.00,0.95
7207.00,0.95
7206.00,0.94
7205.00,0.94
7204.00,0.93
7203.00,0.93
7202.00,0.93
7201.00,0.92
7200.00,0.92
7199.00,0.92
7198.00,0.91
7197.00,0.91
7196.00,0.91
7195.00,0.90
7194.00,0.90
7193.00,0.90
7192.00,0.90
7191.00,0.89
7190.00,0.89
7189.00,0.89
7188.00,0.88
7187.00,0.88
7186.00,0.88
7185.00,0.88
7184.00,0.87
7183.00,0.87
7182.00,0.87
7181.00,0.87
7180.00,0.86
7179.00,0.86
7178.00,0.86
7177.00,0.86
7176.00,0.85
7175.00,0.85
7174.00,0.85
7173.00,0.85
7172.00,0.84
7171.00,0.84
7170.00,0.84
7169.00,0.83
7168.00,0.83
7167.00,0.83
7166.00,0.83
7165.00,0.82
7164.00,0.82
7163.00,0.82
7162.00,0.82
7161.00,0.81
7160.00,0.81
7159.00,0.81
7158.00,0.80
7157.00,0.80
7156.00,0.80
7155.00,0.80
7154.00,0.80
7153.00,0.79
7152.00,0.79
7151.00,0.79
7150.00,0.79
7149.00,0.79
7148.00,0.78
7147.00,0.78
7146.00,0.78
7145.00,0.78
7144.00,0.78
7143.00,0.77
7142.00,0.77
7141.00,0.77
7140.00,0.77
7139.00,0.76
7138.00,0.76
7137.00,0.76
7136.00,0.76
7135.00,0.75
7134.00,0.75
7133.00,0.75
7132.00,0.75
7131.00,0.74
7130.00,0.74
7129.00,0.74
7128.00,0.73
7127.00,0.73
7126.00,0.73
7125.00,0.73
7124.00,0.72
7123.00,0.72
7122.00,0.72
7121.00,0.72
7120.00,0.71
7119.00,0.71
7118.00,0.71
7117.00,0.70
7116.00,0.70
7115.00,0.70
7114.00,0.70
7113.00,0.69
7112.00,0.69
7111.00,0.69
7110.00,0.68
7109.00,0.68
7108.00,0.68
7107.00,0.68
7106.00,0.67
7105.00,0.67
7104.00,0.67
7103.00,0.67
7102.00,0.66
7101.00,0.66
7100.00,0.66
7099.00,0.66
7098.00,0.66
7097.00,0.65
7096.00,0.65
7095.00,0.65
7094.00,0.65
7093.00,0.65
7092.00,0.64
7091.00,0.64
7090.00,0.64
7089.00,0.64
7088.00,0.63
7087.00,0.63
7086.00,0.63
7085.00,0.63
7084.00,0.63
7083.00,0.62
7082.00,0.62
7081.00,0.62
7080.00,0.62
7079.00,0.61
7078.00,0.61
7077.00,0.61
7076.00,0.61
7075.00,0.61
7074.00,0.60
7073.00,0.60
7072.00,0.60
7071.00,0.60
7070.00,0.60
7069.00,0.60
7068.00,0.60
7067.00,0.59
7066.00,0.59
7065.00,0.59
7064.00,0.59
7063.00,0.59
7062.00,0.59
7061.00,0.59
7060.00,0.59
7059.00,0.59
7058.00,0.59
7057.00,0.59
7056.00,0.59
7055.00,0.59
7054.00,0.59
7053.00,0.59
7052.00,0.58
7051.00,0.58
7050.00,0.58
7049.00,0.58
7048.00,0.58
7047.00,0.58
7046.00,0.58
7045.00,0.58
7044.00,0.58
7043.00,0.58
7042.00,0.58
7041.00,0.57
7040.00,0.57
7039.00,0.57
7038.00,0.57
7037.00,0.57
7036.00,0.57
7035.00,0.57
7034.00,0.57
7033.00,0.57
7032.00,0.56
7031.00,0.56
7030.00,0.56
7029.00,0.56
7028.00,0.56
7027.00,0.56
7026.00,0.56
7025.00,0.56
7024.00,0.56
7023.00,0.56
7022.00,0.55
7021.00,0.55
7020.00,0.55
7019.00,0.55
7018.00,0.55
7017.00,0.55
7016.00,0.55
7015.00,0.55
7014.00,0.55
7013.00,0.55
7012.00,0.55
7011.00,0.55
7010.00,0.55
7009.00,0.54
7008.00,0.54
7007.00,0.54
7006.00,0.54
7005.00,0.54
7004.00,0.54
7003.00,0.54
7002.00,0.54
7001.00,0.54
7000.00,0.54
6999.00,0.54
6998.00,0.54
6997.00,0.54
6996.00,0.54
6995.00,0.54
6994.00,0.54
6993.00,0.54
6992.00,0.54
6991.00,0.54
6990.00,0.53
6989.00,0.53
6988.00,0.53
6987.00,0.53
6986.00,0.53
6985.00,0.53
6984.00,0.53
6983.00,0.53
6982.00,0.53
6981.00,0.53
6980.00,0.53
6979.00,0.53
6978.00,0.53
6977.00,0.52
6976.00,0.52
6975.00,0.52
6974.00,0.52
6973.00,0.52
6972.00,0.52
6971.00,0.52
6970.00,0.52
6969.00,0.52
6968.00,0.52
6967.00,0.52
6966.00,0.52
6965.00,0.52
6964.00,0.52
6963.00,0.52
6962.00,0.52
6961.00,0.52
6960.00,0.52
6959.00,0.51
6958.00,0.51
6957.00,0.51
6956.00,0.51
6955.00,0.51
6954.00,0.51
6953.00,0.51
6952.00,0.51
6951.00,0.51
6950.00,0.51
6949.00,0.51
6948.00,0.51
6947.00,0.51
6946.00,0.51
6945.00,0.51
6944.00,0.51
6943.00,0.51
6942.00,0.51
6941.00,0.51
6940.00,0.51
6939.00,0.51
6938.00,0.51
6937.00,0.51
6936.00,0.51
6935.00,0.51
6934.00,0.51
6933.00,0.51
6932.00,0.51
6931.00,0.51
6930.00,0.51
6929.00,0.51
6928.00,0.51
6927.00,0.51
6926.00,0.51
6925.00,0.51
6924.00,0.51
6923.00,0.51
6922.00,0.51
6921.00,0.51
6920.00,0.51
6919.00,0.51
6918.00,0.51
6917.00,0.51
6916.00,0.51
6915.00,0.51
6914.00,0.51
6913.00,0.51
6912.00,0.51
6911.00,0.51
6910.00,0.51
6909.00,0.51
6908.00,0.51
6907.00,0.51
6906.00,0.51
6905.00,0.51
6904.00,0.51
6903.00,0.51
6902.00,0.51
6901.00,0.51
6900.00,0.51
6899.00,0.51
6898.00,0.51
6897.00,0.51
6896.00,0.51
6895.00,0.51
6894.00,0.51
6893.00,0.51
6892.00,0.51
6891.00,0.51
6890.00,0.51
6889.00,0.51
6888.00,0.51
6887.00,0.51
6886.00,0.51
6885.00,0.51
6884.00,0.51
6883.00,0.51
6882.00,0.51
6881.00,0.51
6880.00,0.50
6879.00,0.50
6878.00,0.51
6877.00,0.51
6876.00,0.51
6875.00,0.51
6874.00,0.51
6873.00,0.51
6872.00,0.51
6871.00,0.51
6870.00,0.51
6869.00,0.51
6868.00,0.51
6867.00,0.51
6866.00,0.51
6865.00,0.51
6864.00,0.51
6863.00,0.51
6862.00,0.51
6861.00,0.50
6860.00,0.50
6859.00,0.50
6858.00,0.50
6857.00,0.50
6856.00,0.51
6855.00,0.51
6854.00,0.51
6853.00,0.51
6852.00,0.51
6851.00,0.51
6850.00,0.51
6849.00,0.51
6848.00,0.51
6847.00,0.51
6846.00,0.51
6845.00,0.51
6844.00,0.51
6843.00,0.51
6842.00,0.51
6841.00,0.51
6840.00,0.51
6839.00,0.51
6838.00,0.51
6837.00,0.51
6836.00,0.51
6835.00,0.51
6834.00,0.51
6833.00,0.51
6832.00,0.51
6831.00,0.51
6830.00,0.51
6829.00,0.51
6828.00,0.51
6827.00,0.51
6826.00,0.51
6825.00,0.51
6824.00,0.51
6823.00,0.51
6822.00,0.51
6821.00,0.51
6820.00,0.51
6819.00,0.51
6818.00,0.51
6817.00,0.51
6816.00,0.51
6815.00,0.52
6814.00,0.52
6813.00,0.52
6812.00,0.52
6811.00,0.52
6810.00,0.52
6809.00,0.52
6808.00,0.52
6807.00,0.52
6806.00,0.52
6805.00,0.52
6804.00,0.52
6803.00,0.52
6802.00,0.52
6801.00,0.52
6800.00,0.52
6799.00,0.52
6798.00,0.52
6797.00,0.52
6796.00,0.53
6795.00,0.53
6794.00,0.53
6793.00,0.53
6792.00,0.53
6791.00,0.53
6790.00,0.53
6789.00,0.53
6788.00,0.53
6787.00,0.53
6786.00,0.53
6785.00,0.53
6784.00,0.53
6783.00,0.53
6782.00,0.53
6781.00,0.53
6780.00,0.53
6779.00,0.53
6778.00,0.53
6777.00,0.53
6776.00,0.53
6775.00,0.53
6774.00,0.53
6773.00,0.53
6772.00,0.53
6771.00,0.53
6770.00,0.53
6769.00,0.53
6768.00,0.53
6767.00,0.53
6766.00,0.53
6765.00,0.53
6764.00,0.53
6763.00,0.53
6762.00,0.53
6761.00,0.53
6760.00,0.53
6759.00,0.53
6758.00,0.53
6757.00,0.53
6756.00,0.53
6755.00,0.53
6754.00,0.54
6753.00,0.54
6752.00,0.54
6751.00,0.54
6750.00,0.54
6749.00,0.54
6748.00,0.54
6747.00,0.54
6746.00,0.54
6745.00,0.54
6744.00,0.54
6743.00,0.54
6742.00,0.54
6741.00,0.54
6740.00,0.54
6739.00,0.54
6738.00,0.55
6737.00,0.55
6736.00,0.55
6735.00,0.55
6734.00,0.55
6733.00,0.55
6732.00,0.55
6731.00,0.55
6730.00,0.55
6729.00,0.55
6728.00,0.55
6727.00,0.56
6726.00,0.56
6725.00,0.56
6724.00,0.56
6723.00,0.56
6722.00,0.56
6721.00,0.56
6720.00,0.56
6719.00,0.56
6718.00,0.56
6717.00,0.56
6716.00,0.56
6715.00,0.56
6714.00,0.56
6713.00,0.56
6712.00,0.56
6711.00,0.57
6710.00,0.57
6709.00,0.57
6708.00,0.57
6707.00,0.57
6706.00,0.57
6705.00,0.57
6704.00,0.57
6703.00,0.57
6702.00,0.57
6701.00,0.57
6700.00,0.57
6699.00,0.58
6698.00,0.58
6697.00,0.58
6696.00,0.58
6695.00,0.58
6694.00,0.58
6693.00,0.58
6692.00,0.58
6691.00,0.58
6690.00,0.58
6689.00,0.58
6688.00,0.58
6687.00,0.59
6686.00,0.59
6685.00,0.59
6684.00,0.59
6683.00,0.59
6682.00,0.59
6681.00,0.59
6680.00,0.59
6679.00,0.60
6678.00,0.60
6677.00,0.60
6676.00,0.60
6675.00,0.60
6674.00,0.60
6673.00,0.60
6672.00,0.60
6671.00,0.60
6670.00,0.60
6669.00,0.60
6668.00,0.60
6667.00,0.60
6666.00,0.60
6665.00,0.60
6664.00,0.60
6663.00,0.60
6662.00,0.60
6661.00,0.60
6660.00,0.60
6659.00,0.60
6658.00,0.60
6657.00,0.60
6656.00,0.60
6655.00,0.60
6654.00,0.61
6653.00,0.61
6652.00,0.61
6651.00,0.61
6650.00,0.61
6649.00,0.61
6648.00,0.62
6647.00,0.62
6646.00,0.62
6645.00,0.62
6644.00,0.62
6643.00,0.62
6642.00,0.62
6641.00,0.62
6640.00,0.63
6639.00,0.63
6638.00,0.63
6637.00,0.63
6636.00,0.63
6635.00,0.63
6634.00,0.63
6633.00,0.63
6632.00,0.63
6631.00,0.63
6630.00,0.63
6629.00,0.63
6628.00,0.63
6627.00,0.63
6626.00,0.63
6625.00,0.63
6624.00,0.63
6623.00,0.64
6622.00,0.64
6621.00,0.64
6620.00,0.64
6619.00,0.64
6618.00,0.64
6617.00,0.64
6616.00,0.64
6615.00,0.64
6614.00,0.65
6613.00,0.65
6612.00,0.65
6611.00,0.65
6610.00,0.65
6609.00,0.65
6608.00,0.65
6607.00,0.65
6606.00,0.65
6605.00,0.65
6604.00,0.65
6603.00,0.66
6602.00,0.66
6601.00,0.66
6600.00,0.66
6599.00,0.66
6598.00,0.66
6597.00,0.66
6596.00,0.66
6595.00,0.66
6594.00,0.66
6593.00,0.66
6592.00,0.66
6591.00,0.66
6590.00,0.67
6589.00,0.67
6588.00,0.67
6587.00,0.67
6586.00,0.67
6585.00,0.67
6584.00,0.67
6583.00,0.67
6582.00,0.67
6581.00,0.67
6580.00,0.67
6579.00,0.67
6578.00,0.67
6577.00,0.67
6576.00,0.67
6575.00,0.67
6574.00,0.67
6573.00,0.67
6572.00,0.67
6571.00,0.68
6570.00,0.68
6569.00,0.68
6568.00,0.68
6567.00,0.68
6566.00,0.68
6565.00,0.68
6564.00,0.68
6563.00,0.68
6562.00,0.68
6561.00,0.68
6560.00,0.68
6559.00,0.69
6558.00,0.69
6557.00,0.69
6556.00,0.69
6555.00,0.69
6554.00,0.69
6553.00,0.69
6552.00,0.69
6551.00,0.70
6550.00,0.70
6549.00,0.70
6548.00,0.70
6547.00,0.70
6546.00,0.70
6545.00,0.70
6544.00,0.70
6543.00,0.71
6542.00,0.71
6541.00,0.71
6540.00,0.71
6539.00,0.71
6538.00,0.71
6537.00,0.71
6536.00,0.71
6535.00,0.71
6534.00,0.71
6533.00,0.71
6532.00,0.72
6531.00,0.72
6530.00,0.72
6529.00,0.72
6528.00,0.72
6527.00,0.72
6526.00,0.72
6525.00,0.72
6524.00,0.72
6523.00,0.72
6522.00,0.73
6521.00,0.73
6520.00,0.73
6519.00,0.73
6518.00,0.73
6517.00,0.73
6516.00,0.73
6515.00,0.73
6514.00,0.73
6513.00,0.73
6512.00,0.73
6511.00,0.73
6510.00,0.73
6509.00,0.73
6508.00,0.73
6507.00,0.73
6506.00,0.73
6505.00,0.73
6504.00,0.73
6503.00,0.73
6502.00,0.74
6501.00,0.74
6500.00,0.74
6499.00,0.74
6498.00,0.74
6497.00,0.74
6496.00,0.74
6495.00,0.74
6494.00,0.74
6493.00,0.74
6492.00,0.74
6491.00,0.74
6490.00,0.74
6489.00,0.74
6488.00,0.75
6487.00,0.75
6486.00,0.75
6485.00,0.75
6484.00,0.75
6483.00,0.75
6482.00,0.75
6481.00,0.75
6480.00,0.75
6479.00,0.75
6478.00,0.75
6477.00,0.75
6476.00,0.75
6475.00,0.75
6474.00,0.75
6473.00,0.75
6472.00,0.75
6471.00,0.75
6470.00,0.75
6469.00,0.75
6468.00,0.75
6467.00,0.75
6466.00,0.75
6465.00,0.75
6464.00,0.75
6463.00,0.75
6462.00,0.75
6461.00,0.75
6460.00,0.75
6459.00,0.75
6458.00,0.75
6457.00,0.75
6456.00,0.75
6455.00,0.76
6454.00,0.76
6453.00,0.76
6452.00,0.76
6451.00,0.76
6450.00,0.76
6449.00,0.76
6448.00,0.76
6447.00,0.76
6446.00,0.76
6445.00,0.76
6444.00,0.77
6443.00,0.77
6442.00,0.77
6441.00,0.77
6440.00,0.77
6439.00,0.77
6438.00,0.77
6437.00,0.77
6436.00,0.77
6435.00,0.77
6434.00,0.77
6433.00,0.77
6432.00,0.78
6431.00,0.78
6430.00,0.78
6429.00,0.78
6428.00,0.78
6427.00,0.78
6426.00,0.78
6425.00,0.78
6424.00,0.78
6423.00,0.78
6422.00,0.78
6421.00,0.78
6420.00,0.78
6419.00,0.78
6418.00,0.78
6417.00,0.78
6416.00,0.78
6415.00,0.78
6414.00,0.78
6413.00,0.78
6412.00,0.78
6411.00,0.78
6410.00,0.78
6409.00,0.78
6408.00,0.78
6407.00,0.78
6406.00,0.78
6405.00,0.78
6404.00,0.78
6403.00,0.78
6402.00,0.78
6401.00,0.79
6400.00,0.79
6399.00,0.79
6398.00,0.79
6397.00,0.79
6396.00,0.79
6395.00,0.79
6394.00,0.79
6393.00,0.79
6392.00,0.79
6391.00,0.79
6390.00,0.79
6389.00,0.79
6388.00,0.79
6387.00,0.79
6386.00,0.79
6385.00,0.79
6384.00,0.79
6383.00,0.79
6382.00,0.79
6381.00,0.79
6380.00,0.79
6379.00,0.79
6378.00,0.79
6377.00,0.79
6376.00,0.79
6375.00,0.80
6374.00,0.80
6373.00,0.80
6372.00,0.80
6371.00,0.80
6370.00,0.80
6369.00,0.80
6368.00,0.80
6367.00,0.80
6366.00,0.80
6365.00,0.80
6364.00,0.81
6363.00,0.81
6362.00,0.81
6361.00,0.81
6360.00,0.81
6359.00,0.81
6358.00,0.81
6357.00,0.81
6356.00,0.82
6355.00,0.82
6354.00,0.82
6353.00,0.82
6352.00,0.82
6351.00,0.82
6350.00,0.82
6349.00,0.82
6348.00,0.82
6347.00,0.82
6346.00,0.82
6345.00,0.82
6344.00,0.83
6343.00,0.83
6342.00,0.83
6341.00,0.83
6340.00,0.83
6339.00,0.83
6338.00,0.83
6337.00,0.83
6336.00,0.83
6335.00,0.83
6334.00,0.83
6333.00,0.83
6332.00,0.84
6331.00,0.84
6330.00,0.84
6329.00,0.84
6328.00,0.84
6327.00,0.84
6326.00,0.84
6325.00,0.84
6324.00,0.84
6323.00,0.84
6322.00,0.84
6321.00,0.84
6320.00,0.85
6319.00,0.85
6318.00,0.85
6317.00,0.85
6316.00,0.85
6315.00,0.85
6314.00,0.85
6313.00,0.85
6312.00,0.85
6311.00,0.86
6310.00,0.86
6309.00,0.86
6308.00,0.86
6307.00,0.86
6306.00,0.86
6305.00,0.86
6304.00,0.86
6303.00,0.86
6302.00,0.86
6301.00,0.87
6300.00,0.87
6299.00,0.87
6298.00,0.87
6297.00,0.87
6296.00,0.87
6295.00,0.87
6294.00,0.87
6293.00,0.87
6292.00,0.87
6291.00,0.87
6290.00,0.87
6289.00,0.87
6288.00,0.87
6287.00,0.88
6286.00,0.88
6285.00,0.88
6284.00,0.88
6283.00,0.88
6282.00,0.88
6281.00,0.88
6280.00,0.88
6279.00,0.88
6278.00,0.89
6277.00,0.89
6276.00,0.89
6275.00,0.89
6274.00,0.89
6273.00,0.89
6272.00,0.89
6271.00,0.89
6270.00,0.90
6269.00,0.90
6268.00,0.90
6267.00,0.90
6266.00,0.90
6265.00,0.90
6264.00,0.90
6263.00,0.91
6262.00,0.91
6261.00,0.91
6260.00,0.91
6259.00,0.91
6258.00,0.91
6257.00,0.92
6256.00,0.92
6255.00,0.92
6254.00,0.92
6253.00,0.92
6252.00,0.92
6251.00,0.93
6250.00,0.93
6249.00,0.93
6248.00,0.93
6247.00,0.93
6246.00,0.93
6245.00,0.93
6244.00,0.93
6243.00,0.93
6242.00,0.94
6241.00,0.94
6240.00,0.94
6239.00,0.94
6238.00,0.94
6237.00,0.94
6236.00,0.94
6235.00,0.94
6234.00,0.94
6233.00,0.94
6232.00,0.94
6231.00,0.95
6230.00,0.95
6229.00,0.95
6228.00,0.95
6227.00,0.95
6226.00,0.95
6225.00,0.95
6224.00,0.95
6223.00,0.95
6222.00,0.96
6221.00,0.96
6220.00,0.96
6219.00,0.96
6218.00,0.96
6217.00,0.96
6216.00,0.96
6215.00,0.96
6214.00,0.96
6213.00,0.96
6212.00,0.97
6211.00,0.97
6210.00,0.97
6209.00,0.97
6208.00,0.97
6207.00,0.97
6206.00,0.98
6205.00,0.98
6204.00,0.98
6203.00,0.98
6202.00,0.98
6201.00,0.98
6200.00,0.99
6199.00,0.99
6198.00,0.99
6197.00,0.99
6196.00,0.99
6195.00,0.99
6194.00,0.99
6193.00,1.00
6192.00,1.00
6191.00,1.00
6190.00,1.00
6189.00,1.00
6188.00,1.00
6187.00,1.00
6186.00,1.00
6185.00,1.01
6184.00,1.01
6183.00,1.01
6182.00,1.01
6181.00,1.01
6180.00,1.02
6179.00,1.02
6178.00,1.02
6177.00,1.02
6176.00,1.02
6175.00,1.02
6174.00,1.03
6173.00,1.03
6172.00,1.03
6171.00,1.03
6170.00,1.03
6169.00,1.03
6168.00,1.04
6167.00,1.04
6166.00,1.04
6165.00,1.04
6164.00,1.04
6163.00,1.04
6162.00,1.05
6161.00,1.05
6160.00,1.05
6159.00,1.05
6158.00,1.05
6157.00,1.05
6156.00,1.06
6155.00,1.06
6154.00,1.06
6153.00,1.06
6152.00,1.06
6151.00,1.06
6150.00,1.06
6149.00,1.07
6148.00,1.07
6147.00,1.07
6146.00,1.07
6145.00,1.07
6144.00,1.07
6143.00,1.07
6142.00,1.08
6141.00,1.08
6140.00,1.08
6139.00,1.08
6138.00,1.08
6137.00,1.08
6136.00,1.08
6135.00,1.09
6134.00,1.09
6133.00,1.09
6132.00,1.09
6131.00,1.09
6130.00,1.09
6129.00,1.09
6128.00,1.10
6127.00,1.10
6126.00,1.10
6125.00,1.10
6124.00,1.10
6123.00,1.10
6122.00,1.10
6121.00,1.11
6120.00,1.11
6119.00,1.11
6118.00,1.11
6117.00,1.11
6116.00,1.11
6115.00,1.11
6114.00,1.12
6113.00,1.12
6112.00,1.12
6111.00,1.12
6110.00,1.12
6109.00,1.12
6108.00,1.13
6107.00,1.13
6106.00,1.13
6105.00,1.13
6104.00,1.13
6103.00,1.13
6102.00,1.14
6101.00,1.14
6100.00,1.14
6099.00,1.14
6098.00,1.14
6097.00,1.14
6096.00,1.15
6095.00,1.15
6094.00,1.15
6093.00,1.15
6092.00,1.15
6091.00,1.15
6090.00,1.15
6089.00,1.15
6088.00,1.16
6087.00,1.16
6086.00,1.16
6085.00,1.16
6084.00,1.16
6083.00,1.16
6082.00,1.16
6081.00,1.16
6080.00,1.17
6079.00,1.17
6078.00,1.17
6077.00,1.17
6076.00,1.17
6075.00,1.17
6074.00,1.17
6073.00,1.18
6072.00,1.18
6071.00,1.18
6070.00,1.18
6069.00,1.18
6068.00,1.18
6067.00,1.18
6066.00,1.18
6065.00,1.19
6064.00,1.19
6063.00,1.19
6062.00,1.19
6061.00,1.19
6060.00,1.19
6059.00,1.19
6058.00,1.19
6057.00,1.19
6056.00,1.19
6055.00,1.19
6054.00,1.20
6053.00,1.20
6052.00,1.20
6051.00,1.20
6050.00,1.20
6049.00,1.20
6048.00,1.20
6047.00,1.20
6046.00,1.20
6045.00,1.20
6044.00,1.20
6043.00,1.21
6042.00,1.21
6041.00,1.21
6040.00,1.21
6039.00,1.21
6038.00,1.21
6037.00,1.21
6036.00,1.21
6035.00,1.21
6034.00,1.21
6033.00,1.22
6032.00,1.22
6031.00,1.22
6030.00,1.22
6029.00,1.22
6028.00,1.22
6027.00,1.22
6026.00,1.22
6025.00,1.22
6024.00,1.22
6023.00,1.22
6022.00,1.22
6021.00,1.22
6020.00,1.22
6019.00,1.22
6018.00,1.22
6017.00,1.22
6016.00,1.22
6015.00,1.22
6014.00,1.22
6013.00,1.22
6012.00,1.22
6011.00,1.22
6010.00,1.22
6009.00,1.22
6008.00,1.22
6007.00,1.22
6006.00,1.21
6005.00,1.21
6004.00,1.21
6003.00,1.21
6002.00,1.21
6001.00,1.21
6000.00,1.21
5999.00,1.21
5998.00,1.21
5997.00,1.21
5996.00,1.20
5995.00,1.20
5994.00,1.20
5993.00,1.20
5992.00,1.20
5991.00,1.20
5990.00,1.19
5989.00,1.19
5988.00,1.19
5987.00,1.19
5986.00,1.18
5985.00,1.18
5984.00,1.18
5983.00,1.18
5982.00,1.17
5981.00,1.17
5980.00,1.16
5979.00,1.16
5978.00,1.16
5977.00,1.15
5976.00,1.15
5975.00,1.14
5974.00,1.14
5973.00,1.13
5972.00,1.13
5971.00,1.12
5970.00,1.11
5969.00,1.11
5968.00,1.10
5967.00,1.09
5966.00,1.09
5965.00,1.08
5964.00,1.07
5963.00,1.07
5962.00,1.06
5961.00,1.05
5960.00,1.04
5959.00,1.04
5958.00,1.03
5957.00,1.02
5956.00,1.01
5955.00,1.01
5954.00,1.00
5953.00,0.99
5952.00,0.99
5951.00,0.98
5950.00,0.98
5949.00,0.97
5948.00,0.97
5947.00,0.96
5946.00,0.96
5945.00,0.95
5944.00,0.95
5943.00,0.95
5942.00,0.94
5941.00,0.94
5940.00,0.94
5939.00,0.94
5938.00,0.93
5937.00,0.93
5936.00,0.93
5935.00,0.93
5934.00,0.93
5933.00,0.93
5932.00,0.93
5931.00,0.93
5930.00,0.92
5929.00,0.92
5928.00,0.92
5927.00,0.92
5926.00,0.92
5925.00,0.92
5924.00,0.92
5923.00,0.91
5922.00,0.91
5921.00,0.91
5920.00,0.91
5919.00,0.91
5918.00,0.90
5917.00,0.90
5916.00,0.90
5915.00,0.90
5914.00,0.89
5913.00,0.89
5912.00,0.89
5911.00,0.89
5910.00,0.88
5909.00,0.88
5908.00,0.88
5907.00,0.88
5906.00,0.87
5905.00,0.87
5904.00,0.87
5903.00,0.87
5902.00,0.87
5901.00,0.87
5900.00,0.87
5899.00,0.87
5898.00,0.87
5897.00,0.87
5896.00,0.87
5895.00,0.87
5894.00,0.87
5893.00,0.88
5892.00,0.88
5891.00,0.88
5890.00,0.88
5889.00,0.89
5888.00,0.89
5887.00,0.89
5886.00,0.90
5885.00,0.90
5884.00,0.90
5883.00,0.91
5882.00,0.91
5881.00,0.91
5880.00,0.92
5879.00,0.92
5878.00,0.92
5877.00,0.92
5876.00,0.93
5875.00,0.93
5874.00,0.93
5873.00,0.93
5872.00,0.94
5871.00,0.94
5870.00,0.94
5869.00,0.94
5868.00,0.94
5867.00,0.94
5866.00,0.95
5865.00,0.95
5864.00,0.95
5863.00,0.95
5862.00,0.95
5861.00,0.96
5860.00,0.96
5859.00,0.96
5858.00,0.96
5857.00,0.96
5856.00,0.96
5855.00,0.97
5854.00,0.97
5853.00,0.97
5852.00,0.97
5851.00,0.97
5850.00,0.97
5849.00,0.97
5848.00,0.97
5847.00,0.97
5846.00,0.97
5845.00,0.97
5844.00,0.97
5843.00,0.97
5842.00,0.97
5841.00,0.97
5840.00,0.97
5839.00,0.97
5838.00,0.97
5837.00,0.97
5836.00,0.97
5835.00,0.97
5834.00,0.97
5833.00,0.97
5832.00,0.97
5831.00,0.97
5830.00,0.97
5829.00,0.97
5828.00,0.97
5827.00,0.97
5826.00,0.97
5825.00,0.97
5824.00,0.97
5823.00,0.97
5822.00,0.97
5821.00,0.97
5820.00,0.97
5819.00,0.97
5818.00,0.97
5817.00,0.97
5816.00,0.97
5815.00,0.98
5814.00,0.98
5813.00,0.98
5812.00,0.98
5811.00,0.98
5810.00,0.98
5809.00,0.98
5808.00,0.98
5807.00,0.98
5806.00,0.98
5805.00,0.98
5804.00,0.97
5803.00,0.97
5802.00,0.97
5801.00,0.97
5800.00,0.97
5799.00,0.97
5798.00,0.97
5797.00,0.97
5796.00,0.96
5795.00,0.96
5794.00,0.96
5793.00,0.96
5792.00,0.95
5791.00,0.95
5790.00,0.95
5789.00,0.95
5788.00,0.95
5787.00,0.94
5786.00,0.94
5785.00,0.94
5784.00,0.94
5783.00,0.93
5782.00,0.93
5781.00,0.93
5780.00,0.93
5779.00,0.93
5778.00,0.93
5777.00,0.92
5776.00,0.92
5775.00,0.92
5774.00,0.92
5773.00,0.92
5772.00,0.92
5771.00,0.92
5770.00,0.92
5769.00,0.92
5768.00,0.92
5767.00,0.93
5766.00,0.93
5765.00,0.93
5764.00,0.93
5763.00,0.93
5762.00,0.93
5761.00,0.94
5760.00,0.94
5759.00,0.94
5758.00,0.95
5757.00,0.95
5756.00,0.95
5755.00,0.96
5754.00,0.96
5753.00,0.96
5752.00,0.97
5751.00,0.97
5750.00,0.97
5749.00,0.98
5748.00,0.98
5747.00,0.99
5746.00,0.99
5745.00,0.99
5744.00,1.00
5743.00,1.00
5742.00,1.01
5741.00,1.01
5740.00,1.01
5739.00,1.02
5738.00,1.02
5737.00,1.02
5736.00,1.02
5735.00,1.03
5734.00,1.03
5733.00,1.03
5732.00,1.03
5731.00,1.03
5730.00,1.04
5729.00,1.04
5728.00,1.04
5727.00,1.04
5726.00,1.04
5725.00,1.04
5724.00,1.04
5723.00,1.04
5722.00,1.04
5721.00,1.04
5720.00,1.04
5719.00,1.04
5718.00,1.04
5717.00,1.04
5716.00,1.04
5715.00,1.04
5714.00,1.04
5713.00,1.04
5712.00,1.04
5711.00,1.04
5710.00,1.04
5709.00,1.04
5708.00,1.04
5707.00,1.04
5706.00,1.04
5705.00,1.04
5704.00,1.04
5703.00,1.04
5702.00,1.04
5701.00,1.04
5700.00,1.04
5699.00,1.04
5698.00,1.03
5697.00,1.03
5696.00,1.03
5695.00,1.03
5694.00,1.03
5693.00,1.03
5692.00,1.03
5691.00,1.03
5690.00,1.02
5689.00,1.02
5688.00,1.02
5687.00,1.02
5686.00,1.02
5685.00,1.02
5684.00,1.02
5683.00,1.02
5682.00,1.02
5681.00,1.01
5680.00,1.01
5679.00,1.01
5678.00,1.01
5677.00,1.01
5676.00,1.01
5675.00,1.01
5674.00,1.01
5673.00,1.01
5672.00,1.01
5671.00,1.01
5670.00,1.01
5669.00,1.01
5668.00,1.01
5667.00,1.02
5666.00,1.02
5665.00,1.02
5664.00,1.02
5663.00,1.02
5662.00,1.02
5661.00,1.02
5660.00,1.02
5659.00,1.02
5658.00,1.03
5657.00,1.03
5656.00,1.03
5655.00,1.03
5654.00,1.03
5653.00,1.03
5652.00,1.03
5651.00,1.04
5650.00,1.04
5649.00,1.04
5648.00,1.04
5647.00,1.04
5646.00,1.05
5645.00,1.05
5644.00,1.05
5643.00,1.05
5642.00,1.06
5641.00,1.06
5640.00,1.06
5639.00,1.06
5638.00,1.07
5637.00,1.07
5636.00,1.07
5635.00,1.07
5634.00,1.08
5633.00,1.08
5632.00,1.08
5631.00,1.08
5630.00,1.08
5629.00,1.08
5628.00,1.09
5627.00,1.09
5626.00,1.09
5625.00,1.09
5624.00,1.09
5623.00,1.09
5622.00,1.10
5621.00,1.10
5620.00,1.10
5619.00,1.10
5618.00,1.10
5617.00,1.10
5616.00,1.11
5615.00,1.11
5614.00,1.11
5613.00,1.11
5612.00,1.11
5611.00,1.12
5610.00,1.12
5609.00,1.12
5608.00,1.12
5607.00,1.12
5606.00,1.13
5605.00,1.13
5604.00,1.13
5603.00,1.13
5602.00,1.13
5601.00,1.13
5600.00,1.14
5599.00,1.14
5598.00,1.14
5597.00,1.14
5596.00,1.14
5595.00,1.15
5594.00,1.15
5593.00,1.15
5592.00,1.15
5591.00,1.15
5590.00,1.15
5589.00,1.16
5588.00,1.16
5587.00,1.16
5586.00,1.16
5585.00,1.16
5584.00,1.16
5583.00,1.17
5582.00,1.17
5581.00,1.17
5580.00,1.17
5579.00,1.17
5578.00,1.17
5577.00,1.17
5576.00,1.18
5575.00,1.18
5574.00,1.18
5573.00,1.18
5572.00,1.18
5571.00,1.18
5570.00,1.19
5569.00,1.19
5568.00,1.19
5567.00,1.19
5566.00,1.19
5565.00,1.19
5564.00,1.20
5563.00,1.20
5562.00,1.20
5561.00,1.20
5560.00,1.20
5559.00,1.20
5558.00,1.20
5557.00,1.21
5556.00,1.21
5555.00,1.21
5554.00,1.21
5553.00,1.21
5552.00,1.21
5551.00,1.22
5550.00,1.22
5549.00,1.22
5548.00,1.22
5547.00,1.22
5546.00,1.22
5545.00,1.22
5544.00,1.23
5543.00,1.23
5542.00,1.23
5541.00,1.23
5540.00,1.23
5539.00,1.23
5538.00,1.24
5537.00,1.24
5536.00,1.24
5535.00,1.24
5534.00,1.24
5533.00,1.24
5532.00,1.25
5531.00,1.25
5530.00,1.25
5529.00,1.25
5528.00,1.25
5527.00,1.25
5526.00,1.25
5525.00,1.25
5524.00,1.25
5523.00,1.26
5522.00,1.26
5521.00,1.26
5520.00,1.26
5519.00,1.26
5518.00,1.26
5517.00,1.26
5516.00,1.26
5515.00,1.26
5514.00,1.26
5513.00,1.26
5512.00,1.26
5511.00,1.26
5510.00,1.26
5509.00,1.26
5508.00,1.26
5507.00,1.26
5506.00,1.26
5505.00,1.26
5504.00,1.26
5503.00,1.26
5502.00,1.26
5501.00,1.26
5500.00,1.26
5499.00,1.27
5498.00,1.27
5497.00,1.27
5496.00,1.27
5495.00,1.27
5494.00,1.27
5493.00,1.27
5492.00,1.27
5491.00,1.27
5490.00,1.27
5489.00,1.27
5488.00,1.27
5487.00,1.27
5486.00,1.28
5485.00,1.28
5484.00,1.28
5483.00,1.28
5482.00,1.28
5481.00,1.28
5480.00,1.28
5479.00,1.28
5478.00,1.29
5477.00,1.29
5476.00,1.29
5475.00,1.29
5474.00,1.29
5473.00,1.29
5472.00,1.29
5471.00,1.30
5470.00,1.30
5469.00,1.30
5468.00,1.30
5467.00,1.30
5466.00,1.30
5465.00,1.31
5464.00,1.31
5463.00,1.31
5462.00,1.31
5461.00,1.31
5460.00,1.31
5459.00,1.32
5458.00,1.32
5457.00,1.32
5456.00,1.32
5455.00,1.32
5454.00,1.32
5453.00,1.32
5452.00,1.32
5451.00,1.32
5450.00,1.32
5449.00,1.33
5448.00,1.33
5447.00,1.33
5446.00,1.33
5445.00,1.33
5444.00,1.33
5443.00,1.33
5442.00,1.33
5441.00,1.33
5440.00,1.33
5439.00,1.33
5438.00,1.33
5437.00,1.33
5436.00,1.33
5435.00,1.33
5434.00,1.33
5433.00,1.33
5432.00,1.33
5431.00,1.33
5430.00,1.33
5429.00,1.33
5428.00,1.33
5427.00,1.33
5426.00,1.33
5425.00,1.33
5424.00,1.33
5423.00,1.33
5422.00,1.33
5421.00,1.33
5420.00,1.33
5419.00,1.33
5418.00,1.33
5417.00,1.33
5416.00,1.33
5415.00,1.33
5414.00,1.33
5413.00,1.33
5412.00,1.33
5411.00,1.33
5410.00,1.33
5409.00,1.33
5408.00,1.33
5407.00,1.33
5406.00,1.33
5405.00,1.33
5404.00,1.33
5403.00,1.33
5402.00,1.33
5401.00,1.33
5400.00,1.33
5399.00,1.33
5398.00,1.33
5397.00,1.33
5396.00,1.33
5395.00,1.33
5394.00,1.33
5393.00,1.33
5392.00,1.32
5391.00,1.32
5390.00,1.32
5389.00,1.32
5388.00,1.31
5387.00,1.31
5386.00,1.31
5385.00,1.31
5384.00,1.30
5383.00,1.30
5382.00,1.30
5381.00,1.29
5380.00,1.29
5379.00,1.29
5378.00,1.29
5377.00,1.28
5376.00,1.28
5375.00,1.28
5374.00,1.27
5373.00,1.27
5372.00,1.26
5371.00,1.26
5370.00,1.26
5369.00,1.25
5368.00,1.25
5367.00,1.24
5366.00,1.24
5365.00,1.23
5364.00,1.23
5363.00,1.22
5362.00,1.21
5361.00,1.21
5360.00,1.20
5359.00,1.19
5358.00,1.19
5357.00,1.18
5356.00,1.17
5355.00,1.16
5354.00,1.15
5353.00,1.14
5352.00,1.14
5351.00,1.13
5350.00,1.12
5349.00,1.11
5348.00,1.10
5347.00,1.09
5346.00,1.08
5345.00,1.07
5344.00,1.06
5343.00,1.05
5342.00,1.04
5341.00,1.03
5340.00,1.02
5339.00,1.01
5338.00,1.00
5337.00,0.99
5336.00,0.98
5335.00,0.97
5334.00,0.96
5333.00,0.95
5332.00,0.94
5331.00,0.93
5330.00,0.92
5329.00,0.91
5328.00,0.90
5327.00,0.89
5326.00,0.88
5325.00,0.87
5324.00,0.86
5323.00,0.85
5322.00,0.84
5321.00,0.83
5320.00,0.82
5319.00,0.81
5318.00,0.80
5317.00,0.79
5316.00,0.78
5315.00,0.78
5314.00,0.77
5313.00,0.76
5312.00,0.75
5311.00,0.74
5310.00,0.74
5309.00,0.73
5308.00,0.72
5307.00,0.72
5306.00,0.71
5305.00,0.70
5304.00,0.70
5303.00,0.69
5302.00,0.69
5301.00,0.68
5300.00,0.68
5299.00,0.68
5298.00,0.67
5297.00,0.67
5296.00,0.67
5295.00,0.66
5294.00,0.66
5293.00,0.66
5292.00,0.66
5291.00,0.65
5290.00,0.65
5289.00,0.65
5288.00,0.65
5287.00,0.64
5286.00,0.64
5285.00,0.64
5284.00,0.64
5283.00,0.64
5282.00,0.64
5281.00,0.64
5280.00,0.63
5279.00,0.63
5278.00,0.63
5277.00,0.63
5276.00,0.63
5275.00,0.63
5274.00,0.63
5273.00,0.63
5272.00,0.63
5271.00,0.63
5270.00,0.62
5269.00,0.62
5268.00,0.62
5267.00,0.62
5266.00,0.62
5265.00,0.62
5264.00,0.62
5263.00,0.62
5262.00,0.62
5261.00,0.62
5260.00,0.62
5259.00,0.62
5258.00,0.62
5257.00,0.62
5256.00,0.62
5255.00,0.62
5254.00,0.62
5253.00,0.62
5252.00,0.62
5251.00,0.62
5250.00,0.62
5249.00,0.62
5248.00,0.62
5247.00,0.62
5246.00,0.62
5245.00,0.62
5244.00,0.62
5243.00,0.62
5242.00,0.62
5241.00,0.62
5240.00,0.62
5239.00,0.62
5238.00,0.62
5237.00,0.62
5236.00,0.62
5235.00,0.62
5234.00,0.62
5233.00,0.62
5232.00,0.62
5231.00,0.62
5230.00,0.62
5229.00,0.62
5228.00,0.62
5227.00,0.62
5226.00,0.62
5225.00,0.62
5224.00,0.62
5223.00,0.62
5222.00,0.62
5221.00,0.63
5220.00,0.63
5219.00,0.63
5218.00,0.63
5217.00,0.63
5216.00,0.63
5215.00,0.63
5214.00,0.63
5213.00,0.63
5212.00,0.63
5211.00,0.63
5210.00,0.63
5209.00,0.63
5208.00,0.63
5207.00,0.63
5206.00,0.63
5205.00,0.63
5204.00,0.64
5203.00,0.64
5202.00,0.64
5201.00,0.64
5200.00,0.64
5199.00,0.64
5198.00,0.64
5197.00,0.64
5196.00,0.64
5195.00,0.64
5194.00,0.64
5193.00,0.64
5192.00,0.64
5191.00,0.64
5190.00,0.64
5189.00,0.64
5188.00,0.64
5187.00,0.64
5186.00,0.64
5185.00,0.64
5184.00,0.64
5183.00,0.64
5182.00,0.65
5181.00,0.65
5180.00,0.65
5179.00,0.65
5178.00,0.65
5177.00,0.65
5176.00,0.65
5175.00,0.65
5174.00,0.65
5173.00,0.65
5172.00,0.65
5171.00,0.65
5170.00,0.65
5169.00,0.65
5168.00,0.65
5167.00,0.65
5166.00,0.65
5165.00,0.65
5164.00,0.65
5163.00,0.66
5162.00,0.66
5161.00,0.66
5160.00,0.66
5159.00,0.66
5158.00,0.66
5157.00,0.66
5156.00,0.66
5155.00,0.66
5154.00,0.66
5153.00,0.66
5152.00,0.66
5151.00,0.66
5150.00,0.66
5149.00,0.66
5148.00,0.66
5147.00,0.66
5146.00,0.66
5145.00,0.66
5144.00,0.66
5143.00,0.66
5142.00,0.66
5141.00,0.66
5140.00,0.66
5139.00,0.66
5138.00,0.66
5137.00,0.66
5136.00,0.66
5135.00,0.66
5134.00,0.66
5133.00,0.66
5132.00,0.66
5131.00,0.67
5130.00,0.67
5129.00,0.67
5128.00,0.67
5127.00,0.67
5126.00,0.67
5125.00,0.67
5124.00,0.67
5123.00,0.67
5122.00,0.67
5121.00,0.67
5120.00,0.67
5119.00,0.67
5118.00,0.67
5117.00,0.67
5116.00,0.67
5115.00,0.67
5114.00,0.67
5113.00,0.67
5112.00,0.68
5111.00,0.68
5110.00,0.68
5109.00,0.68
5108.00,0.68
5107.00,0.68
5106.00,0.68
5105.00,0.68
5104.00,0.68
5103.00,0.68
5102.00,0.68
5101.00,0.68
5100.00,0.68
5099.00,0.68
5098.00,0.68
5097.00,0.68
5096.00,0.68
5095.00,0.68
5094.00,0.68
5093.00,0.68
5092.00,0.68
5091.00,0.69
5090.00,0.69
5089.00,0.69
5088.00,0.69
5087.00,0.69
5086.00,0.69
5085.00,0.69
5084.00,0.69
5083.00,0.69
5082.00,0.69
5081.00,0.69
5080.00,0.69
5079.00,0.69
5078.00,0.69
5077.00,0.69
5076.00,0.69
5075.00,0.69
5074.00,0.70
5073.00,0.70
5072.00,0.70
5071.00,0.70
5070.00,0.70
5069.00,0.70
5068.00,0.70
5067.00,0.70
5066.00,0.70
5065.00,0.70
5064.00,0.70
5063.00,0.70
5062.00,0.70
5061.00,0.70
5060.00,0.70
5059.00,0.70
5058.00,0.70
5057.00,0.70
5056.00,0.70
5055.00,0.70
5054.00,0.71
5053.00,0.71
5052.00,0.71
5051.00,0.71
5050.00,0.71
5049.00,0.71
5048.00,0.71
5047.00,0.71
5046.00,0.71
5045.00,0.71
5044.00,0.71
5043.00,0.71
5042.00,0.71
5041.00,0.71
5040.00,0.71
5039.00,0.71
5038.00,0.71
5037.00,0.71
5036.00,0.71
5035.00,0.71
5034.00,0.72
5033.00,0.72
5032.00,0.72
5031.00,0.72
5030.00,0.72
5029.00,0.72
5028.00,0.72
5027.00,0.72
5026.00,0.73
5025.00,0.73
5024.00,0.73
5023.00,0.73
5022.00,0.73
5021.00,0.73
5020.00,0.73
5019.00,0.73
5018.00,0.73
5017.00,0.73
5016.00,0.73
5015.00,0.73
5014.00,0.73
5013.00,0.74
5012.00,0.74
5011.00,0.74
5010.00,0.74
5009.00,0.74
5008.00,0.74
5007.00,0.74
5006.00,0.74
5005.00,0.74
5004.00,0.74
5003.00,0.74
5002.00,0.74
5001.00,0.74
5000.00,0.74
4999.00,0.74
4998.00,0.74
4997.00,0.74
4996.00,0.74
4995.00,0.75
4994.00,0.75
4993.00,0.75
4992.00,0.75
4991.00,0.75
4990.00,0.75
4989.00,0.75
4988.00,0.75
4987.00,0.75
4986.00,0.75
4985.00,0.75
4984.00,0.75
4983.00,0.76
4982.00,0.76
4981.00,0.76
4980.00,0.76
4979.00,0.76
4978.00,0.76
4977.00,0.76
4976.00,0.76
4975.00,0.76
4974.00,0.76
4973.00,0.77
4972.00,0.77
4971.00,0.77
4970.00,0.77
4969.00,0.77
4968.00,0.77
4967.00,0.77
4966.00,0.77
4965.00,0.77
4964.00,0.77
4963.00,0.77
4962.00,0.78
4961.00,0.78
4960.00,0.78
4959.00,0.78
4958.00,0.78
4957.00,0.78
4956.00,0.78
4955.00,0.78
4954.00,0.78
4953.00,0.78
4952.00,0.78
4951.00,0.78
4950.00,0.78
4949.00,0.78
4948.00,0.78
4947.00,0.78
4946.00,0.78
4945.00,0.78
4944.00,0.78
4943.00,0.78
4942.00,0.78
4941.00,0.78
4940.00,0.78
4939.00,0.78
4938.00,0.78
4937.00,0.78
4936.00,0.78
4935.00,0.78
4934.00,0.79
4933.00,0.79
4932.00,0.79
4931.00,0.79
4930.00,0.79
4929.00,0.79
4928.00,0.79
4927.00,0.79
4926.00,0.79
4925.00,0.79
4924.00,0.79
4923.00,0.79
4922.00,0.79
4921.00,0.79
4920.00,0.79
4919.00,0.80
4918.00,0.80
4917.00,0.80
4916.00,0.80
4915.00,0.80
4914.00,0.80
4913.00,0.80
4912.00,0.80
4911.00,0.80
4910.00,0.81
4909.00,0.81
4908.00,0.81
4907.00,0.81
4906.00,0.81
4905.00,0.81
4904.00,0.81
4903.00,0.81
4902.00,0.81
4901.00,0.81
4900.00,0.81
4899.00,0.81
4898.00,0.81
4897.00,0.82
4896.00,0.82
4895.00,0.82
4894.00,0.82
4893.00,0.82
4892.00,0.82
4891.00,0.82
4890.00,0.82
4889.00,0.82
4888.00,0.82
4887.00,0.82
4886.00,0.82
4885.00,0.82
4884.00,0.82
4883.00,0.82
4882.00,0.82
4881.00,0.82
4880.00,0.82
4879.00,0.82
4878.00,0.82
4877.00,0.82
4876.00,0.82
4875.00,0.82
4874.00,0.82
4873.00,0.82
4872.00,0.82
4871.00,0.82
4870.00,0.82
4869.00,0.82
4868.00,0.82
4867.00,0.82
4866.00,0.82
4865.00,0.82
4864.00,0.83
4863.00,0.83
4862.00,0.83
4861.00,0.83
4860.00,0.83
4859.00,0.83
4858.00,0.83
4857.00,0.83
4856.00,0.83
4855.00,0.84
4854.00,0.84
4853.00,0.84
4852.00,0.84
4851.00,0.84
4850.00,0.84
4849.00,0.84
4848.00,0.84
4847.00,0.84
4846.00,0.84
4845.00,0.84
4844.00,0.84
4843.00,0.84
4842.00,0.84
4841.00,0.84
4840.00,0.84
4839.00,0.84
4838.00,0.84
4837.00,0.84
4836.00,0.84
4835.00,0.85
4834.00,0.85
4833.00,0.85
4832.00,0.85
4831.00,0.85
4830.00,0.85
4829.00,0.85
4828.00,0.85
4827.00,0.85
4826.00,0.85
4825.00,0.86
4824.00,0.86
4823.00,0.86
4822.00,0.86
4821.00,0.86
4820.00,0.86
4819.00,0.86
4818.00,0.86
4817.00,0.86
4816.00,0.86
4815.00,0.86
4814.00,0.86
4813.00,0.86
4812.00,0.86
4811.00,0.86
4810.00,0.86
4809.00,0.86
4808.00,0.86
4807.00,0.86
4806.00,0.86
4805.00,0.87
4804.00,0.87
4803.00,0.87
4802.00,0.87
4801.00,0.87
4800.00,0.87
4799.00,0.87
4798.00,0.87
4797.00,0.87
4796.00,0.87
4795.00,0.87
4794.00,0.88
4793.00,0.88
4792.00,0.88
4791.00,0.88
4790.00,0.88
4789.00,0.88
4788.00,0.89
4787.00,0.89
4786.00,0.89
4785.00,0.89
4784.00,0.89
4783.00,0.89
4782.00,0.89
4781.00,0.89
4780.00,0.89
4779.00,0.89
4778.00,0.89
4777.00,0.89
4776.00,0.89
4775.00,0.89
4774.00,0.89
4773.00,0.89
4772.00,0.89
4771.00,0.89
4770.00,0.89
4769.00,0.90
4768.00,0.90
4767.00,0.90
4766.00,0.90
4765.00,0.90
4764.00,0.90
4763.00,0.90
4762.00,0.90
4761.00,0.90
4760.00,0.91
4759.00,0.91
4758.00,0.91
4757.00,0.91
4756.00,0.91
4755.00,0.92
4754.00,0.92
4753.00,0.92
4752.00,0.92
4751.00,0.92
4750.00,0.93
4749.00,0.93
4748.00,0.93
4747.00,0.93
4746.00,0.93
4745.00,0.93
4744.00,0.94
4743.00,0.94
4742.00,0.94
4741.00,0.94
4740.00,0.94
4739.00,0.94
4738.00,0.95
4737.00,0.95
4736.00,0.95
4735.00,0.95
4734.00,0.95
4733.00,0.95
4732.00,0.95
4731.00,0.95
4730.00,0.95
4729.00,0.95
4728.00,0.95
4727.00,0.95
4726.00,0.95
4725.00,0.96
4724.00,0.96
4723.00,0.96
4722.00,0.96
4721.00,0.96
4720.00,0.96
4719.00,0.96
4718.00,0.96
4717.00,0.97
4716.00,0.97
4715.00,0.97
4714.00,0.97
4713.00,0.97
4712.00,0.97
4711.00,0.97
4710.00,0.98
4709.00,0.98
4708.00,0.98
4707.00,0.98
4706.00,0.98
4705.00,0.98
4704.00,0.98
4703.00,0.99
4702.00,0.99
4701.00,0.99
4700.00,0.99
4699.00,0.99
4698.00,1.00
4697.00,1.00
4696.00,1.00
4695.00,1.00
4694.00,1.01
4693.00,1.01
4692.00,1.01
4691.00,1.01
4690.00,1.01
4689.00,1.01
4688.00,1.02
4687.00,1.02
4686.00,1.02
4685.00,1.02
4684.00,1.02
4683.00,1.02
4682.00,1.03
4681.00,1.03
4680.00,1.03
4679.00,1.03
4678.00,1.03
4677.00,1.03
4676.00,1.04
4675.00,1.04
4674.00,1.04
4673.00,1.04
4672.00,1.04
4671.00,1.05
4670.00,1.05
4669.00,1.05
4668.00,1.05
4667.00,1.05
4666.00,1.05
4665.00,1.06
4664.00,1.06
4663.00,1.06
4662.00,1.06
4661.00,1.06
4660.00,1.06
4659.00,1.07
4658.00,1.07
4657.00,1.07
4656.00,1.07
4655.00,1.07
4654.00,1.07
4653.00,1.07
4652.00,1.07
4651.00,1.07
4650.00,1.08
4649.00,1.08
4648.00,1.08
4647.00,1.08
4646.00,1.08
4645.00,1.08
4644.00,1.08
4643.00,1.08
4642.00,1.08
4641.00,1.08
4640.00,1.08
4639.00,1.08
4638.00,1.08
4637.00,1.08
4636.00,1.08
4635.00,1.08
4634.00,1.08
4633.00,1.08
4632.00,1.08
4631.00,1.09
4630.00,1.09
4629.00,1.09
4628.00,1.09
4627.00,1.09
4626.00,1.09
4625.00,1.09
4624.00,1.10
4623.00,1.10
4622.00,1.10
4621.00,1.10
4620.00,1.10
4619.00,1.10
4618.00,1.11
4617.00,1.11
4616.00,1.11
4615.00,1.11
4614.00,1.11
4613.00,1.11
4612.00,1.11
4611.00,1.11
4610.00,1.11
4609.00,1.11
4608.00,1.11
4607.00,1.11
4606.00,1.11
4605.00,1.11
4604.00,1.11
4603.00,1.11
4602.00,1.11
4601.00,1.11
4600.00,1.11
4599.00,1.11
4598.00,1.11
4597.00,1.11
4596.00,1.11
4595.00,1.11
4594.00,1.12
4593.00,1.12
4592.00,1.12
4591.00,1.12
4590.00,1.12
4589.00,1.12
4588.00,1.13
4587.00,1.13
4586.00,1.13
4585.00,1.13
4584.00,1.13
4583.00,1.13
4582.00,1.14
4581.00,1.14
4580.00,1.14
4579.00,1.14
4578.00,1.14
4577.00,1.14
4576.00,1.14
4575.00,1.14
4574.00,1.15
4573.00,1.15
4572.00,1.15
4571.00,1.15
4570.00,1.15
4569.00,1.15
4568.00,1.15
4567.00,1.15
4566.00,1.15
4565.00,1.15
4564.00,1.15
4563.00,1.15
4562.00,1.15
4561.00,1.15
4560.00,1.15
4559.00,1.16
4558.00,1.16
4557.00,1.16
4556.00,1.16
4555.00,1.16
4554.00,1.16
4553.00,1.16
4552.00,1.16
4551.00,1.17
4550.00,1.17
4549.00,1.17
4548.00,1.17
4547.00,1.17
4546.00,1.17
4545.00,1.17
4544.00,1.17
4543.00,1.17
4542.00,1.17
4541.00,1.17
4540.00,1.17
4539.00,1.18
4538.00,1.18
4537.00,1.18
4536.00,1.18
4535.00,1.18
4534.00,1.18
4533.00,1.18
4532.00,1.18
4531.00,1.18
4530.00,1.18
4529.00,1.18
4528.00,1.18
4527.00,1.18
4526.00,1.18
4525.00,1.18
4524.00,1.18
4523.00,1.18
4522.00,1.18
4521.00,1.18
4520.00,1.18
4519.00,1.18
4518.00,1.18
4517.00,1.18
4516.00,1.18
4515.00,1.18
4514.00,1.18
4513.00,1.18
4512.00,1.18
4511.00,1.18
4510.00,1.18
4509.00,1.18
4508.00,1.18
4507.00,1.18
4506.00,1.19
4505.00,1.19
4504.00,1.19
4503.00,1.19
4502.00,1.19
4501.00,1.19
4500.00,1.19
4499.00,1.19
4498.00,1.19
4497.00,1.19
4496.00,1.19
4495.00,1.19
4494.00,1.19
4493.00,1.19
4492.00,1.19
4491.00,1.19
4490.00,1.19
4489.00,1.18
4488.00,1.18
4487.00,1.18
4486.00,1.18
4485.00,1.18
4484.00,1.18
4483.00,1.18
4482.00,1.17
4481.00,1.17
4480.00,1.17
4479.00,1.17
4478.00,1.16
4477.00,1.16
4476.00,1.16
4475.00,1.16
4474.00,1.16
4473.00,1.15
4472.00,1.15
4471.00,1.15
4470.00,1.15
4469.00,1.14
4468.00,1.14
4467.00,1.14
4466.00,1.14
4465.00,1.13
4464.00,1.13
4463.00,1.13
4462.00,1.13
4461.00,1.12
4460.00,1.12
4459.00,1.12
4458.00,1.12
4457.00,1.11
4456.00,1.11
4455.00,1.11
4454.00,1.11
4453.00,1.10
4452.00,1.10
4451.00,1.10
4450.00,1.10
4449.00,1.09
4448.00,1.09
4447.00,1.09
4446.00,1.08
4445.00,1.08
4444.00,1.08
4443.00,1.08
4442.00,1.07
4441.00,1.07
4440.00,1.07
4439.00,1.07
4438.00,1.07
4437.00,1.06
4436.00,1.06
4435.00,1.06
4434.00,1.06
4433.00,1.05
4432.00,1.05
4431.00,1.05
4430.00,1.05
4429.00,1.05
4428.00,1.05
4427.00,1.05
4426.00,1.04
4425.00,1.04
4424.00,1.04
4423.00,1.04
4422.00,1.04
4421.00,1.04
4420.00,1.04
4419.00,1.04
4418.00,1.04
4417.00,1.04
4416.00,1.04
4415.00,1.04
4414.00,1.04
4413.00,1.04
4412.00,1.04
4411.00,1.04
4410.00,1.04
4409.00,1.04
4408.00,1.04
4407.00,1.04
4406.00,1.04
4405.00,1.04
4404.00,1.04
4403.00,1.04
4402.00,1.04
4401.00,1.05
4400.00,1.05
4399.00,1.05
4398.00,1.05
4397.00,1.05
4396.00,1.05
4395.00,1.05
4394.00,1.05
4393.00,1.05
4392.00,1.06
4391.00,1.06
4390.00,1.06
4389.00,1.06
4388.00,1.06
4387.00,1.06
4386.00,1.06
4385.00,1.06
4384.00,1.06
4383.00,1.06
4382.00,1.06
4381.00,1.06
4380.00,1.06
4379.00,1.06
4378.00,1.06
4377.00,1.07
4376.00,1.07
4375.00,1.07
4374.00,1.07
4373.00,1.07
4372.00,1.07
4371.00,1.07
4370.00,1.07
4369.00,1.07
4368.00,1.07
4367.00,1.07
4366.00,1.07
4365.00,1.07
4364.00,1.07
4363.00,1.07
4362.00,1.07
4361.00,1.07
4360.00,1.07
4359.00,1.07
4358.00,1.07
4357.00,1.07
4356.00,1.07
4355.00,1.07
4354.00,1.07
4353.00,1.07
4352.00,1.07
4351.00,1.07
4350.00,1.07
4349.00,1.07
4348.00,1.07
4347.00,1.07
4346.00,1.07
4345.00,1.07
4344.00,1.07
4343.00,1.07
4342.00,1.07
4341.00,1.07
4340.00,1.07
4339.00,1.08
4338.00,1.08
4337.00,1.08
4336.00,1.08
4335.00,1.08
4334.00,1.08
4333.00,1.08
4332.00,1.08
4331.00,1.09
4330.00,1.09
4329.00,1.09
4328.00,1.09
4327.00,1.09
4326.00,1.09
4325.00,1.09
4324.00,1.10
4323.00,1.10
4322.00,1.10
4321.00,1.10
4320.00,1.10
4319.00,1.10
4318.00,1.10
4317.00,1.11
4316.00,1.11
4315.00,1.11
4314.00,1.11
4313.00,1.11
4312.00,1.11
4311.00,1.11
4310.00,1.11
4309.00,1.12
4308.00,1.12
4307.00,1.12
4306.00,1.12
4305.00,1.12
4304.00,1.12
4303.00,1.12
4302.00,1.12
4301.00,1.12
4300.00,1.12
4299.00,1.12
4298.00,1.12
4297.00,1.12
4296.00,1.12
4295.00,1.12
4294.00,1.13
4293.00,1.13
4292.00,1.13
4291.00,1.13
4290.00,1.13
4289.00,1.13
4288.00,1.13
4287.00,1.13
4286.00,1.13
4285.00,1.13
4284.00,1.13
4283.00,1.14
4282.00,1.14
4281.00,1.14
4280.00,1.14
4279.00,1.14
4278.00,1.14
4277.00,1.14
4276.00,1.14
4275.00,1.14
4274.00,1.14
4273.00,1.14
4272.00,1.14
4271.00,1.14
4270.00,1.14
4269.00,1.14
4268.00,1.14
4267.00,1.14
4266.00,1.14
4265.00,1.14
4264.00,1.14
4263.00,1.15
4262.00,1.15
4261.00,1.15
4260.00,1.15
4259.00,1.15
4258.00,1.15
4257.00,1.15
4256.00,1.15
4255.00,1.15
4254.00,1.16
4253.00,1.16
4252.00,1.16
4251.00,1.16
4250.00,1.16
4249.00,1.16
4248.00,1.16
4247.00,1.16
4246.00,1.16
4245.00,1.17
4244.00,1.17
4243.00,1.17
4242.00,1.17
4241.00,1.17
4240.00,1.17
4239.00,1.17
4238.00,1.17
4237.00,1.17
4236.00,1.17
4235.00,1.17
4234.00,1.17
4233.00,1.18
4232.00,1.18
4231.00,1.18
4230.00,1.18
4229.00,1.18
4228.00,1.18
4227.00,1.18
4226.00,1.18
4225.00,1.18
4224.00,1.18
4223.00,1.18
4222.00,1.19
4221.00,1.19
4220.00,1.19
4219.00,1.19
4218.00,1.19
4217.00,1.19
4216.00,1.19
4215.00,1.20
4214.00,1.20
4213.00,1.20
4212.00,1.20
4211.00,1.20
4210.00,1.20
4209.00,1.20
4208.00,1.20
4207.00,1.20
4206.00,1.20
4205.00,1.20
4204.00,1.20
4203.00,1.20
4202.00,1.20
4201.00,1.20
4200.00,1.20
4199.00,1.20
4198.00,1.20
4197.00,1.20
4196.00,1.20
4195.00,1.20
4194.00,1.20
4193.00,1.20
4192.00,1.20
4191.00,1.20
4190.00,1.20
4189.00,1.20
4188.00,1.20
4187.00,1.21
4186.00,1.21
4185.00,1.21
4184.00,1.21
4183.00,1.21
4182.00,1.21
4181.00,1.21
4180.00,1.21
4179.00,1.21
4178.00,1.21
4177.00,1.21
4176.00,1.21
4175.00,1.21
4174.00,1.21
4173.00,1.21
4172.00,1.21
4171.00,1.21
4170.00,1.21
4169.00,1.22
4168.00,1.22
4167.00,1.22
4166.00,1.22
4165.00,1.22
4164.00,1.22
4163.00,1.22
4162.00,1.22
4161.00,1.22
4160.00,1.22
4159.00,1.22
4158.00,1.22
4157.00,1.22
4156.00,1.22
4155.00,1.22
4154.00,1.22
4153.00,1.22
4152.00,1.22
4151.00,1.23
4150.00,1.23
4149.00,1.23
4148.00,1.23
4147.00,1.23
4146.00,1.23
4145.00,1.23
4144.00,1.23
4143.00,1.23
4142.00,1.23
4141.00,1.23
4140.00,1.23
4139.00,1.23
4138.00,1.23
4137.00,1.23
4136.00,1.23
4135.00,1.24
4134.00,1.24
4133.00,1.24
4132.00,1.24
4131.00,1.24
4130.00,1.24
4129.00,1.24
4128.00,1.24
4127.00,1.24
4126.00,1.24
4125.00,1.24
4124.00,1.24
4123.00,1.24
4122.00,1.24
4121.00,1.24
4120.00,1.24
4119.00,1.24
4118.00,1.24
4117.00,1.24
4116.00,1.24
4115.00,1.24
4114.00,1.24
4113.00,1.24
4112.00,1.24
4111.00,1.24
4110.00,1.24
4109.00,1.25
4108.00,1.25
4107.00,1.25
4106.00,1.25
4105.00,1.25
4104.00,1.25
4103.00,1.25
4102.00,1.25
4101.00,1.25
4100.00,1.25
4099.00,1.25
4098.00,1.25
4097.00,1.25
4096.00,1.25
4095.00,1.25
4094.00,1.25
4093.00,1.25
4092.00,1.25
4091.00,1.25
4090.00,1.25
4089.00,1.25
4088.00,1.25
4087.00,1.25
4086.00,1.25
4085.00,1.25
4084.00,1.25
4083.00,1.25
4082.00,1.25
4081.00,1.25
4080.00,1.26
4079.00,1.26
4078.00,1.26
4077.00,1.26
4076.00,1.26
4075.00,1.26
4074.00,1.26
4073.00,1.27
4072.00,1.27
4071.00,1.27
4070.00,1.27
4069.00,1.27
4068.00,1.27
4067.00,1.27
4066.00,1.27
4065.00,1.27
4064.00,1.27
4063.00,1.27
4062.00,1.27
4061.00,1.27
4060.00,1.27
4059.00,1.27
4058.00,1.27
4057.00,1.27
4056.00,1.28
4055.00,1.28
4054.00,1.28
4053.00,1.28
4052.00,1.28
4051.00,1.28
4050.00,1.28
4049.00,1.28
4048.00,1.28
4047.00,1.28
4046.00,1.28
4045.00,1.28
4044.00,1.28
4043.00,1.28
4042.00,1.28
4041.00,1.28
4040.00,1.28
4039.00,1.28
4038.00,1.28
4037.00,1.28
4036.00,1.29
4035.00,1.29
4034.00,1.29
4033.00,1.29
4032.00,1.29
4031.00,1.29
4030.00,1.29
4029.00,1.29
4028.00,1.30
4027.00,1.30
4026.00,1.30
4025.00,1.30
4024.00,1.30
4023.00,1.31
4022.00,1.31
4021.00,1.31
4020.00,1.31
4019.00,1.32
4018.00,1.32
4017.00,1.32
4016.00,1.32
4015.00,1.32
4014.00,1.32
4013.00,1.32
4012.00,1.32
4011.00,1.33
4010.00,1.33
4009.00,1.33
4008.00,1.33
4007.00,1.33
4006.00,1.33
4005.00,1.33
4004.00,1.33
4003.00,1.33
4002.00,1.33
4001.00,1.33
4000.00,1.33
