创建为新数据集,样品 055 用户 Administrator 日期 星期五, 七月 20 2018
cm-1,%T
10000.00,1.34
9999.00,1.34
9998.00,1.34
9997.00,1.34
9996.00,1.34
9995.00,1.34
9994.00,1.34
9993.00,1.34
9992.00,1.34
9991.00,1.34
9990.00,1.34
9989.00,1.34
9988.00,1.34
9987.00,1.34
9986.00,1.34
9985.00,1.34
9984.00,1.34
9983.00,1.34
9982.00,1.34
9981.00,1.34
9980.00,1.34
9979.00,1.34
9978.00,1.34
9977.00,1.34
9976.00,1.34
9975.00,1.34
9974.00,1.34
9973.00,1.34
9972.00,1.34
9971.00,1.34
9970.00,1.34
9969.00,1.34
9968.00,1.34
9967.00,1.34
9966.00,1.34
9965.00,1.34
9964.00,1.34
9963.00,1.34
9962.00,1.34
9961.00,1.34
9960.00,1.34
9959.00,1.34
9958.00,1.34
9957.00,1.34
9956.00,1.33
9955.00,1.33
9954.00,1.33
9953.00,1.33
9952.00,1.33
9951.00,1.33
9950.00,1.33
9949.00,1.33
9948.00,1.33
9947.00,1.33
9946.00,1.34
9945.00,1.34
9944.00,1.34
9943.00,1.34
9942.00,1.34
9941.00,1.34
9940.00,1.34
9939.00,1.34
9938.00,1.34
9937.00,1.34
9936.00,1.34
9935.00,1.34
9934.00,1.34
9933.00,1.34
9932.00,1.33
9931.00,1.33
9930.00,1.33
9929.00,1.33
9928.00,1.32
9927.00,1.32
9926.00,1.32
9925.00,1.31
9924.00,1.31
9923.00,1.31
9922.00,1.31
9921.00,1.31
9920.00,1.31
9919.00,1.31
9918.00,1.31
9917.00,1.31
9916.00,1.31
9915.00,1.31
9914.00,1.31
9913.00,1.31
9912.00,1.32
9911.00,1.32
9910.00,1.32
9909.00,1.32
9908.00,1.32
9907.00,1.32
9906.00,1.32
9905.00,1.33
9904.00,1.33
9903.00,1.33
9902.00,1.33
9901.00,1.33
9900.00,1.33
9899.00,1.32
9898.00,1.32
9897.00,1.32
9896.00,1.32
9895.00,1.32
9894.00,1.32
9893.00,1.33
9892.00,1.33
9891.00,1.33
9890.00,1.33
9889.00,1.33
9888.00,1.33
9887.00,1.33
9886.00,1.33
9885.00,1.33
9884.00,1.34
9883.00,1.34
9882.00,1.34
9881.00,1.34
9880.00,1.34
9879.00,1.34
9878.00,1.34
9877.00,1.34
9876.00,1.34
9875.00,1.34
9874.00,1.34
9873.00,1.34
9872.00,1.34
9871.00,1.34
9870.00,1.34
9869.00,1.34
9868.00,1.34
9867.00,1.34
9866.00,1.34
9865.00,1.34
9864.00,1.34
9863.00,1.34
9862.00,1.34
9861.00,1.34
9860.00,1.34
9859.00,1.34
9858.00,1.34
9857.00,1.34
9856.00,1.34
9855.00,1.34
9854.00,1.34
9853.00,1.34
9852.00,1.34
9851.00,1.33
9850.00,1.33
9849.00,1.33
9848.00,1.33
9847.00,1.33
9846.00,1.33
9845.00,1.33
9844.00,1.33
9843.00,1.32
9842.00,1.32
9841.00,1.32
9840.00,1.32
9839.00,1.32
9838.00,1.32
9837.00,1.32
9836.00,1.32
9835.00,1.32
9834.00,1.32
9833.00,1.32
9832.00,1.32
9831.00,1.33
9830.00,1.33
9829.00,1.33
9828.00,1.33
9827.00,1.33
9826.00,1.33
9825.00,1.33
9824.00,1.33
9823.00,1.33
9822.00,1.33
9821.00,1.33
9820.00,1.33
9819.00,1.33
9818.00,1.32
9817.00,1.32
9816.00,1.32
9815.00,1.32
9814.00,1.32
9813.00,1.32
9812.00,1.32
9811.00,1.32
9810.00,1.31
9809.00,1.31
9808.00,1.31
9807.00,1.31
9806.00,1.32
9805.00,1.32
9804.00,1.32
9803.00,1.32
9802.00,1.32
9801.00,1.32
9800.00,1.31
9799.00,1.31
9798.00,1.31
9797.00,1.31
9796.00,1.31
9795.00,1.31
9794.00,1.31
9793.00,1.31
9792.00,1.30
9791.00,1.30
9790.00,1.30
9789.00,1.30
9788.00,1.30
9787.00,1.30
9786.00,1.29
9785.00,1.29
9784.00,1.29
9783.00,1.29
9782.00,1.29
9781.00,1.29
9780.00,1.29
9779.00,1.29
9778.00,1.29
9777.00,1.29
9776.00,1.29
9775.00,1.29
9774.00,1.29
9773.00,1.29
9772.00,1.29
9771.00,1.30
9770.00,1.30
9769.00,1.30
9768.00,1.30
9767.00,1.30
9766.00,1.30
9765.00,1.30
9764.00,1.30
9763.00,1.30
9762.00,1.30
9761.00,1.30
9760.00,1.30
9759.00,1.30
9758.00,1.30
9757.00,1.30
9756.00,1.30
9755.00,1.30
9754.00,1.30
9753.00,1.30
9752.00,1.31
9751.00,1.31
9750.00,1.31
9749.00,1.31
9748.00,1.31
9747.00,1.31
9746.00,1.32
9745.00,1.32
9744.00,1.32
9743.00,1.32
9742.00,1.32
9741.00,1.32
9740.00,1.32
9739.00,1.32
9738.00,1.32
9737.00,1.32
9736.00,1.31
9735.00,1.31
9734.00,1.31
9733.00,1.31
9732.00,1.32
9731.00,1.32
9730.00,1.32
9729.00,1.32
9728.00,1.32
9727.00,1.32
9726.00,1.33
9725.00,1.33
9724.00,1.33
9723.00,1.33
9722.00,1.34
9721.00,1.34
9720.00,1.34
9719.00,1.34
9718.00,1.34
9717.00,1.34
9716.00,1.34
9715.00,1.34
9714.00,1.34
9713.00,1.34
9712.00,1.34
9711.00,1.34
9710.00,1.34
9709.00,1.34
9708.00,1.34
9707.00,1.34
9706.00,1.34
9705.00,1.34
9704.00,1.34
9703.00,1.34
9702.00,1.34
9701.00,1.34
9700.00,1.34
9699.00,1.34
9698.00,1.34
9697.00,1.34
9696.00,1.34
9695.00,1.34
9694.00,1.34
9693.00,1.34
9692.00,1.34
9691.00,1.34
9690.00,1.34
9689.00,1.34
9688.00,1.33
9687.00,1.33
9686.00,1.33
9685.00,1.33
9684.00,1.32
9683.00,1.32
9682.00,1.32
9681.00,1.32
9680.00,1.31
9679.00,1.31
9678.00,1.31
9677.00,1.31
9676.00,1.31
9675.00,1.31
9674.00,1.31
9673.00,1.31
9672.00,1.32
9671.00,1.32
9670.00,1.32
9669.00,1.32
9668.00,1.32
9667.00,1.33
9666.00,1.33
9665.00,1.33
9664.00,1.33
9663.00,1.34
9662.00,1.34
9661.00,1.34
9660.00,1.34
9659.00,1.34
9658.00,1.34
9657.00,1.34
9656.00,1.34
9655.00,1.34
9654.00,1.34
9653.00,1.34
9652.00,1.33
9651.00,1.33
9650.00,1.33
9649.00,1.33
9648.00,1.32
9647.00,1.32
9646.00,1.32
9645.00,1.31
9644.00,1.31
9643.00,1.31
9642.00,1.31
9641.00,1.30
9640.00,1.30
9639.00,1.30
9638.00,1.30
9637.00,1.30
9636.00,1.30
9635.00,1.30
9634.00,1.30
9633.00,1.30
9632.00,1.30
9631.00,1.31
9630.00,1.31
9629.00,1.31
9628.00,1.31
9627.00,1.31
9626.00,1.31
9625.00,1.31
9624.00,1.32
9623.00,1.32
9622.00,1.32
9621.00,1.32
9620.00,1.32
9619.00,1.32
9618.00,1.32
9617.00,1.32
9616.00,1.32
9615.00,1.32
9614.00,1.32
9613.00,1.32
9612.00,1.32
9611.00,1.32
9610.00,1.32
9609.00,1.32
9608.00,1.32
9607.00,1.32
9606.00,1.32
9605.00,1.32
9604.00,1.32
9603.00,1.32
9602.00,1.32
9601.00,1.33
9600.00,1.33
9599.00,1.33
9598.00,1.33
9597.00,1.33
9596.00,1.33
9595.00,1.33
9594.00,1.33
9593.00,1.33
9592.00,1.33
9591.00,1.33
9590.00,1.33
9589.00,1.33
9588.00,1.33
9587.00,1.33
9586.00,1.32
9585.00,1.32
9584.00,1.32
9583.00,1.32
9582.00,1.32
9581.00,1.32
9580.00,1.31
9579.00,1.31
9578.00,1.31
9577.00,1.31
9576.00,1.31
9575.00,1.31
9574.00,1.31
9573.00,1.31
9572.00,1.31
9571.00,1.31
9570.00,1.31
9569.00,1.31
9568.00,1.31
9567.00,1.31
9566.00,1.31
9565.00,1.31
9564.00,1.31
9563.00,1.31
9562.00,1.31
9561.00,1.31
9560.00,1.31
9559.00,1.31
9558.00,1.31
9557.00,1.31
9556.00,1.31
9555.00,1.31
9554.00,1.31
9553.00,1.31
9552.00,1.31
9551.00,1.31
9550.00,1.31
9549.00,1.31
9548.00,1.31
9547.00,1.31
9546.00,1.31
9545.00,1.31
9544.00,1.31
9543.00,1.31
9542.00,1.31
9541.00,1.31
9540.00,1.31
9539.00,1.31
9538.00,1.31
9537.00,1.31
9536.00,1.31
9535.00,1.31
9534.00,1.31
9533.00,1.31
9532.00,1.31
9531.00,1.31
9530.00,1.31
9529.00,1.31
9528.00,1.31
9527.00,1.31
9526.00,1.31
9525.00,1.31
9524.00,1.31
9523.00,1.31
9522.00,1.31
9521.00,1.31
9520.00,1.31
9519.00,1.31
9518.00,1.32
9517.00,1.32
9516.00,1.32
9515.00,1.32
9514.00,1.33
9513.00,1.33
9512.00,1.33
9511.00,1.33
9510.00,1.34
9509.00,1.34
9508.00,1.34
9507.00,1.34
9506.00,1.34
9505.00,1.34
9504.00,1.34
9503.00,1.34
9502.00,1.34
9501.00,1.34
9500.00,1.34
9499.00,1.34
9498.00,1.34
9497.00,1.34
9496.00,1.33
9495.00,1.33
9494.00,1.33
9493.00,1.33
9492.00,1.33
9491.00,1.33
9490.00,1.33
9489.00,1.32
9488.00,1.32
9487.00,1.32
9486.00,1.32
9485.00,1.32
9484.00,1.32
9483.00,1.31
9482.00,1.31
9481.00,1.31
9480.00,1.31
9479.00,1.31
9478.00,1.31
9477.00,1.31
9476.00,1.31
9475.00,1.31
9474.00,1.31
9473.00,1.31
9472.00,1.31
9471.00,1.31
9470.00,1.31
9469.00,1.31
9468.00,1.31
9467.00,1.32
9466.00,1.32
9465.00,1.32
9464.00,1.32
9463.00,1.32
9462.00,1.32
9461.00,1.32
9460.00,1.32
9459.00,1.32
9458.00,1.32
9457.00,1.32
9456.00,1.31
9455.00,1.31
9454.00,1.31
9453.00,1.31
9452.00,1.31
9451.00,1.31
9450.00,1.31
9449.00,1.30
9448.00,1.30
9447.00,1.30
9446.00,1.30
9445.00,1.30
9444.00,1.30
9443.00,1.30
9442.00,1.30
9441.00,1.30
9440.00,1.29
9439.00,1.29
9438.00,1.29
9437.00,1.29
9436.00,1.29
9435.00,1.29
9434.00,1.29
9433.00,1.29
9432.00,1.28
9431.00,1.28
9430.00,1.28
9429.00,1.28
9428.00,1.28
9427.00,1.28
9426.00,1.28
9425.00,1.28
9424.00,1.29
9423.00,1.29
9422.00,1.29
9421.00,1.29
9420.00,1.30
9419.00,1.30
9418.00,1.30
9417.00,1.30
9416.00,1.31
9415.00,1.31
9414.00,1.31
9413.00,1.31
9412.00,1.32
9411.00,1.32
9410.00,1.32
9409.00,1.32
9408.00,1.32
9407.00,1.32
9406.00,1.32
9405.00,1.32
9404.00,1.32
9403.00,1.32
9402.00,1.32
9401.00,1.32
9400.00,1.32
9399.00,1.32
9398.00,1.32
9397.00,1.32
9396.00,1.32
9395.00,1.32
9394.00,1.32
9393.00,1.32
9392.00,1.32
9391.00,1.32
9390.00,1.32
9389.00,1.32
9388.00,1.32
9387.00,1.32
9386.00,1.31
9385.00,1.31
9384.00,1.31
9383.00,1.31
9382.00,1.31
9381.00,1.31
9380.00,1.31
9379.00,1.31
9378.00,1.31
9377.00,1.31
9376.00,1.32
9375.00,1.32
9374.00,1.32
9373.00,1.32
9372.00,1.32
9371.00,1.32
9370.00,1.32
9369.00,1.32
9368.00,1.32
9367.00,1.32
9366.00,1.32
9365.00,1.32
9364.00,1.32
9363.00,1.32
9362.00,1.32
9361.00,1.33
9360.00,1.33
9359.00,1.33
9358.00,1.33
9357.00,1.33
9356.00,1.33
9355.00,1.33
9354.00,1.33
9353.00,1.33
9352.00,1.33
9351.00,1.33
9350.00,1.33
9349.00,1.33
9348.00,1.33
9347.00,1.33
9346.00,1.32
9345.00,1.32
9344.00,1.32
9343.00,1.32
9342.00,1.31
9341.00,1.31
9340.00,1.31
9339.00,1.31
9338.00,1.30
9337.00,1.30
9336.00,1.30
9335.00,1.30
9334.00,1.30
9333.00,1.29
9332.00,1.29
9331.00,1.29
9330.00,1.29
9329.00,1.29
9328.00,1.29
9327.00,1.29
9326.00,1.29
9325.00,1.29
9324.00,1.29
9323.00,1.29
9322.00,1.29
9321.00,1.29
9320.00,1.30
9319.00,1.30
9318.00,1.30
9317.00,1.30
9316.00,1.30
9315.00,1.30
9314.00,1.30
9313.00,1.30
9312.00,1.30
9311.00,1.30
9310.00,1.31
9309.00,1.31
9308.00,1.31
9307.00,1.31
9306.00,1.31
9305.00,1.32
9304.00,1.32
9303.00,1.32
9302.00,1.32
9301.00,1.32
9300.00,1.32
9299.00,1.33
9298.00,1.33
9297.00,1.33
9296.00,1.33
9295.00,1.33
9294.00,1.33
9293.00,1.33
9292.00,1.33
9291.00,1.33
9290.00,1.33
9289.00,1.32
9288.00,1.32
9287.00,1.32
9286.00,1.32
9285.00,1.32
9284.00,1.32
9283.00,1.31
9282.00,1.31
9281.00,1.31
9280.00,1.31
9279.00,1.31
9278.00,1.31
9277.00,1.31
9276.00,1.30
9275.00,1.30
9274.00,1.30
9273.00,1.30
9272.00,1.30
9271.00,1.30
9270.00,1.30
9269.00,1.30
9268.00,1.31
9267.00,1.31
9266.00,1.31
9265.00,1.31
9264.00,1.31
9263.00,1.31
9262.00,1.31
9261.00,1.31
9260.00,1.31
9259.00,1.31
9258.00,1.31
9257.00,1.31
9256.00,1.31
9255.00,1.31
9254.00,1.31
9253.00,1.31
9252.00,1.31
9251.00,1.31
9250.00,1.31
9249.00,1.31
9248.00,1.31
9247.00,1.31
9246.00,1.31
9245.00,1.31
9244.00,1.30
9243.00,1.30
9242.00,1.30
9241.00,1.30
9240.00,1.30
9239.00,1.30
9238.00,1.30
9237.00,1.30
9236.00,1.30
9235.00,1.30
9234.00,1.30
9233.00,1.30
9232.00,1.30
9231.00,1.30
9230.00,1.30
9229.00,1.30
9228.00,1.30
9227.00,1.30
9226.00,1.30
9225.00,1.30
9224.00,1.30
9223.00,1.30
9222.00,1.30
9221.00,1.30
9220.00,1.30
9219.00,1.30
9218.00,1.30
9217.00,1.30
9216.00,1.31
9215.00,1.31
9214.00,1.31
9213.00,1.31
9212.00,1.31
9211.00,1.31
9210.00,1.31
9209.00,1.31
9208.00,1.31
9207.00,1.31
9206.00,1.31
9205.00,1.31
9204.00,1.31
9203.00,1.32
9202.00,1.32
9201.00,1.32
9200.00,1.32
9199.00,1.32
9198.00,1.32
9197.00,1.32
9196.00,1.32
9195.00,1.32
9194.00,1.32
9193.00,1.32
9192.00,1.32
9191.00,1.32
9190.00,1.32
9189.00,1.32
9188.00,1.32
9187.00,1.32
9186.00,1.32
9185.00,1.31
9184.00,1.31
9183.00,1.31
9182.00,1.31
9181.00,1.31
9180.00,1.30
9179.00,1.30
9178.00,1.30
9177.00,1.30
9176.00,1.30
9175.00,1.29
9174.00,1.29
9173.00,1.29
9172.00,1.29
9171.00,1.29
9170.00,1.29
9169.00,1.29
9168.00,1.29
9167.00,1.29
9166.00,1.29
9165.00,1.30
9164.00,1.30
9163.00,1.30
9162.00,1.30
9161.00,1.30
9160.00,1.30
9159.00,1.30
9158.00,1.30
9157.00,1.31
9156.00,1.31
9155.00,1.31
9154.00,1.31
9153.00,1.32
9152.00,1.32
9151.00,1.32
9150.00,1.32
9149.00,1.33
9148.00,1.33
9147.00,1.33
9146.00,1.34
9145.00,1.34
9144.00,1.34
9143.00,1.34
9142.00,1.34
9141.00,1.34
9140.00,1.34
9139.00,1.34
9138.00,1.34
9137.00,1.34
9136.00,1.34
9135.00,1.34
9134.00,1.34
9133.00,1.33
9132.00,1.33
9131.00,1.33
9130.00,1.33
9129.00,1.33
9128.00,1.33
9127.00,1.32
9126.00,1.32
9125.00,1.32
9124.00,1.32
9123.00,1.32
9122.00,1.32
9121.00,1.32
9120.00,1.32
9119.00,1.33
9118.00,1.33
9117.00,1.33
9116.00,1.33
9115.00,1.33
9114.00,1.33
9113.00,1.33
9112.00,1.33
9111.00,1.33
9110.00,1.33
9109.00,1.34
9108.00,1.34
9107.00,1.34
9106.00,1.33
9105.00,1.33
9104.00,1.33
9103.00,1.33
9102.00,1.33
9101.00,1.33
9100.00,1.33
9099.00,1.33
9098.00,1.33
9097.00,1.33
9096.00,1.33
9095.00,1.33
9094.00,1.33
9093.00,1.33
9092.00,1.33
9091.00,1.32
9090.00,1.32
9089.00,1.32
9088.00,1.32
9087.00,1.32
9086.00,1.32
9085.00,1.32
9084.00,1.32
9083.00,1.32
9082.00,1.32
9081.00,1.32
9080.00,1.32
9079.00,1.32
9078.00,1.32
9077.00,1.32
9076.00,1.32
9075.00,1.32
9074.00,1.32
9073.00,1.31
9072.00,1.31
9071.00,1.31
9070.00,1.31
9069.00,1.31
9068.00,1.31
9067.00,1.31
9066.00,1.31
9065.00,1.31
9064.00,1.31
9063.00,1.31
9062.00,1.31
9061.00,1.31
9060.00,1.31
9059.00,1.31
9058.00,1.31
9057.00,1.31
9056.00,1.31
9055.00,1.31
9054.00,1.32
9053.00,1.32
9052.00,1.32
9051.00,1.32
9050.00,1.32
9049.00,1.32
9048.00,1.32
9047.00,1.32
9046.00,1.32
9045.00,1.32
9044.00,1.32
9043.00,1.32
9042.00,1.32
9041.00,1.32
9040.00,1.32
9039.00,1.32
9038.00,1.32
9037.00,1.32
9036.00,1.32
9035.00,1.31
9034.00,1.31
9033.00,1.31
9032.00,1.31
9031.00,1.31
9030.00,1.31
9029.00,1.31
9028.00,1.31
9027.00,1.31
9026.00,1.31
9025.00,1.31
9024.00,1.31
9023.00,1.31
9022.00,1.31
9021.00,1.31
9020.00,1.31
9019.00,1.31
9018.00,1.31
9017.00,1.31
9016.00,1.31
9015.00,1.31
9014.00,1.31
9013.00,1.31
9012.00,1.30
9011.00,1.30
9010.00,1.30
9009.00,1.30
9008.00,1.30
9007.00,1.30
9006.00,1.30
9005.00,1.30
9004.00,1.31
9003.00,1.31
9002.00,1.31
9001.00,1.31
9000.00,1.31
8999.00,1.31
8998.00,1.31
8997.00,1.31
8996.00,1.31
8995.00,1.31
8994.00,1.32
8993.00,1.32
8992.00,1.32
8991.00,1.32
8990.00,1.32
8989.00,1.32
8988.00,1.32
8987.00,1.32
8986.00,1.32
8985.00,1.32
8984.00,1.32
8983.00,1.32
8982.00,1.32
8981.00,1.32
8980.00,1.32
8979.00,1.32
8978.00,1.32
8977.00,1.32
8976.00,1.32
8975.00,1.32
8974.00,1.32
8973.00,1.32
8972.00,1.32
8971.00,1.32
8970.00,1.32
8969.00,1.32
8968.00,1.32
8967.00,1.32
8966.00,1.32
8965.00,1.32
8964.00,1.33
8963.00,1.33
8962.00,1.33
8961.00,1.33
8960.00,1.33
8959.00,1.33
8958.00,1.33
8957.00,1.33
8956.00,1.33
8955.00,1.33
8954.00,1.33
8953.00,1.33
8952.00,1.33
8951.00,1.33
8950.00,1.33
8949.00,1.33
8948.00,1.33
8947.00,1.33
8946.00,1.33
8945.00,1.33
8944.00,1.33
8943.00,1.33
8942.00,1.33
8941.00,1.33
8940.00,1.33
8939.00,1.33
8938.00,1.33
8937.00,1.33
8936.00,1.33
8935.00,1.32
8934.00,1.32
8933.00,1.32
8932.00,1.32
8931.00,1.32
8930.00,1.32
8929.00,1.32
8928.00,1.31
8927.00,1.31
8926.00,1.31
8925.00,1.31
8924.00,1.31
8923.00,1.31
8922.00,1.31
8921.00,1.30
8920.00,1.30
8919.00,1.30
8918.00,1.30
8917.00,1.31
8916.00,1.31
8915.00,1.31
8914.00,1.31
8913.00,1.31
8912.00,1.31
8911.00,1.31
8910.00,1.31
8909.00,1.32
8908.00,1.32
8907.00,1.32
8906.00,1.32
8905.00,1.32
8904.00,1.32
8903.00,1.32
8902.00,1.32
8901.00,1.32
8900.00,1.32
8899.00,1.32
8898.00,1.32
8897.00,1.32
8896.00,1.32
8895.00,1.32
8894.00,1.32
8893.00,1.32
8892.00,1.32
8891.00,1.32
8890.00,1.32
8889.00,1.32
8888.00,1.32
8887.00,1.32
8886.00,1.32
8885.00,1.32
8884.00,1.32
8883.00,1.32
8882.00,1.32
8881.00,1.32
8880.00,1.32
8879.00,1.32
8878.00,1.32
8877.00,1.32
8876.00,1.32
8875.00,1.32
8874.00,1.32
8873.00,1.32
8872.00,1.32
8871.00,1.32
8870.00,1.32
8869.00,1.32
8868.00,1.32
8867.00,1.32
8866.00,1.32
8865.00,1.32
8864.00,1.32
8863.00,1.32
8862.00,1.32
8861.00,1.32
8860.00,1.32
8859.00,1.32
8858.00,1.32
8857.00,1.32
8856.00,1.32
8855.00,1.32
8854.00,1.32
8853.00,1.32
8852.00,1.32
8851.00,1.32
8850.00,1.32
8849.00,1.32
8848.00,1.32
8847.00,1.32
8846.00,1.32
8845.00,1.32
8844.00,1.31
8843.00,1.31
8842.00,1.31
8841.00,1.31
8840.00,1.31
8839.00,1.31
8838.00,1.31
8837.00,1.31
8836.00,1.31
8835.00,1.31
8834.00,1.31
8833.00,1.31
8832.00,1.31
8831.00,1.31
8830.00,1.31
8829.00,1.31
8828.00,1.31
8827.00,1.31
8826.00,1.31
8825.00,1.31
8824.00,1.31
8823.00,1.31
8822.00,1.31
8821.00,1.31
8820.00,1.31
8819.00,1.31
8818.00,1.31
8817.00,1.31
8816.00,1.30
8815.00,1.30
8814.00,1.30
8813.00,1.30
8812.00,1.30
8811.00,1.30
8810.00,1.30
8809.00,1.30
8808.00,1.29
8807.00,1.29
8806.00,1.29
8805.00,1.29
8804.00,1.29
8803.00,1.29
8802.00,1.29
8801.00,1.29
8800.00,1.29
8799.00,1.29
8798.00,1.29
8797.00,1.29
8796.00,1.29
8795.00,1.29
8794.00,1.29
8793.00,1.29
8792.00,1.29
8791.00,1.29
8790.00,1.29
8789.00,1.29
8788.00,1.29
8787.00,1.28
8786.00,1.28
8785.00,1.28
8784.00,1.28
8783.00,1.28
8782.00,1.28
8781.00,1.28
8780.00,1.28
8779.00,1.28
8778.00,1.27
8777.00,1.27
8776.00,1.27
8775.00,1.27
8774.00,1.27
8773.00,1.27
8772.00,1.27
8771.00,1.27
8770.00,1.27
8769.00,1.26
8768.00,1.26
8767.00,1.26
8766.00,1.26
8765.00,1.26
8764.00,1.26
8763.00,1.26
8762.00,1.26
8761.00,1.26
8760.00,1.26
8759.00,1.26
8758.00,1.26
8757.00,1.26
8756.00,1.26
8755.00,1.26
8754.00,1.26
8753.00,1.26
8752.00,1.26
8751.00,1.26
8750.00,1.26
8749.00,1.26
8748.00,1.26
8747.00,1.26
8746.00,1.26
8745.00,1.26
8744.00,1.26
8743.00,1.26
8742.00,1.26
8741.00,1.26
8740.00,1.26
8739.00,1.26
8738.00,1.26
8737.00,1.26
8736.00,1.26
8735.00,1.26
8734.00,1.26
8733.00,1.26
8732.00,1.26
8731.00,1.27
8730.00,1.27
8729.00,1.27
8728.00,1.27
8727.00,1.27
8726.00,1.27
8725.00,1.27
8724.00,1.27
8723.00,1.27
8722.00,1.27
8721.00,1.27
8720.00,1.27
8719.00,1.26
8718.00,1.26
8717.00,1.26
8716.00,1.26
8715.00,1.26
8714.00,1.26
8713.00,1.26
8712.00,1.25
8711.00,1.25
8710.00,1.25
8709.00,1.25
8708.00,1.25
8707.00,1.25
8706.00,1.25
8705.00,1.25
8704.00,1.25
8703.00,1.25
8702.00,1.25
8701.00,1.25
8700.00,1.25
8699.00,1.25
8698.00,1.25
8697.00,1.25
8696.00,1.25
8695.00,1.25
8694.00,1.26
8693.00,1.26
8692.00,1.26
8691.00,1.26
8690.00,1.26
8689.00,1.26
8688.00,1.26
8687.00,1.26
8686.00,1.26
8685.00,1.26
8684.00,1.26
8683.00,1.26
8682.00,1.26
8681.00,1.26
8680.00,1.26
8679.00,1.26
8678.00,1.26
8677.00,1.26
8676.00,1.26
8675.00,1.27
8674.00,1.27
8673.00,1.27
8672.00,1.27
8671.00,1.27
8670.00,1.27
8669.00,1.27
8668.00,1.27
8667.00,1.27
8666.00,1.26
8665.00,1.26
8664.00,1.26
8663.00,1.26
8662.00,1.26
8661.00,1.26
8660.00,1.26
8659.00,1.26
8658.00,1.25
8657.00,1.25
8656.00,1.25
8655.00,1.25
8654.00,1.25
8653.00,1.25
8652.00,1.25
8651.00,1.25
8650.00,1.25
8649.00,1.25
8648.00,1.25
8647.00,1.25
8646.00,1.25
8645.00,1.25
8644.00,1.25
8643.00,1.25
8642.00,1.25
8641.00,1.25
8640.00,1.25
8639.00,1.25
8638.00,1.25
8637.00,1.25
8636.00,1.25
8635.00,1.24
8634.00,1.24
8633.00,1.24
8632.00,1.24
8631.00,1.24
8630.00,1.24
8629.00,1.24
8628.00,1.24
8627.00,1.24
8626.00,1.24
8625.00,1.24
8624.00,1.23
8623.00,1.23
8622.00,1.23
8621.00,1.23
8620.00,1.23
8619.00,1.23
8618.00,1.23
8617.00,1.23
8616.00,1.22
8615.00,1.22
8614.00,1.22
8613.00,1.22
8612.00,1.22
8611.00,1.22
8610.00,1.21
8609.00,1.21
8608.00,1.21
8607.00,1.21
8606.00,1.21
8605.00,1.21
8604.00,1.21
8603.00,1.21
8602.00,1.21
8601.00,1.21
8600.00,1.21
8599.00,1.21
8598.00,1.21
8597.00,1.21
8596.00,1.21
8595.00,1.21
8594.00,1.21
8593.00,1.22
8592.00,1.22
8591.00,1.22
8590.00,1.22
8589.00,1.22
8588.00,1.22
8587.00,1.22
8586.00,1.22
8585.00,1.22
8584.00,1.22
8583.00,1.22
8582.00,1.22
8581.00,1.22
8580.00,1.22
8579.00,1.22
8578.00,1.22
8577.00,1.22
8576.00,1.22
8575.00,1.22
8574.00,1.22
8573.00,1.22
8572.00,1.22
8571.00,1.22
8570.00,1.22
8569.00,1.22
8568.00,1.22
8567.00,1.22
8566.00,1.22
8565.00,1.22
8564.00,1.23
8563.00,1.23
8562.00,1.23
8561.00,1.23
8560.00,1.23
8559.00,1.23
8558.00,1.22
8557.00,1.22
8556.00,1.22
8555.00,1.22
8554.00,1.22
8553.00,1.22
8552.00,1.22
8551.00,1.21
8550.00,1.21
8549.00,1.21
8548.00,1.21
8547.00,1.21
8546.00,1.20
8545.00,1.20
8544.00,1.20
8543.00,1.20
8542.00,1.20
8541.00,1.20
8540.00,1.20
8539.00,1.20
8538.00,1.20
8537.00,1.20
8536.00,1.20
8535.00,1.20
8534.00,1.20
8533.00,1.20
8532.00,1.20
8531.00,1.20
8530.00,1.20
8529.00,1.20
8528.00,1.21
8527.00,1.21
8526.00,1.21
8525.00,1.21
8524.00,1.21
8523.00,1.21
8522.00,1.21
8521.00,1.21
8520.00,1.21
8519.00,1.21
8518.00,1.21
8517.00,1.21
8516.00,1.21
8515.00,1.21
8514.00,1.21
8513.00,1.21
8512.00,1.21
8511.00,1.21
8510.00,1.21
8509.00,1.21
8508.00,1.21
8507.00,1.21
8506.00,1.20
8505.00,1.20
8504.00,1.20
8503.00,1.20
8502.00,1.20
8501.00,1.20
8500.00,1.20
8499.00,1.20
8498.00,1.19
8497.00,1.19
8496.00,1.19
8495.00,1.19
8494.00,1.19
8493.00,1.19
8492.00,1.18
8491.00,1.18
8490.00,1.18
8489.00,1.18
8488.00,1.18
8487.00,1.17
8486.00,1.17
8485.00,1.17
8484.00,1.17
8483.00,1.16
8482.00,1.16
8481.00,1.16
8480.00,1.16
8479.00,1.15
8478.00,1.15
8477.00,1.15
8476.00,1.15
8475.00,1.15
8474.00,1.14
8473.00,1.14
8472.00,1.14
8471.00,1.14
8470.00,1.14
8469.00,1.14
8468.00,1.14
8467.00,1.14
8466.00,1.14
8465.00,1.14
8464.00,1.14
8463.00,1.14
8462.00,1.13
8461.00,1.13
8460.00,1.13
8459.00,1.13
8458.00,1.13
8457.00,1.13
8456.00,1.13
8455.00,1.13
8454.00,1.13
8453.00,1.13
8452.00,1.13
8451.00,1.13
8450.00,1.13
8449.00,1.13
8448.00,1.13
8447.00,1.13
8446.00,1.13
8445.00,1.13
8444.00,1.13
8443.00,1.13
8442.00,1.13
8441.00,1.13
8440.00,1.13
8439.00,1.13
8438.00,1.13
8437.00,1.13
8436.00,1.13
8435.00,1.13
8434.00,1.13
8433.00,1.13
8432.00,1.13
8431.00,1.14
8430.00,1.14
8429.00,1.14
8428.00,1.14
8427.00,1.14
8426.00,1.14
8425.00,1.14
8424.00,1.13
8423.00,1.13
8422.00,1.13
8421.00,1.13
8420.00,1.13
8419.00,1.13
8418.00,1.13
8417.00,1.13
8416.00,1.13
8415.00,1.14
8414.00,1.14
8413.00,1.14
8412.00,1.14
8411.00,1.14
8410.00,1.14
8409.00,1.14
8408.00,1.15
8407.00,1.15
8406.00,1.15
8405.00,1.15
8404.00,1.15
8403.00,1.16
8402.00,1.16
8401.00,1.16
8400.00,1.16
8399.00,1.16
8398.00,1.16
8397.00,1.17
8396.00,1.17
8395.00,1.17
8394.00,1.17
8393.00,1.17
8392.00,1.17
8391.00,1.17
8390.00,1.17
8389.00,1.18
8388.00,1.18
8387.00,1.18
8386.00,1.18
8385.00,1.18
8384.00,1.18
8383.00,1.18
8382.00,1.18
8381.00,1.18
8380.00,1.18
8379.00,1.18
8378.00,1.18
8377.00,1.18
8376.00,1.18
8375.00,1.18
8374.00,1.18
8373.00,1.18
8372.00,1.18
8371.00,1.18
8370.00,1.18
8369.00,1.18
8368.00,1.18
8367.00,1.18
8366.00,1.18
8365.00,1.18
8364.00,1.18
8363.00,1.18
8362.00,1.18
8361.00,1.18
8360.00,1.18
8359.00,1.18
8358.00,1.18
8357.00,1.18
8356.00,1.18
8355.00,1.18
8354.00,1.18
8353.00,1.18
8352.00,1.18
8351.00,1.18
8350.00,1.18
8349.00,1.18
8348.00,1.18
8347.00,1.18
8346.00,1.18
8345.00,1.18
8344.00,1.18
8343.00,1.18
8342.00,1.18
8341.00,1.18
8340.00,1.18
8339.00,1.18
8338.00,1.18
8337.00,1.18
8336.00,1.18
8335.00,1.19
8334.00,1.19
8333.00,1.19
8332.00,1.19
8331.00,1.19
8330.00,1.19
8329.00,1.19
8328.00,1.19
8327.00,1.19
8326.00,1.20
8325.00,1.20
8324.00,1.20
8323.00,1.20
8322.00,1.20
8321.00,1.20
8320.00,1.20
8319.00,1.19
8318.00,1.19
8317.00,1.19
8316.00,1.19
8315.00,1.19
8314.00,1.19
8313.00,1.19
8312.00,1.19
8311.00,1.19
8310.00,1.19
8309.00,1.19
8308.00,1.19
8307.00,1.19
8306.00,1.19
8305.00,1.19
8304.00,1.19
8303.00,1.19
8302.00,1.19
8301.00,1.19
8300.00,1.19
8299.00,1.19
8298.00,1.19
8297.00,1.19
8296.00,1.19
8295.00,1.19
8294.00,1.19
8293.00,1.19
8292.00,1.19
8291.00,1.19
8290.00,1.19
8289.00,1.19
8288.00,1.19
8287.00,1.19
8286.00,1.19
8285.00,1.19
8284.00,1.19
8283.00,1.19
8282.00,1.19
8281.00,1.19
8280.00,1.19
8279.00,1.19
8278.00,1.19
8277.00,1.19
8276.00,1.19
8275.00,1.19
8274.00,1.19
8273.00,1.19
8272.00,1.19
8271.00,1.19
8270.00,1.19
8269.00,1.19
8268.00,1.19
8267.00,1.20
8266.00,1.20
8265.00,1.20
8264.00,1.20
8263.00,1.20
8262.00,1.20
8261.00,1.20
8260.00,1.20
8259.00,1.21
8258.00,1.21
8257.00,1.21
8256.00,1.21
8255.00,1.21
8254.00,1.21
8253.00,1.21
8252.00,1.21
8251.00,1.21
8250.00,1.21
8249.00,1.21
8248.00,1.21
8247.00,1.21
8246.00,1.21
8245.00,1.22
8244.00,1.22
8243.00,1.22
8242.00,1.22
8241.00,1.22
8240.00,1.22
8239.00,1.22
8238.00,1.22
8237.00,1.22
8236.00,1.22
8235.00,1.22
8234.00,1.22
8233.00,1.22
8232.00,1.22
8231.00,1.22
8230.00,1.22
8229.00,1.22
8228.00,1.22
8227.00,1.22
8226.00,1.22
8225.00,1.22
8224.00,1.22
8223.00,1.22
8222.00,1.22
8221.00,1.22
8220.00,1.21
8219.00,1.21
8218.00,1.21
8217.00,1.21
8216.00,1.21
8215.00,1.21
8214.00,1.21
8213.00,1.21
8212.00,1.21
8211.00,1.21
8210.00,1.21
8209.00,1.22
8208.00,1.22
8207.00,1.22
8206.00,1.22
8205.00,1.22
8204.00,1.22
8203.00,1.22
8202.00,1.22
8201.00,1.22
8200.00,1.22
8199.00,1.23
8198.00,1.23
8197.00,1.23
8196.00,1.23
8195.00,1.23
8194.00,1.23
8193.00,1.23
8192.00,1.24
8191.00,1.24
8190.00,1.24
8189.00,1.24
8188.00,1.24
8187.00,1.24
8186.00,1.25
8185.00,1.25
8184.00,1.25
8183.00,1.25
8182.00,1.25
8181.00,1.25
8180.00,1.25
8179.00,1.25
8178.00,1.25
8177.00,1.25
8176.00,1.25
8175.00,1.25
8174.00,1.25
8173.00,1.25
8172.00,1.25
8171.00,1.25
8170.00,1.25
8169.00,1.25
8168.00,1.25
8167.00,1.25
8166.00,1.25
8165.00,1.24
8164.00,1.24
8163.00,1.24
8162.00,1.24
8161.00,1.24
8160.00,1.24
8159.00,1.24
8158.00,1.24
8157.00,1.24
8156.00,1.24
8155.00,1.24
8154.00,1.24
8153.00,1.24
8152.00,1.24
8151.00,1.24
8150.00,1.24
8149.00,1.24
8148.00,1.24
8147.00,1.24
8146.00,1.24
8145.00,1.24
8144.00,1.24
8143.00,1.24
8142.00,1.24
8141.00,1.24
8140.00,1.24
8139.00,1.25
8138.00,1.25
8137.00,1.25
8136.00,1.25
8135.00,1.25
8134.00,1.25
8133.00,1.25
8132.00,1.25
8131.00,1.25
8130.00,1.26
8129.00,1.26
8128.00,1.26
8127.00,1.26
8126.00,1.26
8125.00,1.26
8124.00,1.26
8123.00,1.26
8122.00,1.26
8121.00,1.26
8120.00,1.26
8119.00,1.26
8118.00,1.26
8117.00,1.26
8116.00,1.26
8115.00,1.26
8114.00,1.26
8113.00,1.26
8112.00,1.26
8111.00,1.26
8110.00,1.26
8109.00,1.26
8108.00,1.26
8107.00,1.26
8106.00,1.26
8105.00,1.26
8104.00,1.26
8103.00,1.26
8102.00,1.26
8101.00,1.26
8100.00,1.26
8099.00,1.26
8098.00,1.27
8097.00,1.27
8096.00,1.27
8095.00,1.27
8094.00,1.27
8093.00,1.27
8092.00,1.27
8091.00,1.27
8090.00,1.27
8089.00,1.27
8088.00,1.27
8087.00,1.28
8086.00,1.28
8085.00,1.28
8084.00,1.28
8083.00,1.28
8082.00,1.28
8081.00,1.28
8080.00,1.28
8079.00,1.28
8078.00,1.28
8077.00,1.28
8076.00,1.28
8075.00,1.28
8074.00,1.28
8073.00,1.28
8072.00,1.28
8071.00,1.28
8070.00,1.28
8069.00,1.27
8068.00,1.27
8067.00,1.27
8066.00,1.27
8065.00,1.27
8064.00,1.27
8063.00,1.27
8062.00,1.27
8061.00,1.27
8060.00,1.27
8059.00,1.27
8058.00,1.27
8057.00,1.27
8056.00,1.27
8055.00,1.27
8054.00,1.27
8053.00,1.27
8052.00,1.27
8051.00,1.27
8050.00,1.27
8049.00,1.27
8048.00,1.27
8047.00,1.27
8046.00,1.27
8045.00,1.27
8044.00,1.28
8043.00,1.28
8042.00,1.28
8041.00,1.28
8040.00,1.28
8039.00,1.28
8038.00,1.28
8037.00,1.28
8036.00,1.28
8035.00,1.28
8034.00,1.28
8033.00,1.29
8032.00,1.29
8031.00,1.29
8030.00,1.29
8029.00,1.29
8028.00,1.29
8027.00,1.29
8026.00,1.29
8025.00,1.29
8024.00,1.29
8023.00,1.29
8022.00,1.29
8021.00,1.29
8020.00,1.29
8019.00,1.29
8018.00,1.29
8017.00,1.29
8016.00,1.29
8015.00,1.29
8014.00,1.29
8013.00,1.29
8012.00,1.29
8011.00,1.29
8010.00,1.29
8009.00,1.29
8008.00,1.29
8007.00,1.29
8006.00,1.29
8005.00,1.29
8004.00,1.29
8003.00,1.29
8002.00,1.29
8001.00,1.29
8000.00,1.29
7999.00,1.29
7998.00,1.29
7997.00,1.29
7996.00,1.29
7995.00,1.29
7994.00,1.29
7993.00,1.29
7992.00,1.29
7991.00,1.29
7990.00,1.29
7989.00,1.29
7988.00,1.29
7987.00,1.29
7986.00,1.30
7985.00,1.30
7984.00,1.30
7983.00,1.30
7982.00,1.30
7981.00,1.30
7980.00,1.30
7979.00,1.30
7978.00,1.30
7977.00,1.30
7976.00,1.30
7975.00,1.29
7974.00,1.29
7973.00,1.29
7972.00,1.29
7971.00,1.29
7970.00,1.29
7969.00,1.29
7968.00,1.29
7967.00,1.29
7966.00,1.29
7965.00,1.29
7964.00,1.29
7963.00,1.29
7962.00,1.29
7961.00,1.29
7960.00,1.29
7959.00,1.29
7958.00,1.29
7957.00,1.29
7956.00,1.29
7955.00,1.29
7954.00,1.29
7953.00,1.30
7952.00,1.30
7951.00,1.30
7950.00,1.30
7949.00,1.30
7948.00,1.30
7947.00,1.30
7946.00,1.30
7945.00,1.30
7944.00,1.30
7943.00,1.30
7942.00,1.30
7941.00,1.30
7940.00,1.30
7939.00,1.30
7938.00,1.30
7937.00,1.30
7936.00,1.30
7935.00,1.30
7934.00,1.30
7933.00,1.30
7932.00,1.30
7931.00,1.30
7930.00,1.30
7929.00,1.30
7928.00,1.30
7927.00,1.30
7926.00,1.30
7925.00,1.30
7924.00,1.30
7923.00,1.30
7922.00,1.30
7921.00,1.30
7920.00,1.30
7919.00,1.30
7918.00,1.30
7917.00,1.30
7916.00,1.30
7915.00,1.30
7914.00,1.30
7913.00,1.30
7912.00,1.30
7911.00,1.30
7910.00,1.30
7909.00,1.30
7908.00,1.31
7907.00,1.31
7906.00,1.31
7905.00,1.31
7904.00,1.31
7903.00,1.31
7902.00,1.31
7901.00,1.31
7900.00,1.32
7899.00,1.32
7898.00,1.32
7897.00,1.32
7896.00,1.32
7895.00,1.32
7894.00,1.32
7893.00,1.32
7892.00,1.32
7891.00,1.32
7890.00,1.32
7889.00,1.32
7888.00,1.32
7887.00,1.32
7886.00,1.32
7885.00,1.32
7884.00,1.32
7883.00,1.32
7882.00,1.32
7881.00,1.32
7880.00,1.32
7879.00,1.32
7878.00,1.32
7877.00,1.32
7876.00,1.32
7875.00,1.32
7874.00,1.32
7873.00,1.32
7872.00,1.32
7871.00,1.32
7870.00,1.32
7869.00,1.32
7868.00,1.32
7867.00,1.32
7866.00,1.32
7865.00,1.32
7864.00,1.32
7863.00,1.32
7862.00,1.32
7861.00,1.32
7860.00,1.32
7859.00,1.32
7858.00,1.32
7857.00,1.31
7856.00,1.31
7855.00,1.31
7854.00,1.31
7853.00,1.31
7852.00,1.31
7851.00,1.31
7850.00,1.31
7849.00,1.31
7848.00,1.31
7847.00,1.31
7846.00,1.31
7845.00,1.31
7844.00,1.31
7843.00,1.31
7842.00,1.31
7841.00,1.32
7840.00,1.32
7839.00,1.32
7838.00,1.32
7837.00,1.32
7836.00,1.32
7835.00,1.32
7834.00,1.32
7833.00,1.32
7832.00,1.32
7831.00,1.32
7830.00,1.33
7829.00,1.33
7828.00,1.33
7827.00,1.33
7826.00,1.33
7825.00,1.32
7824.00,1.32
7823.00,1.32
7822.00,1.32
7821.00,1.32
7820.00,1.32
7819.00,1.32
7818.00,1.32
7817.00,1.32
7816.00,1.32
7815.00,1.32
7814.00,1.32
7813.00,1.32
7812.00,1.32
7811.00,1.32
7810.00,1.32
7809.00,1.32
7808.00,1.32
7807.00,1.32
7806.00,1.32
7805.00,1.32
7804.00,1.33
7803.00,1.33
7802.00,1.33
7801.00,1.33
7800.00,1.33
7799.00,1.33
7798.00,1.33
7797.00,1.33
7796.00,1.33
7795.00,1.33
7794.00,1.33
7793.00,1.33
7792.00,1.33
7791.00,1.33
7790.00,1.33
7789.00,1.33
7788.00,1.33
7787.00,1.33
7786.00,1.33
7785.00,1.33
7784.00,1.33
7783.00,1.33
7782.00,1.33
7781.00,1.33
7780.00,1.33
7779.00,1.33
7778.00,1.33
7777.00,1.33
7776.00,1.33
7775.00,1.33
7774.00,1.33
7773.00,1.33
7772.00,1.33
7771.00,1.34
7770.00,1.34
7769.00,1.34
7768.00,1.34
7767.00,1.34
7766.00,1.34
7765.00,1.34
7764.00,1.34
7763.00,1.34
7762.00,1.34
7761.00,1.34
7760.00,1.34
7759.00,1.34
7758.00,1.34
7757.00,1.34
7756.00,1.34
7755.00,1.34
7754.00,1.34
7753.00,1.34
7752.00,1.34
7751.00,1.34
7750.00,1.34
7749.00,1.34
7748.00,1.34
7747.00,1.34
7746.00,1.34
7745.00,1.34
7744.00,1.34
7743.00,1.33
7742.00,1.33
7741.00,1.33
7740.00,1.34
7739.00,1.34
7738.00,1.34
7737.00,1.34
7736.00,1.34
7735.00,1.34
7734.00,1.34
7733.00,1.34
7732.00,1.34
7731.00,1.34
7730.00,1.34
7729.00,1.34
7728.00,1.34
7727.00,1.34
7726.00,1.34
7725.00,1.34
7724.00,1.34
7723.00,1.34
7722.00,1.34
7721.00,1.34
7720.00,1.34
7719.00,1.34
7718.00,1.34
7717.00,1.34
7716.00,1.34
7715.00,1.34
7714.00,1.34
7713.00,1.34
7712.00,1.34
7711.00,1.33
7710.00,1.33
7709.00,1.33
7708.00,1.33
7707.00,1.33
7706.00,1.33
7705.00,1.33
7704.00,1.33
7703.00,1.34
7702.00,1.34
7701.00,1.34
7700.00,1.34
7699.00,1.34
7698.00,1.34
7697.00,1.34
7696.00,1.34
7695.00,1.34
7694.00,1.34
7693.00,1.34
7692.00,1.34
7691.00,1.34
7690.00,1.34
7689.00,1.34
7688.00,1.34
7687.00,1.34
7686.00,1.34
7685.00,1.34
7684.00,1.34
7683.00,1.34
7682.00,1.34
7681.00,1.34
7680.00,1.34
7679.00,1.34
7678.00,1.34
7677.00,1.34
7676.00,1.33
7675.00,1.33
7674.00,1.33
7673.00,1.33
7672.00,1.33
7671.00,1.33
7670.00,1.33
7669.00,1.33
7668.00,1.33
7667.00,1.33
7666.00,1.33
7665.00,1.33
7664.00,1.33
7663.00,1.33
7662.00,1.33
7661.00,1.33
7660.00,1.33
7659.00,1.33
7658.00,1.33
7657.00,1.34
7656.00,1.34
7655.00,1.34
7654.00,1.34
7653.00,1.34
7652.00,1.34
7651.00,1.34
7650.00,1.34
7649.00,1.34
7648.00,1.34
7647.00,1.34
7646.00,1.34
7645.00,1.34
7644.00,1.34
7643.00,1.34
7642.00,1.34
7641.00,1.34
7640.00,1.34
7639.00,1.34
7638.00,1.34
7637.00,1.34
7636.00,1.34
7635.00,1.34
7634.00,1.34
7633.00,1.34
7632.00,1.34
7631.00,1.34
7630.00,1.34
7629.00,1.33
7628.00,1.33
7627.00,1.33
7626.00,1.33
7625.00,1.33
7624.00,1.33
7623.00,1.33
7622.00,1.33
7621.00,1.33
7620.00,1.33
7619.00,1.33
7618.00,1.33
7617.00,1.33
7616.00,1.33
7615.00,1.33
7614.00,1.33
7613.00,1.33
7612.00,1.33
7611.00,1.33
7610.00,1.33
7609.00,1.34
7608.00,1.33
7607.00,1.33
7606.00,1.33
7605.00,1.33
7604.00,1.33
7603.00,1.33
7602.00,1.33
7601.00,1.33
7600.00,1.33
7599.00,1.33
7598.00,1.33
7597.00,1.33
7596.00,1.33
7595.00,1.33
7594.00,1.33
7593.00,1.33
7592.00,1.33
7591.00,1.33
7590.00,1.33
7589.00,1.33
7588.00,1.33
7587.00,1.33
7586.00,1.33
7585.00,1.33
7584.00,1.33
7583.00,1.33
7582.00,1.33
7581.00,1.33
7580.00,1.33
7579.00,1.33
7578.00,1.33
7577.00,1.33
7576.00,1.33
7575.00,1.33
7574.00,1.33
7573.00,1.33
7572.00,1.33
7571.00,1.33
7570.00,1.33
7569.00,1.33
7568.00,1.33
7567.00,1.33
7566.00,1.33
7565.00,1.33
7564.00,1.33
7563.00,1.33
7562.00,1.33
7561.00,1.33
7560.00,1.33
7559.00,1.33
7558.00,1.33
7557.00,1.33
7556.00,1.33
7555.00,1.33
7554.00,1.33
7553.00,1.33
7552.00,1.33
7551.00,1.33
7550.00,1.33
7549.00,1.32
7548.00,1.32
7547.00,1.32
7546.00,1.32
7545.00,1.32
7544.00,1.32
7543.00,1.32
7542.00,1.32
7541.00,1.32
7540.00,1.32
7539.00,1.32
7538.00,1.32
7537.00,1.32
7536.00,1.32
7535.00,1.32
7534.00,1.32
7533.00,1.32
7532.00,1.32
7531.00,1.32
7530.00,1.32
7529.00,1.31
7528.00,1.31
7527.00,1.31
7526.00,1.31
7525.00,1.31
7524.00,1.31
7523.00,1.31
7522.00,1.31
7521.00,1.31
7520.00,1.31
7519.00,1.30
7518.00,1.30
7517.00,1.30
7516.00,1.30
7515.00,1.30
7514.00,1.30
7513.00,1.30
7512.00,1.30
7511.00,1.30
7510.00,1.30
7509.00,1.31
7508.00,1.31
7507.00,1.31
7506.00,1.31
7505.00,1.31
7504.00,1.31
7503.00,1.31
7502.00,1.31
7501.00,1.31
7500.00,1.31
7499.00,1.31
7498.00,1.31
7497.00,1.31
7496.00,1.31
7495.00,1.30
7494.00,1.30
7493.00,1.30
7492.00,1.30
7491.00,1.30
7490.00,1.30
7489.00,1.30
7488.00,1.30
7487.00,1.30
7486.00,1.30
7485.00,1.30
7484.00,1.30
7483.00,1.30
7482.00,1.30
7481.00,1.30
7480.00,1.30
7479.00,1.30
7478.00,1.30
7477.00,1.30
7476.00,1.30
7475.00,1.30
7474.00,1.29
7473.00,1.29
7472.00,1.29
7471.00,1.29
7470.00,1.29
7469.00,1.29
7468.00,1.29
7467.00,1.29
7466.00,1.29
7465.00,1.29
7464.00,1.29
7463.00,1.29
7462.00,1.29
7461.00,1.29
7460.00,1.29
7459.00,1.28
7458.00,1.28
7457.00,1.28
7456.00,1.28
7455.00,1.28
7454.00,1.28
7453.00,1.28
7452.00,1.28
7451.00,1.28
7450.00,1.28
7449.00,1.28
7448.00,1.28
7447.00,1.28
7446.00,1.28
7445.00,1.28
7444.00,1.28
7443.00,1.28
7442.00,1.28
7441.00,1.28
7440.00,1.27
7439.00,1.27
7438.00,1.27
7437.00,1.27
7436.00,1.27
7435.00,1.27
7434.00,1.27
7433.00,1.27
7432.00,1.27
7431.00,1.27
7430.00,1.27
7429.00,1.27
7428.00,1.27
7427.00,1.27
7426.00,1.27
7425.00,1.27
7424.00,1.27
7423.00,1.26
7422.00,1.26
7421.00,1.26
7420.00,1.26
7419.00,1.26
7418.00,1.26
7417.00,1.26
7416.00,1.26
7415.00,1.26
7414.00,1.26
7413.00,1.26
7412.00,1.25
7411.00,1.25
7410.00,1.25
7409.00,1.25
7408.00,1.25
7407.00,1.25
7406.00,1.25
7405.00,1.24
7404.00,1.24
7403.00,1.24
7402.00,1.24
7401.00,1.24
7400.00,1.24
7399.00,1.24
7398.00,1.24
7397.00,1.23
7396.00,1.23
7395.00,1.23
7394.00,1.23
7393.00,1.23
7392.00,1.23
7391.00,1.23
7390.00,1.23
7389.00,1.22
7388.00,1.22
7387.00,1.22
7386.00,1.22
7385.00,1.22
7384.00,1.22
7383.00,1.22
7382.00,1.22
7381.00,1.22
7380.00,1.22
7379.00,1.22
7378.00,1.22
7377.00,1.22
7376.00,1.21
7375.00,1.21
7374.00,1.21
7373.00,1.21
7372.00,1.21
7371.00,1.21
7370.00,1.21
7369.00,1.21
7368.00,1.21
7367.00,1.21
7366.00,1.21
7365.00,1.21
7364.00,1.21
7363.00,1.20
7362.00,1.20
7361.00,1.20
7360.00,1.20
7359.00,1.20
7358.00,1.20
7357.00,1.20
7356.00,1.20
7355.00,1.20
7354.00,1.20
7353.00,1.20
7352.00,1.20
7351.00,1.20
7350.00,1.20
7349.00,1.20
7348.00,1.20
7347.00,1.20
7346.00,1.19
7345.00,1.19
7344.00,1.19
7343.00,1.19
7342.00,1.19
7341.00,1.19
7340.00,1.19
7339.00,1.19
7338.00,1.19
7337.00,1.19
7336.00,1.19
7335.00,1.19
7334.00,1.19
7333.00,1.19
7332.00,1.19
7331.00,1.19
7330.00,1.19
7329.00,1.19
7328.00,1.19
7327.00,1.19
7326.00,1.19
7325.00,1.19
7324.00,1.19
7323.00,1.19
7322.00,1.19
7321.00,1.19
7320.00,1.19
7319.00,1.19
7318.00,1.18
7317.00,1.18
7316.00,1.18
7315.00,1.18
7314.00,1.18
7313.00,1.18
7312.00,1.18
7311.00,1.18
7310.00,1.18
7309.00,1.18
7308.00,1.18
7307.00,1.18
7306.00,1.18
7305.00,1.18
7304.00,1.17
7303.00,1.17
7302.00,1.17
7301.00,1.17
7300.00,1.17
7299.00,1.17
7298.00,1.16
7297.00,1.16
7296.00,1.16
7295.00,1.16
7294.00,1.16
7293.00,1.16
7292.00,1.15
7291.00,1.15
7290.00,1.15
7289.00,1.15
7288.00,1.15
7287.00,1.15
7286.00,1.15
7285.00,1.15
7284.00,1.14
7283.00,1.14
7282.00,1.14
7281.00,1.14
7280.00,1.14
7279.00,1.14
7278.00,1.14
7277.00,1.14
7276.00,1.14
7275.00,1.14
7274.00,1.14
7273.00,1.14
7272.00,1.14
7271.00,1.14
7270.00,1.14
7269.00,1.14
7268.00,1.14
7267.00,1.14
7266.00,1.14
7265.00,1.14
7264.00,1.14
7263.00,1.13
7262.00,1.13
7261.00,1.13
7260.00,1.13
7259.00,1.13
7258.00,1.13
7257.00,1.12
7256.00,1.12
7255.00,1.12
7254.00,1.12
7253.00,1.11
7252.00,1.11
7251.00,1.11
7250.00,1.11
7249.00,1.10
7248.00,1.10
7247.00,1.10
7246.00,1.09
7245.00,1.09
7244.00,1.09
7243.00,1.08
7242.00,1.08
7241.00,1.08
7240.00,1.07
7239.00,1.07
7238.00,1.07
7237.00,1.07
7236.00,1.06
7235.00,1.06
7234.00,1.06
7233.00,1.05
7232.00,1.05
7231.00,1.05
7230.00,1.05
7229.00,1.04
7228.00,1.04
7227.00,1.04
7226.00,1.03
7225.00,1.03
7224.00,1.03
7223.00,1.02
7222.00,1.02
7221.00,1.02
7220.00,1.01
7219.00,1.01
7218.00,1.01
7217.00,1.00
7216.00,1.00
7215.00,0.99
7214.00,0.99
7213.00,0.99
7212.00,0.98
7211.00,0.98
7210.00,0.98
7209.00,0.98
7208.00,0.97
7207.00,0.97
7206.00,0.97
7205.00,0.96
7204.00,0.96
7203.00,0.96
7202.00,0.96
7201.00,0.95
7200.00,0.95
7199.00,0.95
7198.00,0.95
7197.00,0.95
7196.00,0.94
7195.00,0.94
7194.00,0.94
7193.00,0.94
7192.00,0.93
7191.00,0.93
7190.00,0.93
7189.00,0.93
7188.00,0.92
7187.00,0.92
7186.00,0.92
7185.00,0.92
7184.00,0.91
7183.00,0.91
7182.00,0.91
7181.00,0.91
7180.00,0.90
7179.00,0.90
7178.00,0.90
7177.00,0.90
7176.00,0.89
7175.00,0.89
7174.00,0.89
7173.00,0.88
7172.00,0.88
7171.00,0.88
7170.00,0.87
7169.00,0.87
7168.00,0.87
7167.00,0.86
7166.00,0.86
7165.00,0.86
7164.00,0.85
7163.00,0.85
7162.00,0.85
7161.00,0.84
7160.00,0.84
7159.00,0.84
7158.00,0.84
7157.00,0.84
7156.00,0.83
7155.00,0.83
7154.00,0.83
7153.00,0.83
7152.00,0.82
7151.00,0.82
7150.00,0.82
7149.00,0.82
7148.00,0.82
7147.00,0.81
7146.00,0.81
7145.00,0.81
7144.00,0.81
7143.00,0.81
7142.00,0.81
7141.00,0.81
7140.00,0.80
7139.00,0.80
7138.00,0.80
7137.00,0.80
7136.00,0.80
7135.00,0.80
7134.00,0.80
7133.00,0.80
7132.00,0.79
7131.00,0.79
7130.00,0.79
7129.00,0.79
7128.00,0.79
7127.00,0.79
7126.00,0.78
7125.00,0.78
7124.00,0.78
7123.00,0.78
7122.00,0.78
7121.00,0.77
7120.00,0.77
7119.00,0.77
7118.00,0.76
7117.00,0.76
7116.00,0.76
7115.00,0.76
7114.00,0.75
7113.00,0.75
7112.00,0.75
7111.00,0.75
7110.00,0.74
7109.00,0.74
7108.00,0.74
7107.00,0.74
7106.00,0.74
7105.00,0.73
7104.00,0.73
7103.00,0.73
7102.00,0.73
7101.00,0.73
7100.00,0.73
7099.00,0.73
7098.00,0.73
7097.00,0.73
7096.00,0.73
7095.00,0.72
7094.00,0.72
7093.00,0.72
7092.00,0.72
7091.00,0.72
7090.00,0.72
7089.00,0.72
7088.00,0.72
7087.00,0.71
7086.00,0.71
7085.00,0.71
7084.00,0.71
7083.00,0.71
7082.00,0.71
7081.00,0.71
7080.00,0.71
7079.00,0.70
7078.00,0.70
7077.00,0.70
7076.00,0.70
7075.00,0.70
7074.00,0.70
7073.00,0.70
7072.00,0.70
7071.00,0.70
7070.00,0.70
7069.00,0.70
7068.00,0.70
7067.00,0.69
7066.00,0.69
7065.00,0.69
7064.00,0.69
7063.00,0.69
7062.00,0.69
7061.00,0.69
7060.00,0.69
7059.00,0.69
7058.00,0.68
7057.00,0.68
7056.00,0.68
7055.00,0.68
7054.00,0.68
7053.00,0.68
7052.00,0.68
7051.00,0.68
7050.00,0.68
7049.00,0.68
7048.00,0.68
7047.00,0.67
7046.00,0.67
7045.00,0.67
7044.00,0.67
7043.00,0.67
7042.00,0.67
7041.00,0.67
7040.00,0.67
7039.00,0.67
7038.00,0.67
7037.00,0.67
7036.00,0.67
7035.00,0.67
7034.00,0.67
7033.00,0.67
7032.00,0.67
7031.00,0.67
7030.00,0.67
7029.00,0.66
7028.00,0.66
7027.00,0.66
7026.00,0.66
7025.00,0.66
7024.00,0.66
7023.00,0.66
7022.00,0.66
7021.00,0.66
7020.00,0.66
7019.00,0.66
7018.00,0.66
7017.00,0.66
7016.00,0.66
7015.00,0.66
7014.00,0.66
7013.00,0.66
7012.00,0.66
7011.00,0.66
7010.00,0.66
7009.00,0.66
7008.00,0.66
7007.00,0.66
7006.00,0.66
7005.00,0.66
7004.00,0.66
7003.00,0.66
7002.00,0.66
7001.00,0.66
7000.00,0.65
6999.00,0.65
6998.00,0.65
6997.00,0.65
6996.00,0.65
6995.00,0.65
6994.00,0.65
6993.00,0.65
6992.00,0.65
6991.00,0.65
6990.00,0.65
6989.00,0.65
6988.00,0.65
6987.00,0.65
6986.00,0.65
6985.00,0.65
6984.00,0.65
6983.00,0.65
6982.00,0.65
6981.00,0.65
6980.00,0.65
6979.00,0.65
6978.00,0.65
6977.00,0.65
6976.00,0.65
6975.00,0.65
6974.00,0.65
6973.00,0.65
6972.00,0.65
6971.00,0.65
6970.00,0.65
6969.00,0.65
6968.00,0.65
6967.00,0.65
6966.00,0.65
6965.00,0.65
6964.00,0.65
6963.00,0.65
6962.00,0.65
6961.00,0.65
6960.00,0.65
6959.00,0.65
6958.00,0.65
6957.00,0.65
6956.00,0.65
6955.00,0.65
6954.00,0.65
6953.00,0.65
6952.00,0.65
6951.00,0.65
6950.00,0.65
6949.00,0.65
6948.00,0.65
6947.00,0.65
6946.00,0.65
6945.00,0.65
6944.00,0.65
6943.00,0.65
6942.00,0.65
6941.00,0.65
6940.00,0.64
6939.00,0.64
6938.00,0.64
6937.00,0.64
6936.00,0.64
6935.00,0.64
6934.00,0.64
6933.00,0.64
6932.00,0.64
6931.00,0.64
6930.00,0.64
6929.00,0.64
6928.00,0.64
6927.00,0.64
6926.00,0.64
6925.00,0.64
6924.00,0.64
6923.00,0.64
6922.00,0.64
6921.00,0.64
6920.00,0.64
6919.00,0.64
6918.00,0.64
6917.00,0.64
6916.00,0.64
6915.00,0.64
6914.00,0.64
6913.00,0.64
6912.00,0.64
6911.00,0.64
6910.00,0.64
6909.00,0.64
6908.00,0.64
6907.00,0.65
6906.00,0.65
6905.00,0.65
6904.00,0.65
6903.00,0.65
6902.00,0.65
6901.00,0.65
6900.00,0.65
6899.00,0.65
6898.00,0.65
6897.00,0.65
6896.00,0.65
6895.00,0.65
6894.00,0.65
6893.00,0.65
6892.00,0.65
6891.00,0.65
6890.00,0.65
6889.00,0.65
6888.00,0.65
6887.00,0.65
6886.00,0.65
6885.00,0.65
6884.00,0.65
6883.00,0.65
6882.00,0.65
6881.00,0.65
6880.00,0.64
6879.00,0.64
6878.00,0.64
6877.00,0.64
6876.00,0.64
6875.00,0.64
6874.00,0.64
6873.00,0.64
6872.00,0.64
6871.00,0.64
6870.00,0.64
6869.00,0.64
6868.00,0.64
6867.00,0.64
6866.00,0.64
6865.00,0.64
6864.00,0.64
6863.00,0.64
6862.00,0.64
6861.00,0.64
6860.00,0.64
6859.00,0.64
6858.00,0.64
6857.00,0.64
6856.00,0.64
6855.00,0.64
6854.00,0.64
6853.00,0.64
6852.00,0.64
6851.00,0.64
6850.00,0.64
6849.00,0.64
6848.00,0.64
6847.00,0.64
6846.00,0.64
6845.00,0.64
6844.00,0.64
6843.00,0.64
6842.00,0.64
6841.00,0.64
6840.00,0.64
6839.00,0.64
6838.00,0.64
6837.00,0.64
6836.00,0.64
6835.00,0.64
6834.00,0.64
6833.00,0.64
6832.00,0.64
6831.00,0.64
6830.00,0.64
6829.00,0.65
6828.00,0.65
6827.00,0.65
6826.00,0.65
6825.00,0.65
6824.00,0.65
6823.00,0.65
6822.00,0.65
6821.00,0.65
6820.00,0.65
6819.00,0.65
6818.00,0.65
6817.00,0.65
6816.00,0.65
6815.00,0.66
6814.00,0.66
6813.00,0.66
6812.00,0.66
6811.00,0.66
6810.00,0.66
6809.00,0.66
6808.00,0.66
6807.00,0.66
6806.00,0.66
6805.00,0.66
6804.00,0.66
6803.00,0.66
6802.00,0.66
6801.00,0.66
6800.00,0.66
6799.00,0.66
6798.00,0.66
6797.00,0.66
6796.00,0.66
6795.00,0.67
6794.00,0.67
6793.00,0.67
6792.00,0.67
6791.00,0.67
6790.00,0.67
6789.00,0.67
6788.00,0.67
6787.00,0.67
6786.00,0.67
6785.00,0.67
6784.00,0.67
6783.00,0.67
6782.00,0.67
6781.00,0.67
6780.00,0.67
6779.00,0.67
6778.00,0.67
6777.00,0.67
6776.00,0.67
6775.00,0.67
6774.00,0.67
6773.00,0.67
6772.00,0.67
6771.00,0.66
6770.00,0.66
6769.00,0.66
6768.00,0.66
6767.00,0.66
6766.00,0.66
6765.00,0.66
6764.00,0.66
6763.00,0.66
6762.00,0.66
6761.00,0.66
6760.00,0.66
6759.00,0.66
6758.00,0.66
6757.00,0.66
6756.00,0.66
6755.00,0.66
6754.00,0.66
6753.00,0.66
6752.00,0.67
6751.00,0.67
6750.00,0.67
6749.00,0.67
6748.00,0.67
6747.00,0.67
6746.00,0.67
6745.00,0.67
6744.00,0.67
6743.00,0.67
6742.00,0.67
6741.00,0.67
6740.00,0.67
6739.00,0.67
6738.00,0.68
6737.00,0.68
6736.00,0.68
6735.00,0.68
6734.00,0.68
6733.00,0.68
6732.00,0.68
6731.00,0.68
6730.00,0.68
6729.00,0.68
6728.00,0.68
6727.00,0.68
6726.00,0.68
6725.00,0.68
6724.00,0.68
6723.00,0.68
6722.00,0.68
6721.00,0.69
6720.00,0.69
6719.00,0.69
6718.00,0.69
6717.00,0.69
6716.00,0.69
6715.00,0.69
6714.00,0.69
6713.00,0.69
6712.00,0.69
6711.00,0.69
6710.00,0.69
6709.00,0.69
6708.00,0.70
6707.00,0.70
6706.00,0.70
6705.00,0.70
6704.00,0.70
6703.00,0.70
6702.00,0.70
6701.00,0.70
6700.00,0.70
6699.00,0.70
6698.00,0.70
6697.00,0.70
6696.00,0.70
6695.00,0.70
6694.00,0.70
6693.00,0.70
6692.00,0.70
6691.00,0.70
6690.00,0.70
6689.00,0.70
6688.00,0.70
6687.00,0.70
6686.00,0.70
6685.00,0.70
6684.00,0.70
6683.00,0.70
6682.00,0.70
6681.00,0.70
6680.00,0.70
6679.00,0.70
6678.00,0.71
6677.00,0.71
6676.00,0.71
6675.00,0.71
6674.00,0.71
6673.00,0.71
6672.00,0.71
6671.00,0.71
6670.00,0.71
6669.00,0.71
6668.00,0.71
6667.00,0.72
6666.00,0.72
6665.00,0.72
6664.00,0.72
6663.00,0.72
6662.00,0.72
6661.00,0.72
6660.00,0.72
6659.00,0.72
6658.00,0.72
6657.00,0.72
6656.00,0.72
6655.00,0.72
6654.00,0.72
6653.00,0.72
6652.00,0.73
6651.00,0.73
6650.00,0.73
6649.00,0.73
6648.00,0.73
6647.00,0.73
6646.00,0.73
6645.00,0.73
6644.00,0.73
6643.00,0.73
6642.00,0.73
6641.00,0.73
6640.00,0.73
6639.00,0.73
6638.00,0.73
6637.00,0.73
6636.00,0.73
6635.00,0.73
6634.00,0.73
6633.00,0.73
6632.00,0.73
6631.00,0.73
6630.00,0.74
6629.00,0.74
6628.00,0.74
6627.00,0.74
6626.00,0.74
6625.00,0.74
6624.00,0.74
6623.00,0.75
6622.00,0.75
6621.00,0.75
6620.00,0.75
6619.00,0.75
6618.00,0.75
6617.00,0.75
6616.00,0.75
6615.00,0.76
6614.00,0.76
6613.00,0.76
6612.00,0.76
6611.00,0.76
6610.00,0.76
6609.00,0.76
6608.00,0.76
6607.00,0.76
6606.00,0.76
6605.00,0.76
6604.00,0.76
6603.00,0.76
6602.00,0.77
6601.00,0.77
6600.00,0.77
6599.00,0.77
6598.00,0.77
6597.00,0.77
6596.00,0.77
6595.00,0.77
6594.00,0.77
6593.00,0.77
6592.00,0.77
6591.00,0.77
6590.00,0.77
6589.00,0.78
6588.00,0.78
6587.00,0.78
6586.00,0.78
6585.00,0.78
6584.00,0.78
6583.00,0.78
6582.00,0.78
6581.00,0.78
6580.00,0.78
6579.00,0.79
6578.00,0.79
6577.00,0.79
6576.00,0.79
6575.00,0.79
6574.00,0.79
6573.00,0.79
6572.00,0.79
6571.00,0.79
6570.00,0.79
6569.00,0.79
6568.00,0.79
6567.00,0.79
6566.00,0.79
6565.00,0.79
6564.00,0.79
6563.00,0.79
6562.00,0.79
6561.00,0.79
6560.00,0.79
6559.00,0.79
6558.00,0.79
6557.00,0.79
6556.00,0.79
6555.00,0.79
6554.00,0.80
6553.00,0.80
6552.00,0.80
6551.00,0.80
6550.00,0.80
6549.00,0.80
6548.00,0.80
6547.00,0.80
6546.00,0.80
6545.00,0.80
6544.00,0.80
6543.00,0.80
6542.00,0.80
6541.00,0.81
6540.00,0.81
6539.00,0.81
6538.00,0.81
6537.00,0.81
6536.00,0.81
6535.00,0.81
6534.00,0.81
6533.00,0.81
6532.00,0.81
6531.00,0.81
6530.00,0.81
6529.00,0.81
6528.00,0.81
6527.00,0.81
6526.00,0.81
6525.00,0.81
6524.00,0.81
6523.00,0.81
6522.00,0.81
6521.00,0.81
6520.00,0.81
6519.00,0.81
6518.00,0.82
6517.00,0.82
6516.00,0.82
6515.00,0.82
6514.00,0.82
6513.00,0.82
6512.00,0.82
6511.00,0.82
6510.00,0.82
6509.00,0.82
6508.00,0.83
6507.00,0.83
6506.00,0.83
6505.00,0.83
6504.00,0.83
6503.00,0.83
6502.00,0.83
6501.00,0.83
6500.00,0.83
6499.00,0.83
6498.00,0.83
6497.00,0.83
6496.00,0.83
6495.00,0.83
6494.00,0.83
6493.00,0.83
6492.00,0.83
6491.00,0.83
6490.00,0.83
6489.00,0.83
6488.00,0.83
6487.00,0.83
6486.00,0.83
6485.00,0.83
6484.00,0.83
6483.00,0.83
6482.00,0.83
6481.00,0.83
6480.00,0.83
6479.00,0.83
6478.00,0.84
6477.00,0.84
6476.00,0.84
6475.00,0.84
6474.00,0.84
6473.00,0.84
6472.00,0.84
6471.00,0.84
6470.00,0.84
6469.00,0.84
6468.00,0.84
6467.00,0.84
6466.00,0.84
6465.00,0.84
6464.00,0.84
6463.00,0.84
6462.00,0.84
6461.00,0.84
6460.00,0.84
6459.00,0.84
6458.00,0.85
6457.00,0.85
6456.00,0.85
6455.00,0.85
6454.00,0.85
6453.00,0.85
6452.00,0.85
6451.00,0.85
6450.00,0.85
6449.00,0.85
6448.00,0.85
6447.00,0.85
6446.00,0.85
6445.00,0.85
6444.00,0.85
6443.00,0.85
6442.00,0.85
6441.00,0.85
6440.00,0.86
6439.00,0.86
6438.00,0.86
6437.00,0.86
6436.00,0.86
6435.00,0.86
6434.00,0.86
6433.00,0.86
6432.00,0.86
6431.00,0.86
6430.00,0.86
6429.00,0.86
6428.00,0.86
6427.00,0.86
6426.00,0.86
6425.00,0.86
6424.00,0.86
6423.00,0.86
6422.00,0.87
6421.00,0.87
6420.00,0.87
6419.00,0.87
6418.00,0.87
6417.00,0.87
6416.00,0.87
6415.00,0.87
6414.00,0.87
6413.00,0.87
6412.00,0.87
6411.00,0.87
6410.00,0.87
6409.00,0.87
6408.00,0.87
6407.00,0.87
6406.00,0.87
6405.00,0.88
6404.00,0.88
6403.00,0.88
6402.00,0.88
6401.00,0.88
6400.00,0.88
6399.00,0.88
6398.00,0.88
6397.00,0.88
6396.00,0.88
6395.00,0.88
6394.00,0.88
6393.00,0.88
6392.00,0.88
6391.00,0.88
6390.00,0.88
6389.00,0.88
6388.00,0.88
6387.00,0.88
6386.00,0.88
6385.00,0.88
6384.00,0.88
6383.00,0.88
6382.00,0.88
6381.00,0.88
6380.00,0.88
6379.00,0.88
6378.00,0.88
6377.00,0.88
6376.00,0.88
6375.00,0.89
6374.00,0.89
6373.00,0.89
6372.00,0.89
6371.00,0.89
6370.00,0.89
6369.00,0.89
6368.00,0.89
6367.00,0.89
6366.00,0.89
6365.00,0.90
6364.00,0.90
6363.00,0.90
6362.00,0.90
6361.00,0.90
6360.00,0.90
6359.00,0.90
6358.00,0.90
6357.00,0.91
6356.00,0.91
6355.00,0.91
6354.00,0.91
6353.00,0.91
6352.00,0.91
6351.00,0.91
6350.00,0.91
6349.00,0.91
6348.00,0.91
6347.00,0.91
6346.00,0.91
6345.00,0.92
6344.00,0.92
6343.00,0.92
6342.00,0.92
6341.00,0.92
6340.00,0.92
6339.00,0.92
6338.00,0.92
6337.00,0.92
6336.00,0.92
6335.00,0.92
6334.00,0.92
6333.00,0.92
6332.00,0.92
6331.00,0.92
6330.00,0.92
6329.00,0.92
6328.00,0.92
6327.00,0.92
6326.00,0.92
6325.00,0.92
6324.00,0.92
6323.00,0.92
6322.00,0.92
6321.00,0.92
6320.00,0.92
6319.00,0.92
6318.00,0.93
6317.00,0.93
6316.00,0.93
6315.00,0.93
6314.00,0.93
6313.00,0.93
6312.00,0.93
6311.00,0.93
6310.00,0.93
6309.00,0.93
6308.00,0.94
6307.00,0.94
6306.00,0.94
6305.00,0.94
6304.00,0.94
6303.00,0.94
6302.00,0.94
6301.00,0.94
6300.00,0.94
6299.00,0.94
6298.00,0.94
6297.00,0.94
6296.00,0.95
6295.00,0.95
6294.00,0.95
6293.00,0.95
6292.00,0.95
6291.00,0.95
6290.00,0.95
6289.00,0.95
6288.00,0.95
6287.00,0.96
6286.00,0.96
6285.00,0.96
6284.00,0.96
6283.00,0.96
6282.00,0.96
6281.00,0.96
6280.00,0.97
6279.00,0.97
6278.00,0.97
6277.00,0.97
6276.00,0.97
6275.00,0.97
6274.00,0.97
6273.00,0.98
6272.00,0.98
6271.00,0.98
6270.00,0.98
6269.00,0.98
6268.00,0.98
6267.00,0.98
6266.00,0.98
6265.00,0.98
6264.00,0.99
6263.00,0.99
6262.00,0.99
6261.00,0.99
6260.00,0.99
6259.00,0.99
6258.00,0.99
6257.00,0.99
6256.00,0.99
6255.00,0.99
6254.00,0.99
6253.00,0.99
6252.00,0.99
6251.00,0.99
6250.00,0.99
6249.00,0.99
6248.00,0.99
6247.00,0.99
6246.00,0.99
6245.00,1.00
6244.00,1.00
6243.00,1.00
6242.00,1.00
6241.00,1.00
6240.00,1.00
6239.00,1.00
6238.00,1.00
6237.00,1.00
6236.00,1.01
6235.00,1.01
6234.00,1.01
6233.00,1.01
6232.00,1.01
6231.00,1.01
6230.00,1.01
6229.00,1.01
6228.00,1.02
6227.00,1.02
6226.00,1.02
6225.00,1.02
6224.00,1.02
6223.00,1.02
6222.00,1.02
6221.00,1.02
6220.00,1.03
6219.00,1.03
6218.00,1.03
6217.00,1.03
6216.00,1.03
6215.00,1.03
6214.00,1.03
6213.00,1.03
6212.00,1.04
6211.00,1.04
6210.00,1.04
6209.00,1.04
6208.00,1.04
6207.00,1.04
6206.00,1.04
6205.00,1.04
6204.00,1.04
6203.00,1.04
6202.00,1.04
6201.00,1.04
6200.00,1.04
6199.00,1.05
6198.00,1.05
6197.00,1.05
6196.00,1.05
6195.00,1.05
6194.00,1.05
6193.00,1.05
6192.00,1.05
6191.00,1.05
6190.00,1.05
6189.00,1.05
6188.00,1.06
6187.00,1.06
6186.00,1.06
6185.00,1.06
6184.00,1.06
6183.00,1.06
6182.00,1.06
6181.00,1.06
6180.00,1.07
6179.00,1.07
6178.00,1.07
6177.00,1.07
6176.00,1.07
6175.00,1.07
6174.00,1.08
6173.00,1.08
6172.00,1.08
6171.00,1.08
6170.00,1.08
6169.00,1.08
6168.00,1.09
6167.00,1.09
6166.00,1.09
6165.00,1.09
6164.00,1.09
6163.00,1.09
6162.00,1.10
6161.00,1.10
6160.00,1.10
6159.00,1.10
6158.00,1.10
6157.00,1.10
6156.00,1.10
6155.00,1.11
6154.00,1.11
6153.00,1.11
6152.00,1.11
6151.00,1.11
6150.00,1.11
6149.00,1.11
6148.00,1.11
6147.00,1.11
6146.00,1.11
6145.00,1.12
6144.00,1.12
6143.00,1.12
6142.00,1.12
6141.00,1.12
6140.00,1.12
6139.00,1.12
6138.00,1.12
6137.00,1.12
6136.00,1.12
6135.00,1.13
6134.00,1.13
6133.00,1.13
6132.00,1.13
6131.00,1.13
6130.00,1.13
6129.00,1.14
6128.00,1.14
6127.00,1.14
6126.00,1.14
6125.00,1.14
6124.00,1.14
6123.00,1.15
6122.00,1.15
6121.00,1.15
6120.00,1.15
6119.00,1.15
6118.00,1.15
6117.00,1.16
6116.00,1.16
6115.00,1.16
6114.00,1.16
6113.00,1.16
6112.00,1.16
6111.00,1.16
6110.00,1.17
6109.00,1.17
6108.00,1.17
6107.00,1.17
6106.00,1.17
6105.00,1.17
6104.00,1.17
6103.00,1.17
6102.00,1.18
6101.00,1.18
6100.00,1.18
6099.00,1.18
6098.00,1.18
6097.00,1.18
6096.00,1.18
6095.00,1.18
6094.00,1.18
6093.00,1.18
6092.00,1.19
6091.00,1.19
6090.00,1.19
6089.00,1.19
6088.00,1.19
6087.00,1.19
6086.00,1.19
6085.00,1.19
6084.00,1.19
6083.00,1.19
6082.00,1.20
6081.00,1.20
6080.00,1.20
6079.00,1.20
6078.00,1.20
6077.00,1.20
6076.00,1.20
6075.00,1.21
6074.00,1.21
6073.00,1.21
6072.00,1.21
6071.00,1.21
6070.00,1.21
6069.00,1.21
6068.00,1.21
6067.00,1.21
6066.00,1.22
6065.00,1.22
6064.00,1.22
6063.00,1.22
6062.00,1.22
6061.00,1.22
6060.00,1.22
6059.00,1.22
6058.00,1.22
6057.00,1.22
6056.00,1.22
6055.00,1.22
6054.00,1.22
6053.00,1.22
6052.00,1.23
6051.00,1.23
6050.00,1.23
6049.00,1.23
6048.00,1.23
6047.00,1.23
6046.00,1.23
6045.00,1.23
6044.00,1.23
6043.00,1.23
6042.00,1.23
6041.00,1.23
6040.00,1.23
6039.00,1.23
6038.00,1.23
6037.00,1.23
6036.00,1.23
6035.00,1.23
6034.00,1.23
6033.00,1.23
6032.00,1.24
6031.00,1.24
6030.00,1.24
6029.00,1.24
6028.00,1.24
6027.00,1.24
6026.00,1.24
6025.00,1.24
6024.00,1.24
6023.00,1.24
6022.00,1.24
6021.00,1.24
6020.00,1.24
6019.00,1.24
6018.00,1.24
6017.00,1.24
6016.00,1.24
6015.00,1.24
6014.00,1.24
6013.00,1.24
6012.00,1.24
6011.00,1.24
6010.00,1.24
6009.00,1.24
6008.00,1.24
6007.00,1.24
6006.00,1.24
6005.00,1.24
6004.00,1.24
6003.00,1.24
6002.00,1.24
6001.00,1.24
6000.00,1.24
5999.00,1.24
5998.00,1.24
5997.00,1.23
5996.00,1.23
5995.00,1.23
5994.00,1.23
5993.00,1.23
5992.00,1.23
5991.00,1.23
5990.00,1.22
5989.00,1.22
5988.00,1.22
5987.00,1.22
5986.00,1.22
5985.00,1.22
5984.00,1.21
5983.00,1.21
5982.00,1.21
5981.00,1.21
5980.00,1.20
5979.00,1.20
5978.00,1.20
5977.00,1.19
5976.00,1.19
5975.00,1.19
5974.00,1.18
5973.00,1.18
5972.00,1.17
5971.00,1.17
5970.00,1.16
5969.00,1.16
5968.00,1.15
5967.00,1.14
5966.00,1.14
5965.00,1.13
5964.00,1.13
5963.00,1.12
5962.00,1.11
5961.00,1.11
5960.00,1.10
5959.00,1.09
5958.00,1.09
5957.00,1.08
5956.00,1.08
5955.00,1.07
5954.00,1.07
5953.00,1.06
5952.00,1.06
5951.00,1.05
5950.00,1.05
5949.00,1.04
5948.00,1.04
5947.00,1.03
5946.00,1.03
5945.00,1.03
5944.00,1.02
5943.00,1.02
5942.00,1.02
5941.00,1.02
5940.00,1.01
5939.00,1.01
5938.00,1.01
5937.00,1.01
5936.00,1.01
5935.00,1.01
5934.00,1.01
5933.00,1.01
5932.00,1.01
5931.00,1.01
5930.00,1.01
5929.00,1.01
5928.00,1.01
5927.00,1.01
5926.00,1.01
5925.00,1.01
5924.00,1.01
5923.00,1.01
5922.00,1.01
5921.00,1.00
5920.00,1.00
5919.00,1.00
5918.00,1.00
5917.00,1.00
5916.00,1.00
5915.00,1.00
5914.00,0.99
5913.00,0.99
5912.00,0.99
5911.00,0.99
5910.00,0.99
5909.00,0.99
5908.00,0.99
5907.00,0.98
5906.00,0.98
5905.00,0.98
5904.00,0.98
5903.00,0.98
5902.00,0.98
5901.00,0.98
5900.00,0.98
5899.00,0.98
5898.00,0.98
5897.00,0.98
5896.00,0.98
5895.00,0.98
5894.00,0.98
5893.00,0.99
5892.00,0.99
5891.00,0.99
5890.00,0.99
5889.00,0.99
5888.00,0.99
5887.00,1.00
5886.00,1.00
5885.00,1.00
5884.00,1.00
5883.00,1.00
5882.00,1.01
5881.00,1.01
5880.00,1.01
5879.00,1.01
5878.00,1.01
5877.00,1.02
5876.00,1.02
5875.00,1.02
5874.00,1.02
5873.00,1.03
5872.00,1.03
5871.00,1.03
5870.00,1.03
5869.00,1.04
5868.00,1.04
5867.00,1.04
5866.00,1.04
5865.00,1.05
5864.00,1.05
5863.00,1.05
5862.00,1.05
5861.00,1.05
5860.00,1.05
5859.00,1.06
5858.00,1.06
5857.00,1.06
5856.00,1.06
5855.00,1.06
5854.00,1.06
5853.00,1.06
5852.00,1.06
5851.00,1.06
5850.00,1.06
5849.00,1.06
5848.00,1.06
5847.00,1.06
5846.00,1.06
5845.00,1.06
5844.00,1.06
5843.00,1.06
5842.00,1.06
5841.00,1.06
5840.00,1.06
5839.00,1.06
5838.00,1.06
5837.00,1.06
5836.00,1.06
5835.00,1.06
5834.00,1.06
5833.00,1.06
5832.00,1.06
5831.00,1.06
5830.00,1.06
5829.00,1.06
5828.00,1.06
5827.00,1.06
5826.00,1.06
5825.00,1.06
5824.00,1.06
5823.00,1.06
5822.00,1.06
5821.00,1.06
5820.00,1.06
5819.00,1.06
5818.00,1.06
5817.00,1.07
5816.00,1.07
5815.00,1.07
5814.00,1.07
5813.00,1.07
5812.00,1.07
5811.00,1.07
5810.00,1.07
5809.00,1.07
5808.00,1.07
5807.00,1.07
5806.00,1.07
5805.00,1.07
5804.00,1.07
5803.00,1.07
5802.00,1.06
5801.00,1.06
5800.00,1.06
5799.00,1.06
5798.00,1.06
5797.00,1.06
5796.00,1.06
5795.00,1.05
5794.00,1.05
5793.00,1.05
5792.00,1.05
5791.00,1.05
5790.00,1.05
5789.00,1.04
5788.00,1.04
5787.00,1.04
5786.00,1.04
5785.00,1.04
5784.00,1.04
5783.00,1.04
5782.00,1.03
5781.00,1.03
5780.00,1.03
5779.00,1.03
5778.00,1.03
5777.00,1.03
5776.00,1.03
5775.00,1.03
5774.00,1.03
5773.00,1.03
5772.00,1.03
5771.00,1.03
5770.00,1.03
5769.00,1.03
5768.00,1.03
5767.00,1.03
5766.00,1.03
5765.00,1.03
5764.00,1.03
5763.00,1.03
5762.00,1.03
5761.00,1.03
5760.00,1.04
5759.00,1.04
5758.00,1.04
5757.00,1.04
5756.00,1.05
5755.00,1.05
5754.00,1.05
5753.00,1.06
5752.00,1.06
5751.00,1.06
5750.00,1.07
5749.00,1.07
5748.00,1.07
5747.00,1.08
5746.00,1.08
5745.00,1.08
5744.00,1.09
5743.00,1.09
5742.00,1.09
5741.00,1.10
5740.00,1.10
5739.00,1.10
5738.00,1.10
5737.00,1.10
5736.00,1.11
5735.00,1.11
5734.00,1.11
5733.00,1.11
5732.00,1.11
5731.00,1.11
5730.00,1.11
5729.00,1.12
5728.00,1.12
5727.00,1.12
5726.00,1.12
5725.00,1.12
5724.00,1.12
5723.00,1.12
5722.00,1.12
5721.00,1.12
5720.00,1.12
5719.00,1.12
5718.00,1.12
5717.00,1.12
5716.00,1.12
5715.00,1.12
5714.00,1.12
5713.00,1.12
5712.00,1.12
5711.00,1.12
5710.00,1.13
5709.00,1.13
5708.00,1.13
5707.00,1.12
5706.00,1.12
5705.00,1.12
5704.00,1.12
5703.00,1.12
5702.00,1.12
5701.00,1.12
5700.00,1.12
5699.00,1.12
5698.00,1.12
5697.00,1.12
5696.00,1.12
5695.00,1.11
5694.00,1.11
5693.00,1.11
5692.00,1.11
5691.00,1.11
5690.00,1.11
5689.00,1.11
5688.00,1.10
5687.00,1.10
5686.00,1.10
5685.00,1.10
5684.00,1.10
5683.00,1.10
5682.00,1.10
5681.00,1.09
5680.00,1.09
5679.00,1.09
5678.00,1.09
5677.00,1.09
5676.00,1.09
5675.00,1.09
5674.00,1.09
5673.00,1.09
5672.00,1.09
5671.00,1.09
5670.00,1.09
5669.00,1.09
5668.00,1.09
5667.00,1.09
5666.00,1.09
5665.00,1.09
5664.00,1.10
5663.00,1.10
5662.00,1.10
5661.00,1.10
5660.00,1.10
5659.00,1.10
5658.00,1.10
5657.00,1.11
5656.00,1.11
5655.00,1.11
5654.00,1.11
5653.00,1.11
5652.00,1.11
5651.00,1.11
5650.00,1.11
5649.00,1.12
5648.00,1.12
5647.00,1.12
5646.00,1.12
5645.00,1.12
5644.00,1.12
5643.00,1.12
5642.00,1.12
5641.00,1.13
5640.00,1.13
5639.00,1.13
5638.00,1.13
5637.00,1.13
5636.00,1.13
5635.00,1.14
5634.00,1.14
5633.00,1.14
5632.00,1.14
5631.00,1.14
5630.00,1.14
5629.00,1.15
5628.00,1.15
5627.00,1.15
5626.00,1.15
5625.00,1.15
5624.00,1.15
5623.00,1.16
5622.00,1.16
5621.00,1.16
5620.00,1.16
5619.00,1.16
5618.00,1.16
5617.00,1.16
5616.00,1.17
5615.00,1.17
5614.00,1.17
5613.00,1.17
5612.00,1.17
5611.00,1.17
5610.00,1.17
5609.00,1.17
5608.00,1.17
5607.00,1.17
5606.00,1.18
5605.00,1.18
5604.00,1.18
5603.00,1.18
5602.00,1.18
5601.00,1.18
5600.00,1.19
5599.00,1.19
5598.00,1.19
5597.00,1.19
5596.00,1.19
5595.00,1.19
5594.00,1.20
5593.00,1.20
5592.00,1.20
5591.00,1.20
5590.00,1.20
5589.00,1.20
5588.00,1.21
5587.00,1.21
5586.00,1.21
5585.00,1.21
5584.00,1.21
5583.00,1.21
5582.00,1.21
5581.00,1.22
5580.00,1.22
5579.00,1.22
5578.00,1.22
5577.00,1.22
5576.00,1.22
5575.00,1.22
5574.00,1.22
5573.00,1.23
5572.00,1.23
5571.00,1.23
5570.00,1.23
5569.00,1.23
5568.00,1.23
5567.00,1.23
5566.00,1.23
5565.00,1.23
5564.00,1.23
5563.00,1.24
5562.00,1.24
5561.00,1.24
5560.00,1.24
5559.00,1.24
5558.00,1.24
5557.00,1.24
5556.00,1.24
5555.00,1.24
5554.00,1.25
5553.00,1.25
5552.00,1.25
5551.00,1.25
5550.00,1.25
5549.00,1.25
5548.00,1.25
5547.00,1.25
5546.00,1.26
5545.00,1.26
5544.00,1.26
5543.00,1.26
5542.00,1.26
5541.00,1.26
5540.00,1.26
5539.00,1.27
5538.00,1.27
5537.00,1.27
5536.00,1.27
5535.00,1.27
5534.00,1.27
5533.00,1.27
5532.00,1.27
5531.00,1.27
5530.00,1.27
5529.00,1.27
5528.00,1.28
5527.00,1.28
5526.00,1.28
5525.00,1.28
5524.00,1.28
5523.00,1.28
5522.00,1.28
5521.00,1.28
5520.00,1.28
5519.00,1.28
5518.00,1.28
5517.00,1.28
5516.00,1.28
5515.00,1.28
5514.00,1.28
5513.00,1.28
5512.00,1.28
5511.00,1.28
5510.00,1.28
5509.00,1.28
5508.00,1.28
5507.00,1.28
5506.00,1.28
5505.00,1.28
5504.00,1.28
5503.00,1.28
5502.00,1.28
5501.00,1.29
5500.00,1.29
5499.00,1.29
5498.00,1.29
5497.00,1.29
5496.00,1.29
5495.00,1.29
5494.00,1.29
5493.00,1.29
5492.00,1.29
5491.00,1.29
5490.00,1.30
5489.00,1.30
5488.00,1.30
5487.00,1.30
5486.00,1.30
5485.00,1.30
5484.00,1.30
5483.00,1.30
5482.00,1.30
5481.00,1.31
5480.00,1.31
5479.00,1.31
5478.00,1.31
5477.00,1.31
5476.00,1.31
5475.00,1.31
5474.00,1.31
5473.00,1.31
5472.00,1.32
5471.00,1.32
5470.00,1.32
5469.00,1.32
5468.00,1.32
5467.00,1.32
5466.00,1.32
5465.00,1.32
5464.00,1.33
5463.00,1.33
5462.00,1.33
5461.00,1.33
5460.00,1.33
5459.00,1.33
5458.00,1.33
5457.00,1.33
5456.00,1.33
5455.00,1.33
5454.00,1.33
5453.00,1.33
5452.00,1.33
5451.00,1.33
5450.00,1.33
5449.00,1.34
5448.00,1.34
5447.00,1.34
5446.00,1.34
5445.00,1.34
5444.00,1.34
5443.00,1.34
5442.00,1.34
5441.00,1.34
5440.00,1.34
5439.00,1.34
5438.00,1.34
5437.00,1.34
5436.00,1.34
5435.00,1.34
5434.00,1.34
5433.00,1.34
5432.00,1.34
5431.00,1.34
5430.00,1.34
5429.00,1.34
5428.00,1.34
5427.00,1.34
5426.00,1.34
5425.00,1.34
5424.00,1.34
5423.00,1.34
5422.00,1.34
5421.00,1.34
5420.00,1.34
5419.00,1.34
5418.00,1.34
5417.00,1.34
5416.00,1.34
5415.00,1.34
5414.00,1.34
5413.00,1.34
5412.00,1.34
5411.00,1.34
5410.00,1.34
5409.00,1.34
5408.00,1.34
5407.00,1.34
5406.00,1.34
5405.00,1.34
5404.00,1.34
5403.00,1.34
5402.00,1.34
5401.00,1.34
5400.00,1.34
5399.00,1.34
5398.00,1.34
5397.00,1.33
5396.00,1.33
5395.00,1.33
5394.00,1.33
5393.00,1.33
5392.00,1.33
5391.00,1.32
5390.00,1.32
5389.00,1.32
5388.00,1.32
5387.00,1.32
5386.00,1.31
5385.00,1.31
5384.00,1.31
5383.00,1.31
5382.00,1.30
5381.00,1.30
5380.00,1.30
5379.00,1.29
5378.00,1.29
5377.00,1.29
5376.00,1.28
5375.00,1.28
5374.00,1.28
5373.00,1.27
5372.00,1.27
5371.00,1.26
5370.00,1.26
5369.00,1.26
5368.00,1.25
5367.00,1.25
5366.00,1.24
5365.00,1.24
5364.00,1.23
5363.00,1.22
5362.00,1.22
5361.00,1.21
5360.00,1.21
5359.00,1.20
5358.00,1.19
5357.00,1.19
5356.00,1.18
5355.00,1.17
5354.00,1.17
5353.00,1.16
5352.00,1.15
5351.00,1.15
5350.00,1.14
5349.00,1.13
5348.00,1.13
5347.00,1.12
5346.00,1.11
5345.00,1.10
5344.00,1.10
5343.00,1.09
5342.00,1.08
5341.00,1.07
5340.00,1.07
5339.00,1.06
5338.00,1.05
5337.00,1.04
5336.00,1.04
5335.00,1.03
5334.00,1.02
5333.00,1.02
5332.00,1.01
5331.00,1.00
5330.00,1.00
5329.00,0.99
5328.00,0.98
5327.00,0.98
5326.00,0.97
5325.00,0.97
5324.00,0.96
5323.00,0.96
5322.00,0.95
5321.00,0.94
5320.00,0.94
5319.00,0.93
5318.00,0.93
5317.00,0.92
5316.00,0.92
5315.00,0.92
5314.00,0.91
5313.00,0.91
5312.00,0.90
5311.00,0.90
5310.00,0.90
5309.00,0.89
5308.00,0.89
5307.00,0.89
5306.00,0.88
5305.00,0.88
5304.00,0.88
5303.00,0.87
5302.00,0.87
5301.00,0.87
5300.00,0.87
5299.00,0.87
5298.00,0.86
5297.00,0.86
5296.00,0.86
5295.00,0.86
5294.00,0.86
5293.00,0.86
5292.00,0.86
5291.00,0.85
5290.00,0.85
5289.00,0.85
5288.00,0.85
5287.00,0.85
5286.00,0.85
5285.00,0.85
5284.00,0.85
5283.00,0.85
5282.00,0.85
5281.00,0.85
5280.00,0.85
5279.00,0.85
5278.00,0.85
5277.00,0.85
5276.00,0.85
5275.00,0.85
5274.00,0.85
5273.00,0.85
5272.00,0.85
5271.00,0.85
5270.00,0.85
5269.00,0.85
5268.00,0.85
5267.00,0.85
5266.00,0.85
5265.00,0.85
5264.00,0.85
5263.00,0.85
5262.00,0.85
5261.00,0.85
5260.00,0.85
5259.00,0.85
5258.00,0.85
5257.00,0.85
5256.00,0.85
5255.00,0.85
5254.00,0.85
5253.00,0.85
5252.00,0.85
5251.00,0.85
5250.00,0.85
5249.00,0.85
5248.00,0.85
5247.00,0.85
5246.00,0.85
5245.00,0.85
5244.00,0.85
5243.00,0.85
5242.00,0.85
5241.00,0.85
5240.00,0.85
5239.00,0.85
5238.00,0.85
5237.00,0.85
5236.00,0.85
5235.00,0.85
5234.00,0.85
5233.00,0.86
5232.00,0.86
5231.00,0.86
5230.00,0.86
5229.00,0.86
5228.00,0.86
5227.00,0.86
5226.00,0.86
5225.00,0.86
5224.00,0.86
5223.00,0.86
5222.00,0.86
5221.00,0.86
5220.00,0.86
5219.00,0.86
5218.00,0.86
5217.00,0.86
5216.00,0.86
5215.00,0.86
5214.00,0.86
5213.00,0.86
5212.00,0.86
5211.00,0.86
5210.00,0.86
5209.00,0.86
5208.00,0.86
5207.00,0.86
5206.00,0.86
5205.00,0.86
5204.00,0.86
5203.00,0.86
5202.00,0.86
5201.00,0.87
5200.00,0.87
5199.00,0.87
5198.00,0.87
5197.00,0.87
5196.00,0.87
5195.00,0.87
5194.00,0.87
5193.00,0.87
5192.00,0.87
5191.00,0.87
5190.00,0.87
5189.00,0.87
5188.00,0.87
5187.00,0.87
5186.00,0.87
5185.00,0.87
5184.00,0.87
5183.00,0.87
5182.00,0.87
5181.00,0.87
5180.00,0.87
5179.00,0.87
5178.00,0.87
5177.00,0.87
5176.00,0.87
5175.00,0.87
5174.00,0.87
5173.00,0.88
5172.00,0.88
5171.00,0.88
5170.00,0.88
5169.00,0.88
5168.00,0.88
5167.00,0.88
5166.00,0.88
5165.00,0.88
5164.00,0.88
5163.00,0.88
5162.00,0.88
5161.00,0.88
5160.00,0.88
5159.00,0.88
5158.00,0.88
5157.00,0.88
5156.00,0.88
5155.00,0.88
5154.00,0.88
5153.00,0.88
5152.00,0.88
5151.00,0.88
5150.00,0.88
5149.00,0.88
5148.00,0.88
5147.00,0.88
5146.00,0.88
5145.00,0.88
5144.00,0.88
5143.00,0.88
5142.00,0.88
5141.00,0.88
5140.00,0.88
5139.00,0.88
5138.00,0.88
5137.00,0.88
5136.00,0.88
5135.00,0.88
5134.00,0.88
5133.00,0.88
5132.00,0.88
5131.00,0.89
5130.00,0.89
5129.00,0.89
5128.00,0.89
5127.00,0.89
5126.00,0.89
5125.00,0.89
5124.00,0.89
5123.00,0.89
5122.00,0.89
5121.00,0.89
5120.00,0.89
5119.00,0.89
5118.00,0.89
5117.00,0.89
5116.00,0.89
5115.00,0.89
5114.00,0.89
5113.00,0.89
5112.00,0.89
5111.00,0.89
5110.00,0.89
5109.00,0.89
5108.00,0.89
5107.00,0.89
5106.00,0.89
5105.00,0.89
5104.00,0.90
5103.00,0.90
5102.00,0.90
5101.00,0.90
5100.00,0.90
5099.00,0.90
5098.00,0.90
5097.00,0.90
5096.00,0.90
5095.00,0.90
5094.00,0.90
5093.00,0.90
5092.00,0.90
5091.00,0.90
5090.00,0.90
5089.00,0.90
5088.00,0.90
5087.00,0.91
5086.00,0.91
5085.00,0.91
5084.00,0.91
5083.00,0.91
5082.00,0.91
5081.00,0.91
5080.00,0.91
5079.00,0.91
5078.00,0.91
5077.00,0.91
5076.00,0.91
5075.00,0.91
5074.00,0.91
5073.00,0.91
5072.00,0.91
5071.00,0.91
5070.00,0.91
5069.00,0.91
5068.00,0.91
5067.00,0.91
5066.00,0.91
5065.00,0.91
5064.00,0.91
5063.00,0.91
5062.00,0.91
5061.00,0.91
5060.00,0.91
5059.00,0.91
5058.00,0.91
5057.00,0.91
5056.00,0.91
5055.00,0.91
5054.00,0.91
5053.00,0.91
5052.00,0.91
5051.00,0.91
5050.00,0.91
5049.00,0.91
5048.00,0.91
5047.00,0.91
5046.00,0.91
5045.00,0.91
5044.00,0.91
5043.00,0.91
5042.00,0.91
5041.00,0.92
5040.00,0.92
5039.00,0.92
5038.00,0.92
5037.00,0.92
5036.00,0.92
5035.00,0.92
5034.00,0.92
5033.00,0.92
5032.00,0.92
5031.00,0.92
5030.00,0.92
5029.00,0.92
5028.00,0.93
5027.00,0.93
5026.00,0.93
5025.00,0.93
5024.00,0.93
5023.00,0.93
5022.00,0.93
5021.00,0.93
5020.00,0.93
5019.00,0.93
5018.00,0.93
5017.00,0.93
5016.00,0.93
5015.00,0.94
5014.00,0.94
5013.00,0.94
5012.00,0.94
5011.00,0.94
5010.00,0.94
5009.00,0.94
5008.00,0.94
5007.00,0.94
5006.00,0.94
5005.00,0.94
5004.00,0.94
5003.00,0.94
5002.00,0.94
5001.00,0.94
5000.00,0.94
4999.00,0.94
4998.00,0.94
4997.00,0.94
4996.00,0.94
4995.00,0.94
4994.00,0.94
4993.00,0.94
4992.00,0.94
4991.00,0.94
4990.00,0.94
4989.00,0.94
4988.00,0.95
4987.00,0.95
4986.00,0.95
4985.00,0.95
4984.00,0.95
4983.00,0.95
4982.00,0.95
4981.00,0.95
4980.00,0.95
4979.00,0.95
4978.00,0.95
4977.00,0.95
4976.00,0.95
4975.00,0.95
4974.00,0.95
4973.00,0.95
4972.00,0.95
4971.00,0.95
4970.00,0.95
4969.00,0.95
4968.00,0.95
4967.00,0.95
4966.00,0.95
4965.00,0.95
4964.00,0.95
4963.00,0.95
4962.00,0.96
4961.00,0.96
4960.00,0.96
4959.00,0.96
4958.00,0.96
4957.00,0.96
4956.00,0.96
4955.00,0.96
4954.00,0.96
4953.00,0.96
4952.00,0.96
4951.00,0.96
4950.00,0.96
4949.00,0.96
4948.00,0.96
4947.00,0.97
4946.00,0.97
4945.00,0.97
4944.00,0.97
4943.00,0.97
4942.00,0.97
4941.00,0.97
4940.00,0.97
4939.00,0.97
4938.00,0.97
4937.00,0.97
4936.00,0.97
4935.00,0.97
4934.00,0.97
4933.00,0.97
4932.00,0.97
4931.00,0.97
4930.00,0.97
4929.00,0.97
4928.00,0.97
4927.00,0.97
4926.00,0.97
4925.00,0.97
4924.00,0.97
4923.00,0.97
4922.00,0.97
4921.00,0.97
4920.00,0.97
4919.00,0.97
4918.00,0.97
4917.00,0.97
4916.00,0.97
4915.00,0.98
4914.00,0.98
4913.00,0.98
4912.00,0.98
4911.00,0.98
4910.00,0.98
4909.00,0.98
4908.00,0.98
4907.00,0.98
4906.00,0.98
4905.00,0.98
4904.00,0.99
4903.00,0.99
4902.00,0.99
4901.00,0.99
4900.00,0.99
4899.00,0.99
4898.00,0.99
4897.00,0.99
4896.00,0.99
4895.00,1.00
4894.00,1.00
4893.00,1.00
4892.00,1.00
4891.00,1.00
4890.00,1.00
4889.00,1.00
4888.00,1.00
4887.00,1.00
4886.00,1.00
4885.00,1.00
4884.00,1.00
4883.00,1.00
4882.00,1.00
4881.00,1.00
4880.00,1.00
4879.00,1.00
4878.00,1.00
4877.00,1.00
4876.00,1.00
4875.00,1.00
4874.00,1.00
4873.00,1.00
4872.00,1.00
4871.00,1.00
4870.00,1.00
4869.00,1.00
4868.00,1.00
4867.00,1.00
4866.00,1.00
4865.00,1.00
4864.00,1.00
4863.00,1.00
4862.00,1.00
4861.00,1.00
4860.00,1.00
4859.00,1.00
4858.00,1.00
4857.00,1.00
4856.00,1.00
4855.00,1.00
4854.00,1.00
4853.00,1.00
4852.00,1.00
4851.00,1.00
4850.00,1.00
4849.00,1.00
4848.00,1.00
4847.00,1.00
4846.00,1.00
4845.00,1.00
4844.00,1.00
4843.00,1.00
4842.00,1.00
4841.00,1.00
4840.00,1.00
4839.00,1.01
4838.00,1.01
4837.00,1.01
4836.00,1.01
4835.00,1.01
4834.00,1.01
4833.00,1.01
4832.00,1.01
4831.00,1.01
4830.00,1.01
4829.00,1.02
4828.00,1.02
4827.00,1.02
4826.00,1.02
4825.00,1.02
4824.00,1.02
4823.00,1.02
4822.00,1.02
4821.00,1.02
4820.00,1.02
4819.00,1.02
4818.00,1.02
4817.00,1.02
4816.00,1.02
4815.00,1.02
4814.00,1.02
4813.00,1.02
4812.00,1.02
4811.00,1.02
4810.00,1.02
4809.00,1.02
4808.00,1.02
4807.00,1.02
4806.00,1.02
4805.00,1.02
4804.00,1.02
4803.00,1.02
4802.00,1.02
4801.00,1.02
4800.00,1.02
4799.00,1.02
4798.00,1.02
4797.00,1.03
4796.00,1.03
4795.00,1.03
4794.00,1.03
4793.00,1.03
4792.00,1.03
4791.00,1.03
4790.00,1.03
4789.00,1.03
4788.00,1.03
4787.00,1.03
4786.00,1.04
4785.00,1.04
4784.00,1.04
4783.00,1.04
4782.00,1.04
4781.00,1.04
4780.00,1.04
4779.00,1.04
4778.00,1.04
4777.00,1.04
4776.00,1.05
4775.00,1.05
4774.00,1.05
4773.00,1.05
4772.00,1.05
4771.00,1.05
4770.00,1.05
4769.00,1.05
4768.00,1.05
4767.00,1.05
4766.00,1.05
4765.00,1.05
4764.00,1.05
4763.00,1.05
4762.00,1.05
4761.00,1.05
4760.00,1.06
4759.00,1.06
4758.00,1.06
4757.00,1.06
4756.00,1.06
4755.00,1.06
4754.00,1.06
4753.00,1.06
4752.00,1.06
4751.00,1.06
4750.00,1.06
4749.00,1.06
4748.00,1.06
4747.00,1.06
4746.00,1.06
4745.00,1.06
4744.00,1.07
4743.00,1.07
4742.00,1.07
4741.00,1.07
4740.00,1.07
4739.00,1.07
4738.00,1.07
4737.00,1.07
4736.00,1.07
4735.00,1.07
4734.00,1.07
4733.00,1.07
4732.00,1.07
4731.00,1.07
4730.00,1.07
4729.00,1.07
4728.00,1.08
4727.00,1.08
4726.00,1.08
4725.00,1.08
4724.00,1.08
4723.00,1.08
4722.00,1.08
4721.00,1.08
4720.00,1.08
4719.00,1.08
4718.00,1.08
4717.00,1.09
4716.00,1.09
4715.00,1.09
4714.00,1.09
4713.00,1.09
4712.00,1.09
4711.00,1.09
4710.00,1.09
4709.00,1.09
4708.00,1.09
4707.00,1.09
4706.00,1.09
4705.00,1.09
4704.00,1.10
4703.00,1.10
4702.00,1.10
4701.00,1.10
4700.00,1.10
4699.00,1.10
4698.00,1.10
4697.00,1.10
4696.00,1.10
4695.00,1.10
4694.00,1.10
4693.00,1.10
4692.00,1.10
4691.00,1.10
4690.00,1.10
4689.00,1.10
4688.00,1.10
4687.00,1.10
4686.00,1.10
4685.00,1.10
4684.00,1.11
4683.00,1.11
4682.00,1.11
4681.00,1.11
4680.00,1.11
4679.00,1.11
4678.00,1.11
4677.00,1.12
4676.00,1.12
4675.00,1.12
4674.00,1.12
4673.00,1.12
4672.00,1.12
4671.00,1.12
4670.00,1.12
4669.00,1.12
4668.00,1.12
4667.00,1.12
4666.00,1.12
4665.00,1.12
4664.00,1.12
4663.00,1.12
4662.00,1.12
4661.00,1.12
4660.00,1.12
4659.00,1.12
4658.00,1.13
4657.00,1.13
4656.00,1.13
4655.00,1.13
4654.00,1.13
4653.00,1.13
4652.00,1.13
4651.00,1.13
4650.00,1.13
4649.00,1.14
4648.00,1.14
4647.00,1.14
4646.00,1.14
4645.00,1.14
4644.00,1.14
4643.00,1.14
4642.00,1.14
4641.00,1.14
4640.00,1.14
4639.00,1.14
4638.00,1.14
4637.00,1.14
4636.00,1.14
4635.00,1.14
4634.00,1.14
4633.00,1.14
4632.00,1.14
4631.00,1.14
4630.00,1.14
4629.00,1.14
4628.00,1.14
4627.00,1.14
4626.00,1.14
4625.00,1.15
4624.00,1.15
4623.00,1.15
4622.00,1.15
4621.00,1.15
4620.00,1.15
4619.00,1.15
4618.00,1.15
4617.00,1.15
4616.00,1.15
4615.00,1.15
4614.00,1.16
4613.00,1.16
4612.00,1.16
4611.00,1.16
4610.00,1.16
4609.00,1.16
4608.00,1.16
4607.00,1.16
4606.00,1.16
4605.00,1.16
4604.00,1.16
4603.00,1.16
4602.00,1.16
4601.00,1.16
4600.00,1.16
4599.00,1.16
4598.00,1.16
4597.00,1.16
4596.00,1.16
4595.00,1.16
4594.00,1.17
4593.00,1.17
4592.00,1.17
4591.00,1.17
4590.00,1.17
4589.00,1.17
4588.00,1.17
4587.00,1.17
4586.00,1.17
4585.00,1.17
4584.00,1.17
4583.00,1.17
4582.00,1.18
4581.00,1.18
4580.00,1.18
4579.00,1.18
4578.00,1.18
4577.00,1.18
4576.00,1.18
4575.00,1.18
4574.00,1.18
4573.00,1.18
4572.00,1.18
4571.00,1.18
4570.00,1.18
4569.00,1.18
4568.00,1.18
4567.00,1.18
4566.00,1.18
4565.00,1.18
4564.00,1.18
4563.00,1.18
4562.00,1.18
4561.00,1.18
4560.00,1.18
4559.00,1.19
4558.00,1.19
4557.00,1.19
4556.00,1.19
4555.00,1.19
4554.00,1.19
4553.00,1.19
4552.00,1.19
4551.00,1.19
4550.00,1.19
4549.00,1.19
4548.00,1.19
4547.00,1.19
4546.00,1.19
4545.00,1.19
4544.00,1.19
4543.00,1.19
4542.00,1.19
4541.00,1.19
4540.00,1.19
4539.00,1.19
4538.00,1.19
4537.00,1.19
4536.00,1.20
4535.00,1.20
4534.00,1.20
4533.00,1.20
4532.00,1.20
4531.00,1.20
4530.00,1.20
4529.00,1.20
4528.00,1.20
4527.00,1.20
4526.00,1.20
4525.00,1.20
4524.00,1.20
4523.00,1.20
4522.00,1.20
4521.00,1.20
4520.00,1.20
4519.00,1.20
4518.00,1.20
4517.00,1.20
4516.00,1.20
4515.00,1.20
4514.00,1.20
4513.00,1.20
4512.00,1.20
4511.00,1.20
4510.00,1.20
4509.00,1.20
4508.00,1.20
4507.00,1.20
4506.00,1.20
4505.00,1.20
4504.00,1.20
4503.00,1.20
4502.00,1.19
4501.00,1.19
4500.00,1.19
4499.00,1.19
4498.00,1.19
4497.00,1.19
4496.00,1.19
4495.00,1.19
4494.00,1.19
4493.00,1.19
4492.00,1.19
4491.00,1.20
4490.00,1.20
4489.00,1.20
4488.00,1.20
4487.00,1.20
4486.00,1.20
4485.00,1.20
4484.00,1.19
4483.00,1.19
4482.00,1.19
4481.00,1.19
4480.00,1.19
4479.00,1.19
4478.00,1.19
4477.00,1.19
4476.00,1.19
4475.00,1.19
4474.00,1.19
4473.00,1.19
4472.00,1.19
4471.00,1.19
4470.00,1.19
4469.00,1.19
4468.00,1.19
4467.00,1.19
4466.00,1.19
4465.00,1.19
4464.00,1.19
4463.00,1.19
4462.00,1.19
4461.00,1.18
4460.00,1.18
4459.00,1.18
4458.00,1.18
4457.00,1.18
4456.00,1.18
4455.00,1.18
4454.00,1.18
4453.00,1.17
4452.00,1.17
4451.00,1.17
4450.00,1.17
4449.00,1.17
4448.00,1.17
4447.00,1.16
4446.00,1.16
4445.00,1.16
4444.00,1.16
4443.00,1.16
4442.00,1.16
4441.00,1.16
4440.00,1.15
4439.00,1.15
4438.00,1.15
4437.00,1.15
4436.00,1.15
4435.00,1.15
4434.00,1.15
4433.00,1.15
4432.00,1.15
4431.00,1.15
4430.00,1.15
4429.00,1.15
4428.00,1.15
4427.00,1.15
4426.00,1.15
4425.00,1.15
4424.00,1.15
4423.00,1.15
4422.00,1.15
4421.00,1.15
4420.00,1.15
4419.00,1.15
4418.00,1.15
4417.00,1.15
4416.00,1.15
4415.00,1.15
4414.00,1.15
4413.00,1.15
4412.00,1.15
4411.00,1.15
4410.00,1.15
4409.00,1.15
4408.00,1.15
4407.00,1.15
4406.00,1.15
4405.00,1.15
4404.00,1.15
4403.00,1.15
4402.00,1.15
4401.00,1.15
4400.00,1.15
4399.00,1.15
4398.00,1.16
4397.00,1.16
4396.00,1.16
4395.00,1.16
4394.00,1.16
4393.00,1.16
4392.00,1.16
4391.00,1.16
4390.00,1.16
4389.00,1.16
4388.00,1.16
4387.00,1.16
4386.00,1.16
4385.00,1.16
4384.00,1.16
4383.00,1.16
4382.00,1.16
4381.00,1.16
4380.00,1.17
4379.00,1.17
4378.00,1.17
4377.00,1.17
4376.00,1.17
4375.00,1.17
4374.00,1.17
4373.00,1.17
4372.00,1.17
4371.00,1.18
4370.00,1.18
4369.00,1.18
4368.00,1.18
4367.00,1.18
4366.00,1.18
4365.00,1.18
4364.00,1.18
4363.00,1.18
4362.00,1.18
4361.00,1.18
4360.00,1.18
4359.00,1.19
4358.00,1.19
4357.00,1.19
4356.00,1.19
4355.00,1.19
4354.00,1.19
4353.00,1.19
4352.00,1.19
4351.00,1.19
4350.00,1.19
4349.00,1.19
4348.00,1.19
4347.00,1.19
4346.00,1.19
4345.00,1.19
4344.00,1.19
4343.00,1.19
4342.00,1.19
4341.00,1.19
4340.00,1.18
4339.00,1.18
4338.00,1.18
4337.00,1.18
4336.00,1.18
4335.00,1.18
4334.00,1.18
4333.00,1.18
4332.00,1.18
4331.00,1.19
4330.00,1.19
4329.00,1.19
4328.00,1.19
4327.00,1.19
4326.00,1.19
4325.00,1.19
4324.00,1.19
4323.00,1.19
4322.00,1.19
4321.00,1.19
4320.00,1.19
4319.00,1.20
4318.00,1.20
4317.00,1.20
4316.00,1.20
4315.00,1.20
4314.00,1.20
4313.00,1.20
4312.00,1.20
4311.00,1.20
4310.00,1.20
4309.00,1.20
4308.00,1.20
4307.00,1.20
4306.00,1.20
4305.00,1.20
4304.00,1.20
4303.00,1.21
4302.00,1.21
4301.00,1.21
4300.00,1.21
4299.00,1.21
4298.00,1.21
4297.00,1.21
4296.00,1.21
4295.00,1.21
4294.00,1.21
4293.00,1.21
4292.00,1.21
4291.00,1.21
4290.00,1.21
4289.00,1.21
4288.00,1.21
4287.00,1.21
4286.00,1.21
4285.00,1.21
4284.00,1.21
4283.00,1.21
4282.00,1.21
4281.00,1.21
4280.00,1.21
4279.00,1.21
4278.00,1.21
4277.00,1.21
4276.00,1.21
4275.00,1.21
4274.00,1.22
4273.00,1.22
4272.00,1.22
4271.00,1.22
4270.00,1.22
4269.00,1.22
4268.00,1.22
4267.00,1.22
4266.00,1.22
4265.00,1.22
4264.00,1.22
4263.00,1.22
4262.00,1.22
4261.00,1.22
4260.00,1.22
4259.00,1.22
4258.00,1.22
4257.00,1.22
4256.00,1.22
4255.00,1.22
4254.00,1.22
4253.00,1.22
4252.00,1.22
4251.00,1.22
4250.00,1.22
4249.00,1.22
4248.00,1.22
4247.00,1.22
4246.00,1.22
4245.00,1.22
4244.00,1.22
4243.00,1.22
4242.00,1.22
4241.00,1.23
4240.00,1.23
4239.00,1.23
4238.00,1.23
4237.00,1.23
4236.00,1.23
4235.00,1.23
4234.00,1.23
4233.00,1.23
4232.00,1.24
4231.00,1.24
4230.00,1.24
4229.00,1.24
4228.00,1.24
4227.00,1.24
4226.00,1.25
4225.00,1.25
4224.00,1.25
4223.00,1.25
4222.00,1.25
4221.00,1.25
4220.00,1.25
4219.00,1.25
4218.00,1.25
4217.00,1.26
4216.00,1.26
4215.00,1.26
4214.00,1.26
4213.00,1.26
4212.00,1.26
4211.00,1.26
4210.00,1.26
4209.00,1.26
4208.00,1.26
4207.00,1.26
4206.00,1.26
4205.00,1.26
4204.00,1.26
4203.00,1.26
4202.00,1.26
4201.00,1.26
4200.00,1.26
4199.00,1.26
4198.00,1.26
4197.00,1.26
4196.00,1.26
4195.00,1.26
4194.00,1.26
4193.00,1.26
4192.00,1.26
4191.00,1.26
4190.00,1.26
4189.00,1.26
4188.00,1.26
4187.00,1.26
4186.00,1.26
4185.00,1.26
4184.00,1.26
4183.00,1.26
4182.00,1.26
4181.00,1.26
4180.00,1.26
4179.00,1.26
4178.00,1.26
4177.00,1.26
4176.00,1.26
4175.00,1.26
4174.00,1.26
4173.00,1.27
4172.00,1.27
4171.00,1.27
4170.00,1.27
4169.00,1.27
4168.00,1.27
4167.00,1.27
4166.00,1.27
4165.00,1.27
4164.00,1.27
4163.00,1.27
4162.00,1.27
4161.00,1.27
4160.00,1.27
4159.00,1.27
4158.00,1.28
4157.00,1.28
4156.00,1.28
4155.00,1.28
4154.00,1.28
4153.00,1.28
4152.00,1.28
4151.00,1.28
4150.00,1.29
4149.00,1.29
4148.00,1.29
4147.00,1.29
4146.00,1.29
4145.00,1.29
4144.00,1.29
4143.00,1.29
4142.00,1.29
4141.00,1.29
4140.00,1.29
4139.00,1.29
4138.00,1.29
4137.00,1.29
4136.00,1.29
4135.00,1.29
4134.00,1.29
4133.00,1.29
4132.00,1.29
4131.00,1.29
4130.00,1.29
4129.00,1.29
4128.00,1.29
4127.00,1.29
4126.00,1.29
4125.00,1.29
4124.00,1.29
4123.00,1.29
4122.00,1.29
4121.00,1.29
4120.00,1.29
4119.00,1.29
4118.00,1.29
4117.00,1.29
4116.00,1.29
4115.00,1.29
4114.00,1.29
4113.00,1.29
4112.00,1.29
4111.00,1.29
4110.00,1.29
4109.00,1.29
4108.00,1.29
4107.00,1.29
4106.00,1.29
4105.00,1.29
4104.00,1.29
4103.00,1.29
4102.00,1.29
4101.00,1.29
4100.00,1.29
4099.00,1.29
4098.00,1.29
4097.00,1.29
4096.00,1.29
4095.00,1.29
4094.00,1.29
4093.00,1.29
4092.00,1.29
4091.00,1.29
4090.00,1.29
4089.00,1.29
4088.00,1.29
4087.00,1.29
4086.00,1.29
4085.00,1.29
4084.00,1.29
4083.00,1.29
4082.00,1.29
4081.00,1.29
4080.00,1.29
4079.00,1.29
4078.00,1.29
4077.00,1.29
4076.00,1.29
4075.00,1.30
4074.00,1.30
4073.00,1.30
4072.00,1.30
4071.00,1.30
4070.00,1.30
4069.00,1.30
4068.00,1.31
4067.00,1.31
4066.00,1.31
4065.00,1.31
4064.00,1.31
4063.00,1.31
4062.00,1.31
4061.00,1.32
4060.00,1.32
4059.00,1.32
4058.00,1.32
4057.00,1.32
4056.00,1.32
4055.00,1.32
4054.00,1.32
4053.00,1.32
4052.00,1.32
4051.00,1.32
4050.00,1.32
4049.00,1.32
4048.00,1.32
4047.00,1.32
4046.00,1.32
4045.00,1.32
4044.00,1.32
4043.00,1.32
4042.00,1.32
4041.00,1.32
4040.00,1.32
4039.00,1.32
4038.00,1.32
4037.00,1.32
4036.00,1.32
4035.00,1.32
4034.00,1.33
4033.00,1.33
4032.00,1.33
4031.00,1.33
4030.00,1.33
4029.00,1.33
4028.00,1.33
4027.00,1.33
4026.00,1.33
4025.00,1.33
4024.00,1.33
4023.00,1.33
4022.00,1.33
4021.00,1.32
4020.00,1.32
4019.00,1.32
4018.00,1.32
4017.00,1.32
4016.00,1.32
4015.00,1.32
4014.00,1.32
4013.00,1.32
4012.00,1.32
4011.00,1.32
4010.00,1.32
4009.00,1.32
4008.00,1.32
4007.00,1.32
4006.00,1.33
4005.00,1.33
4004.00,1.33
4003.00,1.34
4002.00,1.34
4001.00,1.34
4000.00,1.35
