创建为新数据集,样品 061 用户 Administrator 日期 星期五, 七月 20 2018
cm-1,%T
10000.00,1.41
9999.00,1.40
9998.00,1.40
9997.00,1.40
9996.00,1.40
9995.00,1.40
9994.00,1.40
9993.00,1.40
9992.00,1.40
9991.00,1.40
9990.00,1.40
9989.00,1.40
9988.00,1.41
9987.00,1.41
9986.00,1.41
9985.00,1.41
9984.00,1.41
9983.00,1.41
9982.00,1.41
9981.00,1.41
9980.00,1.40
9979.00,1.40
9978.00,1.40
9977.00,1.40
9976.00,1.40
9975.00,1.40
9974.00,1.40
9973.00,1.40
9972.00,1.40
9971.00,1.40
9970.00,1.39
9969.00,1.39
9968.00,1.39
9967.00,1.39
9966.00,1.39
9965.00,1.39
9964.00,1.39
9963.00,1.39
9962.00,1.39
9961.00,1.39
9960.00,1.39
9959.00,1.39
9958.00,1.38
9957.00,1.38
9956.00,1.38
9955.00,1.38
9954.00,1.38
9953.00,1.39
9952.00,1.39
9951.00,1.39
9950.00,1.39
9949.00,1.39
9948.00,1.39
9947.00,1.39
9946.00,1.39
9945.00,1.39
9944.00,1.39
9943.00,1.39
9942.00,1.39
9941.00,1.39
9940.00,1.39
9939.00,1.39
9938.00,1.39
9937.00,1.39
9936.00,1.39
9935.00,1.39
9934.00,1.39
9933.00,1.39
9932.00,1.39
9931.00,1.39
9930.00,1.39
9929.00,1.39
9928.00,1.39
9927.00,1.39
9926.00,1.39
9925.00,1.39
9924.00,1.39
9923.00,1.39
9922.00,1.38
9921.00,1.38
9920.00,1.38
9919.00,1.37
9918.00,1.37
9917.00,1.37
9916.00,1.37
9915.00,1.36
9914.00,1.36
9913.00,1.36
9912.00,1.36
9911.00,1.36
9910.00,1.35
9909.00,1.35
9908.00,1.35
9907.00,1.35
9906.00,1.35
9905.00,1.35
9904.00,1.36
9903.00,1.36
9902.00,1.36
9901.00,1.36
9900.00,1.36
9899.00,1.36
9898.00,1.37
9897.00,1.37
9896.00,1.37
9895.00,1.37
9894.00,1.38
9893.00,1.38
9892.00,1.38
9891.00,1.38
9890.00,1.38
9889.00,1.39
9888.00,1.39
9887.00,1.39
9886.00,1.39
9885.00,1.39
9884.00,1.39
9883.00,1.39
9882.00,1.39
9881.00,1.39
9880.00,1.39
9879.00,1.39
9878.00,1.39
9877.00,1.39
9876.00,1.39
9875.00,1.39
9874.00,1.39
9873.00,1.39
9872.00,1.39
9871.00,1.39
9870.00,1.39
9869.00,1.39
9868.00,1.39
9867.00,1.39
9866.00,1.40
9865.00,1.40
9864.00,1.40
9863.00,1.40
9862.00,1.40
9861.00,1.40
9860.00,1.40
9859.00,1.39
9858.00,1.39
9857.00,1.39
9856.00,1.39
9855.00,1.39
9854.00,1.39
9853.00,1.39
9852.00,1.39
9851.00,1.39
9850.00,1.39
9849.00,1.39
9848.00,1.39
9847.00,1.39
9846.00,1.39
9845.00,1.39
9844.00,1.39
9843.00,1.40
9842.00,1.40
9841.00,1.40
9840.00,1.40
9839.00,1.40
9838.00,1.40
9837.00,1.40
9836.00,1.40
9835.00,1.40
9834.00,1.40
9833.00,1.40
9832.00,1.40
9831.00,1.40
9830.00,1.40
9829.00,1.39
9828.00,1.39
9827.00,1.39
9826.00,1.39
9825.00,1.38
9824.00,1.38
9823.00,1.38
9822.00,1.38
9821.00,1.38
9820.00,1.38
9819.00,1.37
9818.00,1.37
9817.00,1.37
9816.00,1.37
9815.00,1.37
9814.00,1.37
9813.00,1.37
9812.00,1.37
9811.00,1.37
9810.00,1.37
9809.00,1.37
9808.00,1.37
9807.00,1.37
9806.00,1.37
9805.00,1.37
9804.00,1.37
9803.00,1.37
9802.00,1.37
9801.00,1.37
9800.00,1.37
9799.00,1.36
9798.00,1.36
9797.00,1.36
9796.00,1.36
9795.00,1.36
9794.00,1.36
9793.00,1.36
9792.00,1.36
9791.00,1.36
9790.00,1.36
9789.00,1.36
9788.00,1.36
9787.00,1.36
9786.00,1.37
9785.00,1.37
9784.00,1.37
9783.00,1.38
9782.00,1.38
9781.00,1.38
9780.00,1.39
9779.00,1.39
9778.00,1.39
9777.00,1.39
9776.00,1.40
9775.00,1.40
9774.00,1.40
9773.00,1.40
9772.00,1.40
9771.00,1.40
9770.00,1.40
9769.00,1.40
9768.00,1.39
9767.00,1.39
9766.00,1.39
9765.00,1.39
9764.00,1.39
9763.00,1.39
9762.00,1.38
9761.00,1.38
9760.00,1.38
9759.00,1.38
9758.00,1.38
9757.00,1.38
9756.00,1.38
9755.00,1.38
9754.00,1.38
9753.00,1.38
9752.00,1.38
9751.00,1.38
9750.00,1.38
9749.00,1.38
9748.00,1.38
9747.00,1.38
9746.00,1.38
9745.00,1.38
9744.00,1.38
9743.00,1.39
9742.00,1.39
9741.00,1.39
9740.00,1.39
9739.00,1.39
9738.00,1.39
9737.00,1.39
9736.00,1.39
9735.00,1.40
9734.00,1.40
9733.00,1.40
9732.00,1.40
9731.00,1.40
9730.00,1.40
9729.00,1.40
9728.00,1.40
9727.00,1.40
9726.00,1.40
9725.00,1.40
9724.00,1.40
9723.00,1.40
9722.00,1.40
9721.00,1.40
9720.00,1.40
9719.00,1.40
9718.00,1.40
9717.00,1.40
9716.00,1.39
9715.00,1.39
9714.00,1.39
9713.00,1.39
9712.00,1.39
9711.00,1.39
9710.00,1.39
9709.00,1.38
9708.00,1.38
9707.00,1.38
9706.00,1.38
9705.00,1.38
9704.00,1.38
9703.00,1.38
9702.00,1.38
9701.00,1.38
9700.00,1.38
9699.00,1.38
9698.00,1.39
9697.00,1.39
9696.00,1.39
9695.00,1.39
9694.00,1.39
9693.00,1.39
9692.00,1.39
9691.00,1.39
9690.00,1.39
9689.00,1.39
9688.00,1.39
9687.00,1.38
9686.00,1.38
9685.00,1.38
9684.00,1.38
9683.00,1.38
9682.00,1.37
9681.00,1.37
9680.00,1.37
9679.00,1.37
9678.00,1.37
9677.00,1.36
9676.00,1.36
9675.00,1.36
9674.00,1.36
9673.00,1.36
9672.00,1.37
9671.00,1.37
9670.00,1.37
9669.00,1.37
9668.00,1.37
9667.00,1.37
9666.00,1.38
9665.00,1.38
9664.00,1.38
9663.00,1.38
9662.00,1.38
9661.00,1.39
9660.00,1.39
9659.00,1.39
9658.00,1.39
9657.00,1.39
9656.00,1.39
9655.00,1.39
9654.00,1.39
9653.00,1.39
9652.00,1.39
9651.00,1.39
9650.00,1.39
9649.00,1.39
9648.00,1.39
9647.00,1.39
9646.00,1.39
9645.00,1.39
9644.00,1.39
9643.00,1.39
9642.00,1.39
9641.00,1.39
9640.00,1.39
9639.00,1.39
9638.00,1.39
9637.00,1.39
9636.00,1.39
9635.00,1.38
9634.00,1.38
9633.00,1.38
9632.00,1.38
9631.00,1.38
9630.00,1.37
9629.00,1.37
9628.00,1.37
9627.00,1.37
9626.00,1.37
9625.00,1.37
9624.00,1.37
9623.00,1.37
9622.00,1.37
9621.00,1.37
9620.00,1.37
9619.00,1.37
9618.00,1.37
9617.00,1.37
9616.00,1.37
9615.00,1.38
9614.00,1.38
9613.00,1.38
9612.00,1.38
9611.00,1.38
9610.00,1.38
9609.00,1.38
9608.00,1.38
9607.00,1.38
9606.00,1.38
9605.00,1.39
9604.00,1.39
9603.00,1.39
9602.00,1.39
9601.00,1.39
9600.00,1.39
9599.00,1.39
9598.00,1.39
9597.00,1.39
9596.00,1.39
9595.00,1.39
9594.00,1.39
9593.00,1.39
9592.00,1.39
9591.00,1.39
9590.00,1.39
9589.00,1.39
9588.00,1.39
9587.00,1.39
9586.00,1.39
9585.00,1.39
9584.00,1.39
9583.00,1.39
9582.00,1.39
9581.00,1.39
9580.00,1.39
9579.00,1.39
9578.00,1.39
9577.00,1.39
9576.00,1.39
9575.00,1.39
9574.00,1.39
9573.00,1.39
9572.00,1.39
9571.00,1.39
9570.00,1.40
9569.00,1.40
9568.00,1.40
9567.00,1.40
9566.00,1.40
9565.00,1.40
9564.00,1.40
9563.00,1.39
9562.00,1.39
9561.00,1.39
9560.00,1.39
9559.00,1.38
9558.00,1.38
9557.00,1.38
9556.00,1.37
9555.00,1.37
9554.00,1.37
9553.00,1.37
9552.00,1.36
9551.00,1.36
9550.00,1.36
9549.00,1.36
9548.00,1.36
9547.00,1.36
9546.00,1.36
9545.00,1.36
9544.00,1.36
9543.00,1.36
9542.00,1.36
9541.00,1.37
9540.00,1.37
9539.00,1.37
9538.00,1.37
9537.00,1.37
9536.00,1.38
9535.00,1.38
9534.00,1.38
9533.00,1.38
9532.00,1.39
9531.00,1.39
9530.00,1.39
9529.00,1.39
9528.00,1.40
9527.00,1.40
9526.00,1.40
9525.00,1.40
9524.00,1.40
9523.00,1.40
9522.00,1.40
9521.00,1.40
9520.00,1.40
9519.00,1.40
9518.00,1.40
9517.00,1.40
9516.00,1.40
9515.00,1.39
9514.00,1.39
9513.00,1.39
9512.00,1.39
9511.00,1.39
9510.00,1.38
9509.00,1.38
9508.00,1.38
9507.00,1.38
9506.00,1.38
9505.00,1.38
9504.00,1.38
9503.00,1.37
9502.00,1.37
9501.00,1.37
9500.00,1.37
9499.00,1.37
9498.00,1.37
9497.00,1.37
9496.00,1.37
9495.00,1.37
9494.00,1.37
9493.00,1.37
9492.00,1.38
9491.00,1.38
9490.00,1.38
9489.00,1.38
9488.00,1.38
9487.00,1.38
9486.00,1.38
9485.00,1.38
9484.00,1.39
9483.00,1.39
9482.00,1.39
9481.00,1.39
9480.00,1.39
9479.00,1.39
9478.00,1.39
9477.00,1.40
9476.00,1.40
9475.00,1.40
9474.00,1.40
9473.00,1.40
9472.00,1.40
9471.00,1.40
9470.00,1.40
9469.00,1.39
9468.00,1.39
9467.00,1.39
9466.00,1.39
9465.00,1.39
9464.00,1.39
9463.00,1.38
9462.00,1.38
9461.00,1.38
9460.00,1.38
9459.00,1.38
9458.00,1.37
9457.00,1.37
9456.00,1.37
9455.00,1.37
9454.00,1.37
9453.00,1.37
9452.00,1.37
9451.00,1.36
9450.00,1.36
9449.00,1.36
9448.00,1.36
9447.00,1.36
9446.00,1.36
9445.00,1.36
9444.00,1.36
9443.00,1.36
9442.00,1.36
9441.00,1.36
9440.00,1.36
9439.00,1.36
9438.00,1.36
9437.00,1.36
9436.00,1.36
9435.00,1.37
9434.00,1.37
9433.00,1.37
9432.00,1.37
9431.00,1.37
9430.00,1.38
9429.00,1.38
9428.00,1.38
9427.00,1.38
9426.00,1.38
9425.00,1.39
9424.00,1.39
9423.00,1.39
9422.00,1.39
9421.00,1.39
9420.00,1.39
9419.00,1.39
9418.00,1.39
9417.00,1.39
9416.00,1.39
9415.00,1.39
9414.00,1.39
9413.00,1.39
9412.00,1.39
9411.00,1.39
9410.00,1.39
9409.00,1.39
9408.00,1.38
9407.00,1.38
9406.00,1.38
9405.00,1.38
9404.00,1.38
9403.00,1.38
9402.00,1.38
9401.00,1.38
9400.00,1.38
9399.00,1.38
9398.00,1.38
9397.00,1.38
9396.00,1.38
9395.00,1.38
9394.00,1.38
9393.00,1.38
9392.00,1.38
9391.00,1.38
9390.00,1.38
9389.00,1.38
9388.00,1.38
9387.00,1.38
9386.00,1.38
9385.00,1.38
9384.00,1.38
9383.00,1.38
9382.00,1.38
9381.00,1.37
9380.00,1.37
9379.00,1.37
9378.00,1.37
9377.00,1.37
9376.00,1.37
9375.00,1.36
9374.00,1.36
9373.00,1.36
9372.00,1.36
9371.00,1.36
9370.00,1.36
9369.00,1.36
9368.00,1.36
9367.00,1.37
9366.00,1.37
9365.00,1.37
9364.00,1.37
9363.00,1.37
9362.00,1.38
9361.00,1.38
9360.00,1.38
9359.00,1.38
9358.00,1.39
9357.00,1.39
9356.00,1.39
9355.00,1.39
9354.00,1.39
9353.00,1.39
9352.00,1.39
9351.00,1.39
9350.00,1.39
9349.00,1.39
9348.00,1.39
9347.00,1.39
9346.00,1.39
9345.00,1.38
9344.00,1.38
9343.00,1.38
9342.00,1.38
9341.00,1.38
9340.00,1.38
9339.00,1.37
9338.00,1.37
9337.00,1.37
9336.00,1.37
9335.00,1.37
9334.00,1.37
9333.00,1.37
9332.00,1.37
9331.00,1.37
9330.00,1.37
9329.00,1.37
9328.00,1.37
9327.00,1.37
9326.00,1.37
9325.00,1.37
9324.00,1.37
9323.00,1.37
9322.00,1.37
9321.00,1.38
9320.00,1.38
9319.00,1.38
9318.00,1.38
9317.00,1.38
9316.00,1.38
9315.00,1.38
9314.00,1.38
9313.00,1.38
9312.00,1.38
9311.00,1.38
9310.00,1.38
9309.00,1.38
9308.00,1.38
9307.00,1.38
9306.00,1.38
9305.00,1.38
9304.00,1.38
9303.00,1.38
9302.00,1.38
9301.00,1.38
9300.00,1.38
9299.00,1.38
9298.00,1.38
9297.00,1.38
9296.00,1.39
9295.00,1.39
9294.00,1.39
9293.00,1.39
9292.00,1.39
9291.00,1.39
9290.00,1.39
9289.00,1.39
9288.00,1.39
9287.00,1.39
9286.00,1.40
9285.00,1.40
9284.00,1.39
9283.00,1.39
9282.00,1.39
9281.00,1.39
9280.00,1.39
9279.00,1.39
9278.00,1.39
9277.00,1.39
9276.00,1.39
9275.00,1.39
9274.00,1.39
9273.00,1.39
9272.00,1.39
9271.00,1.39
9270.00,1.39
9269.00,1.40
9268.00,1.40
9267.00,1.40
9266.00,1.40
9265.00,1.40
9264.00,1.40
9263.00,1.40
9262.00,1.40
9261.00,1.40
9260.00,1.40
9259.00,1.40
9258.00,1.40
9257.00,1.40
9256.00,1.40
9255.00,1.40
9254.00,1.40
9253.00,1.40
9252.00,1.40
9251.00,1.40
9250.00,1.40
9249.00,1.39
9248.00,1.39
9247.00,1.39
9246.00,1.39
9245.00,1.39
9244.00,1.39
9243.00,1.38
9242.00,1.38
9241.00,1.38
9240.00,1.38
9239.00,1.38
9238.00,1.38
9237.00,1.37
9236.00,1.37
9235.00,1.37
9234.00,1.37
9233.00,1.37
9232.00,1.37
9231.00,1.37
9230.00,1.37
9229.00,1.38
9228.00,1.38
9227.00,1.38
9226.00,1.38
9225.00,1.38
9224.00,1.38
9223.00,1.39
9222.00,1.39
9221.00,1.39
9220.00,1.39
9219.00,1.39
9218.00,1.39
9217.00,1.39
9216.00,1.39
9215.00,1.39
9214.00,1.39
9213.00,1.39
9212.00,1.39
9211.00,1.39
9210.00,1.39
9209.00,1.39
9208.00,1.39
9207.00,1.39
9206.00,1.39
9205.00,1.39
9204.00,1.39
9203.00,1.39
9202.00,1.40
9201.00,1.40
9200.00,1.40
9199.00,1.40
9198.00,1.40
9197.00,1.40
9196.00,1.40
9195.00,1.40
9194.00,1.40
9193.00,1.40
9192.00,1.40
9191.00,1.40
9190.00,1.40
9189.00,1.40
9188.00,1.40
9187.00,1.39
9186.00,1.39
9185.00,1.39
9184.00,1.39
9183.00,1.39
9182.00,1.39
9181.00,1.39
9180.00,1.39
9179.00,1.40
9178.00,1.40
9177.00,1.39
9176.00,1.39
9175.00,1.39
9174.00,1.39
9173.00,1.39
9172.00,1.39
9171.00,1.39
9170.00,1.39
9169.00,1.39
9168.00,1.39
9167.00,1.39
9166.00,1.39
9165.00,1.39
9164.00,1.39
9163.00,1.39
9162.00,1.39
9161.00,1.39
9160.00,1.39
9159.00,1.39
9158.00,1.39
9157.00,1.39
9156.00,1.39
9155.00,1.39
9154.00,1.39
9153.00,1.39
9152.00,1.39
9151.00,1.39
9150.00,1.39
9149.00,1.39
9148.00,1.39
9147.00,1.39
9146.00,1.39
9145.00,1.39
9144.00,1.39
9143.00,1.39
9142.00,1.39
9141.00,1.39
9140.00,1.40
9139.00,1.40
9138.00,1.40
9137.00,1.40
9136.00,1.40
9135.00,1.40
9134.00,1.40
9133.00,1.40
9132.00,1.40
9131.00,1.40
9130.00,1.40
9129.00,1.39
9128.00,1.39
9127.00,1.39
9126.00,1.39
9125.00,1.39
9124.00,1.39
9123.00,1.39
9122.00,1.39
9121.00,1.38
9120.00,1.38
9119.00,1.38
9118.00,1.38
9117.00,1.38
9116.00,1.38
9115.00,1.38
9114.00,1.38
9113.00,1.38
9112.00,1.38
9111.00,1.39
9110.00,1.39
9109.00,1.39
9108.00,1.39
9107.00,1.39
9106.00,1.39
9105.00,1.40
9104.00,1.40
9103.00,1.40
9102.00,1.40
9101.00,1.40
9100.00,1.40
9099.00,1.40
9098.00,1.40
9097.00,1.40
9096.00,1.40
9095.00,1.40
9094.00,1.40
9093.00,1.40
9092.00,1.39
9091.00,1.39
9090.00,1.39
9089.00,1.39
9088.00,1.39
9087.00,1.39
9086.00,1.39
9085.00,1.39
9084.00,1.39
9083.00,1.39
9082.00,1.39
9081.00,1.39
9080.00,1.39
9079.00,1.39
9078.00,1.39
9077.00,1.39
9076.00,1.39
9075.00,1.39
9074.00,1.39
9073.00,1.39
9072.00,1.39
9071.00,1.39
9070.00,1.39
9069.00,1.39
9068.00,1.39
9067.00,1.39
9066.00,1.39
9065.00,1.39
9064.00,1.39
9063.00,1.39
9062.00,1.39
9061.00,1.38
9060.00,1.38
9059.00,1.38
9058.00,1.38
9057.00,1.38
9056.00,1.38
9055.00,1.38
9054.00,1.38
9053.00,1.38
9052.00,1.38
9051.00,1.38
9050.00,1.38
9049.00,1.38
9048.00,1.38
9047.00,1.38
9046.00,1.38
9045.00,1.38
9044.00,1.38
9043.00,1.38
9042.00,1.38
9041.00,1.38
9040.00,1.38
9039.00,1.39
9038.00,1.39
9037.00,1.39
9036.00,1.39
9035.00,1.39
9034.00,1.39
9033.00,1.39
9032.00,1.40
9031.00,1.40
9030.00,1.40
9029.00,1.40
9028.00,1.40
9027.00,1.40
9026.00,1.40
9025.00,1.40
9024.00,1.40
9023.00,1.40
9022.00,1.40
9021.00,1.40
9020.00,1.40
9019.00,1.40
9018.00,1.40
9017.00,1.40
9016.00,1.40
9015.00,1.40
9014.00,1.40
9013.00,1.40
9012.00,1.40
9011.00,1.40
9010.00,1.40
9009.00,1.40
9008.00,1.40
9007.00,1.39
9006.00,1.39
9005.00,1.39
9004.00,1.39
9003.00,1.39
9002.00,1.39
9001.00,1.39
9000.00,1.39
8999.00,1.38
8998.00,1.38
8997.00,1.38
8996.00,1.38
8995.00,1.38
8994.00,1.38
8993.00,1.39
8992.00,1.39
8991.00,1.39
8990.00,1.39
8989.00,1.39
8988.00,1.39
8987.00,1.39
8986.00,1.39
8985.00,1.39
8984.00,1.39
8983.00,1.39
8982.00,1.39
8981.00,1.39
8980.00,1.39
8979.00,1.39
8978.00,1.39
8977.00,1.39
8976.00,1.40
8975.00,1.40
8974.00,1.40
8973.00,1.40
8972.00,1.40
8971.00,1.40
8970.00,1.40
8969.00,1.40
8968.00,1.40
8967.00,1.40
8966.00,1.40
8965.00,1.39
8964.00,1.39
8963.00,1.39
8962.00,1.39
8961.00,1.39
8960.00,1.39
8959.00,1.39
8958.00,1.39
8957.00,1.39
8956.00,1.39
8955.00,1.39
8954.00,1.38
8953.00,1.38
8952.00,1.38
8951.00,1.39
8950.00,1.39
8949.00,1.39
8948.00,1.39
8947.00,1.39
8946.00,1.39
8945.00,1.39
8944.00,1.39
8943.00,1.39
8942.00,1.39
8941.00,1.39
8940.00,1.39
8939.00,1.39
8938.00,1.39
8937.00,1.39
8936.00,1.39
8935.00,1.39
8934.00,1.39
8933.00,1.39
8932.00,1.39
8931.00,1.39
8930.00,1.38
8929.00,1.38
8928.00,1.38
8927.00,1.38
8926.00,1.38
8925.00,1.38
8924.00,1.38
8923.00,1.38
8922.00,1.38
8921.00,1.38
8920.00,1.38
8919.00,1.38
8918.00,1.38
8917.00,1.37
8916.00,1.37
8915.00,1.37
8914.00,1.37
8913.00,1.37
8912.00,1.37
8911.00,1.37
8910.00,1.37
8909.00,1.37
8908.00,1.38
8907.00,1.38
8906.00,1.38
8905.00,1.38
8904.00,1.38
8903.00,1.38
8902.00,1.38
8901.00,1.38
8900.00,1.38
8899.00,1.38
8898.00,1.38
8897.00,1.38
8896.00,1.38
8895.00,1.38
8894.00,1.38
8893.00,1.38
8892.00,1.39
8891.00,1.39
8890.00,1.39
8889.00,1.39
8888.00,1.39
8887.00,1.39
8886.00,1.39
8885.00,1.39
8884.00,1.39
8883.00,1.39
8882.00,1.39
8881.00,1.39
8880.00,1.39
8879.00,1.39
8878.00,1.38
8877.00,1.38
8876.00,1.38
8875.00,1.38
8874.00,1.38
8873.00,1.38
8872.00,1.38
8871.00,1.38
8870.00,1.38
8869.00,1.38
8868.00,1.38
8867.00,1.39
8866.00,1.39
8865.00,1.39
8864.00,1.39
8863.00,1.39
8862.00,1.39
8861.00,1.39
8860.00,1.39
8859.00,1.39
8858.00,1.39
8857.00,1.39
8856.00,1.39
8855.00,1.39
8854.00,1.39
8853.00,1.39
8852.00,1.39
8851.00,1.39
8850.00,1.39
8849.00,1.39
8848.00,1.39
8847.00,1.39
8846.00,1.38
8845.00,1.38
8844.00,1.38
8843.00,1.38
8842.00,1.38
8841.00,1.38
8840.00,1.39
8839.00,1.39
8838.00,1.39
8837.00,1.39
8836.00,1.39
8835.00,1.39
8834.00,1.39
8833.00,1.39
8832.00,1.39
8831.00,1.39
8830.00,1.39
8829.00,1.39
8828.00,1.39
8827.00,1.39
8826.00,1.39
8825.00,1.39
8824.00,1.39
8823.00,1.39
8822.00,1.39
8821.00,1.38
8820.00,1.38
8819.00,1.38
8818.00,1.38
8817.00,1.38
8816.00,1.37
8815.00,1.37
8814.00,1.37
8813.00,1.37
8812.00,1.37
8811.00,1.37
8810.00,1.37
8809.00,1.37
8808.00,1.37
8807.00,1.37
8806.00,1.37
8805.00,1.37
8804.00,1.37
8803.00,1.37
8802.00,1.37
8801.00,1.37
8800.00,1.37
8799.00,1.37
8798.00,1.37
8797.00,1.36
8796.00,1.36
8795.00,1.36
8794.00,1.36
8793.00,1.36
8792.00,1.36
8791.00,1.36
8790.00,1.36
8789.00,1.36
8788.00,1.36
8787.00,1.36
8786.00,1.35
8785.00,1.35
8784.00,1.35
8783.00,1.35
8782.00,1.35
8781.00,1.35
8780.00,1.35
8779.00,1.35
8778.00,1.35
8777.00,1.35
8776.00,1.35
8775.00,1.35
8774.00,1.35
8773.00,1.35
8772.00,1.35
8771.00,1.36
8770.00,1.36
8769.00,1.36
8768.00,1.36
8767.00,1.36
8766.00,1.36
8765.00,1.36
8764.00,1.36
8763.00,1.36
8762.00,1.36
8761.00,1.36
8760.00,1.36
8759.00,1.36
8758.00,1.36
8757.00,1.36
8756.00,1.35
8755.00,1.35
8754.00,1.35
8753.00,1.35
8752.00,1.35
8751.00,1.34
8750.00,1.34
8749.00,1.34
8748.00,1.34
8747.00,1.33
8746.00,1.33
8745.00,1.33
8744.00,1.33
8743.00,1.33
8742.00,1.33
8741.00,1.32
8740.00,1.32
8739.00,1.32
8738.00,1.33
8737.00,1.33
8736.00,1.33
8735.00,1.33
8734.00,1.33
8733.00,1.33
8732.00,1.33
8731.00,1.33
8730.00,1.33
8729.00,1.33
8728.00,1.33
8727.00,1.33
8726.00,1.33
8725.00,1.33
8724.00,1.33
8723.00,1.33
8722.00,1.33
8721.00,1.33
8720.00,1.33
8719.00,1.33
8718.00,1.32
8717.00,1.32
8716.00,1.32
8715.00,1.32
8714.00,1.32
8713.00,1.32
8712.00,1.32
8711.00,1.32
8710.00,1.32
8709.00,1.32
8708.00,1.32
8707.00,1.32
8706.00,1.32
8705.00,1.32
8704.00,1.32
8703.00,1.32
8702.00,1.32
8701.00,1.31
8700.00,1.31
8699.00,1.31
8698.00,1.31
8697.00,1.31
8696.00,1.31
8695.00,1.31
8694.00,1.31
8693.00,1.31
8692.00,1.31
8691.00,1.31
8690.00,1.31
8689.00,1.31
8688.00,1.31
8687.00,1.31
8686.00,1.31
8685.00,1.31
8684.00,1.31
8683.00,1.31
8682.00,1.31
8681.00,1.31
8680.00,1.31
8679.00,1.31
8678.00,1.31
8677.00,1.31
8676.00,1.31
8675.00,1.31
8674.00,1.31
8673.00,1.31
8672.00,1.31
8671.00,1.31
8670.00,1.31
8669.00,1.31
8668.00,1.31
8667.00,1.31
8666.00,1.31
8665.00,1.31
8664.00,1.31
8663.00,1.31
8662.00,1.31
8661.00,1.31
8660.00,1.31
8659.00,1.31
8658.00,1.31
8657.00,1.31
8656.00,1.31
8655.00,1.31
8654.00,1.31
8653.00,1.31
8652.00,1.31
8651.00,1.31
8650.00,1.31
8649.00,1.31
8648.00,1.31
8647.00,1.31
8646.00,1.31
8645.00,1.31
8644.00,1.31
8643.00,1.31
8642.00,1.31
8641.00,1.31
8640.00,1.31
8639.00,1.31
8638.00,1.31
8637.00,1.31
8636.00,1.31
8635.00,1.31
8634.00,1.31
8633.00,1.31
8632.00,1.31
8631.00,1.31
8630.00,1.31
8629.00,1.31
8628.00,1.31
8627.00,1.31
8626.00,1.32
8625.00,1.32
8624.00,1.32
8623.00,1.32
8622.00,1.31
8621.00,1.31
8620.00,1.31
8619.00,1.31
8618.00,1.31
8617.00,1.31
8616.00,1.31
8615.00,1.31
8614.00,1.31
8613.00,1.31
8612.00,1.30
8611.00,1.30
8610.00,1.30
8609.00,1.30
8608.00,1.30
8607.00,1.30
8606.00,1.30
8605.00,1.30
8604.00,1.29
8603.00,1.29
8602.00,1.29
8601.00,1.29
8600.00,1.29
8599.00,1.29
8598.00,1.29
8597.00,1.29
8596.00,1.29
8595.00,1.29
8594.00,1.29
8593.00,1.29
8592.00,1.29
8591.00,1.29
8590.00,1.29
8589.00,1.29
8588.00,1.29
8587.00,1.29
8586.00,1.29
8585.00,1.29
8584.00,1.29
8583.00,1.29
8582.00,1.29
8581.00,1.29
8580.00,1.29
8579.00,1.29
8578.00,1.29
8577.00,1.29
8576.00,1.29
8575.00,1.29
8574.00,1.29
8573.00,1.29
8572.00,1.29
8571.00,1.29
8570.00,1.29
8569.00,1.29
8568.00,1.29
8567.00,1.29
8566.00,1.29
8565.00,1.29
8564.00,1.29
8563.00,1.29
8562.00,1.29
8561.00,1.29
8560.00,1.29
8559.00,1.29
8558.00,1.29
8557.00,1.29
8556.00,1.29
8555.00,1.29
8554.00,1.28
8553.00,1.28
8552.00,1.28
8551.00,1.28
8550.00,1.28
8549.00,1.28
8548.00,1.28
8547.00,1.28
8546.00,1.28
8545.00,1.28
8544.00,1.28
8543.00,1.28
8542.00,1.28
8541.00,1.28
8540.00,1.28
8539.00,1.28
8538.00,1.28
8537.00,1.28
8536.00,1.28
8535.00,1.28
8534.00,1.28
8533.00,1.28
8532.00,1.28
8531.00,1.28
8530.00,1.28
8529.00,1.27
8528.00,1.27
8527.00,1.27
8526.00,1.27
8525.00,1.27
8524.00,1.27
8523.00,1.27
8522.00,1.27
8521.00,1.27
8520.00,1.27
8519.00,1.26
8518.00,1.26
8517.00,1.26
8516.00,1.26
8515.00,1.26
8514.00,1.26
8513.00,1.26
8512.00,1.26
8511.00,1.25
8510.00,1.25
8509.00,1.25
8508.00,1.25
8507.00,1.25
8506.00,1.25
8505.00,1.25
8504.00,1.25
8503.00,1.25
8502.00,1.25
8501.00,1.25
8500.00,1.25
8499.00,1.25
8498.00,1.25
8497.00,1.25
8496.00,1.25
8495.00,1.25
8494.00,1.25
8493.00,1.25
8492.00,1.25
8491.00,1.25
8490.00,1.25
8489.00,1.25
8488.00,1.25
8487.00,1.25
8486.00,1.25
8485.00,1.25
8484.00,1.25
8483.00,1.25
8482.00,1.25
8481.00,1.25
8480.00,1.25
8479.00,1.25
8478.00,1.25
8477.00,1.25
8476.00,1.25
8475.00,1.25
8474.00,1.25
8473.00,1.25
8472.00,1.25
8471.00,1.25
8470.00,1.25
8469.00,1.24
8468.00,1.24
8467.00,1.24
8466.00,1.24
8465.00,1.24
8464.00,1.24
8463.00,1.24
8462.00,1.24
8461.00,1.24
8460.00,1.23
8459.00,1.23
8458.00,1.23
8457.00,1.23
8456.00,1.23
8455.00,1.23
8454.00,1.23
8453.00,1.23
8452.00,1.23
8451.00,1.23
8450.00,1.23
8449.00,1.23
8448.00,1.23
8447.00,1.22
8446.00,1.22
8445.00,1.22
8444.00,1.22
8443.00,1.22
8442.00,1.22
8441.00,1.22
8440.00,1.22
8439.00,1.22
8438.00,1.22
8437.00,1.23
8436.00,1.23
8435.00,1.23
8434.00,1.23
8433.00,1.23
8432.00,1.23
8431.00,1.24
8430.00,1.24
8429.00,1.24
8428.00,1.24
8427.00,1.24
8426.00,1.25
8425.00,1.25
8424.00,1.25
8423.00,1.25
8422.00,1.25
8421.00,1.25
8420.00,1.25
8419.00,1.25
8418.00,1.25
8417.00,1.25
8416.00,1.25
8415.00,1.25
8414.00,1.25
8413.00,1.25
8412.00,1.25
8411.00,1.25
8410.00,1.24
8409.00,1.24
8408.00,1.24
8407.00,1.24
8406.00,1.24
8405.00,1.24
8404.00,1.24
8403.00,1.24
8402.00,1.24
8401.00,1.24
8400.00,1.24
8399.00,1.24
8398.00,1.24
8397.00,1.24
8396.00,1.24
8395.00,1.24
8394.00,1.24
8393.00,1.24
8392.00,1.24
8391.00,1.24
8390.00,1.24
8389.00,1.24
8388.00,1.24
8387.00,1.25
8386.00,1.25
8385.00,1.25
8384.00,1.25
8383.00,1.25
8382.00,1.25
8381.00,1.25
8380.00,1.25
8379.00,1.26
8378.00,1.26
8377.00,1.26
8376.00,1.26
8375.00,1.26
8374.00,1.26
8373.00,1.26
8372.00,1.26
8371.00,1.26
8370.00,1.26
8369.00,1.26
8368.00,1.26
8367.00,1.26
8366.00,1.26
8365.00,1.27
8364.00,1.27
8363.00,1.27
8362.00,1.27
8361.00,1.27
8360.00,1.27
8359.00,1.27
8358.00,1.27
8357.00,1.27
8356.00,1.27
8355.00,1.27
8354.00,1.27
8353.00,1.27
8352.00,1.27
8351.00,1.28
8350.00,1.28
8349.00,1.28
8348.00,1.28
8347.00,1.28
8346.00,1.28
8345.00,1.28
8344.00,1.28
8343.00,1.28
8342.00,1.28
8341.00,1.28
8340.00,1.28
8339.00,1.28
8338.00,1.28
8337.00,1.28
8336.00,1.28
8335.00,1.28
8334.00,1.28
8333.00,1.28
8332.00,1.28
8331.00,1.28
8330.00,1.28
8329.00,1.28
8328.00,1.28
8327.00,1.28
8326.00,1.28
8325.00,1.28
8324.00,1.28
8323.00,1.28
8322.00,1.28
8321.00,1.28
8320.00,1.28
8319.00,1.28
8318.00,1.28
8317.00,1.28
8316.00,1.28
8315.00,1.28
8314.00,1.28
8313.00,1.28
8312.00,1.28
8311.00,1.28
8310.00,1.28
8309.00,1.28
8308.00,1.28
8307.00,1.28
8306.00,1.28
8305.00,1.28
8304.00,1.28
8303.00,1.28
8302.00,1.29
8301.00,1.29
8300.00,1.29
8299.00,1.29
8298.00,1.29
8297.00,1.28
8296.00,1.28
8295.00,1.28
8294.00,1.28
8293.00,1.28
8292.00,1.28
8291.00,1.28
8290.00,1.28
8289.00,1.28
8288.00,1.28
8287.00,1.28
8286.00,1.28
8285.00,1.28
8284.00,1.28
8283.00,1.28
8282.00,1.29
8281.00,1.29
8280.00,1.29
8279.00,1.29
8278.00,1.29
8277.00,1.29
8276.00,1.29
8275.00,1.29
8274.00,1.29
8273.00,1.30
8272.00,1.30
8271.00,1.29
8270.00,1.29
8269.00,1.29
8268.00,1.29
8267.00,1.29
8266.00,1.29
8265.00,1.29
8264.00,1.29
8263.00,1.29
8262.00,1.29
8261.00,1.29
8260.00,1.28
8259.00,1.28
8258.00,1.28
8257.00,1.29
8256.00,1.29
8255.00,1.29
8254.00,1.29
8253.00,1.29
8252.00,1.29
8251.00,1.29
8250.00,1.29
8249.00,1.29
8248.00,1.29
8247.00,1.30
8246.00,1.30
8245.00,1.30
8244.00,1.30
8243.00,1.30
8242.00,1.30
8241.00,1.30
8240.00,1.30
8239.00,1.30
8238.00,1.30
8237.00,1.30
8236.00,1.30
8235.00,1.30
8234.00,1.30
8233.00,1.30
8232.00,1.30
8231.00,1.30
8230.00,1.30
8229.00,1.30
8228.00,1.30
8227.00,1.30
8226.00,1.30
8225.00,1.30
8224.00,1.30
8223.00,1.30
8222.00,1.30
8221.00,1.30
8220.00,1.30
8219.00,1.30
8218.00,1.30
8217.00,1.30
8216.00,1.30
8215.00,1.30
8214.00,1.30
8213.00,1.30
8212.00,1.30
8211.00,1.30
8210.00,1.30
8209.00,1.30
8208.00,1.30
8207.00,1.30
8206.00,1.30
8205.00,1.30
8204.00,1.30
8203.00,1.30
8202.00,1.30
8201.00,1.30
8200.00,1.30
8199.00,1.30
8198.00,1.30
8197.00,1.30
8196.00,1.30
8195.00,1.30
8194.00,1.30
8193.00,1.31
8192.00,1.31
8191.00,1.31
8190.00,1.31
8189.00,1.31
8188.00,1.31
8187.00,1.31
8186.00,1.31
8185.00,1.31
8184.00,1.31
8183.00,1.31
8182.00,1.31
8181.00,1.31
8180.00,1.31
8179.00,1.31
8178.00,1.31
8177.00,1.31
8176.00,1.31
8175.00,1.31
8174.00,1.31
8173.00,1.31
8172.00,1.31
8171.00,1.31
8170.00,1.31
8169.00,1.31
8168.00,1.31
8167.00,1.31
8166.00,1.31
8165.00,1.31
8164.00,1.31
8163.00,1.31
8162.00,1.31
8161.00,1.31
8160.00,1.31
8159.00,1.31
8158.00,1.31
8157.00,1.31
8156.00,1.32
8155.00,1.32
8154.00,1.32
8153.00,1.32
8152.00,1.32
8151.00,1.32
8150.00,1.32
8149.00,1.32
8148.00,1.32
8147.00,1.32
8146.00,1.32
8145.00,1.32
8144.00,1.32
8143.00,1.32
8142.00,1.32
8141.00,1.32
8140.00,1.32
8139.00,1.32
8138.00,1.32
8137.00,1.32
8136.00,1.32
8135.00,1.32
8134.00,1.32
8133.00,1.32
8132.00,1.32
8131.00,1.32
8130.00,1.32
8129.00,1.32
8128.00,1.32
8127.00,1.32
8126.00,1.32
8125.00,1.32
8124.00,1.33
8123.00,1.33
8122.00,1.33
8121.00,1.33
8120.00,1.33
8119.00,1.33
8118.00,1.33
8117.00,1.33
8116.00,1.33
8115.00,1.33
8114.00,1.32
8113.00,1.32
8112.00,1.32
8111.00,1.32
8110.00,1.32
8109.00,1.32
8108.00,1.32
8107.00,1.32
8106.00,1.32
8105.00,1.32
8104.00,1.32
8103.00,1.33
8102.00,1.33
8101.00,1.33
8100.00,1.33
8099.00,1.33
8098.00,1.33
8097.00,1.33
8096.00,1.33
8095.00,1.33
8094.00,1.33
8093.00,1.33
8092.00,1.33
8091.00,1.33
8090.00,1.33
8089.00,1.33
8088.00,1.33
8087.00,1.33
8086.00,1.33
8085.00,1.33
8084.00,1.33
8083.00,1.33
8082.00,1.33
8081.00,1.34
8080.00,1.34
8079.00,1.34
8078.00,1.34
8077.00,1.34
8076.00,1.34
8075.00,1.34
8074.00,1.34
8073.00,1.34
8072.00,1.34
8071.00,1.35
8070.00,1.35
8069.00,1.35
8068.00,1.35
8067.00,1.35
8066.00,1.35
8065.00,1.35
8064.00,1.35
8063.00,1.35
8062.00,1.35
8061.00,1.35
8060.00,1.35
8059.00,1.35
8058.00,1.35
8057.00,1.36
8056.00,1.36
8055.00,1.36
8054.00,1.36
8053.00,1.36
8052.00,1.36
8051.00,1.36
8050.00,1.36
8049.00,1.36
8048.00,1.36
8047.00,1.36
8046.00,1.36
8045.00,1.36
8044.00,1.36
8043.00,1.36
8042.00,1.35
8041.00,1.35
8040.00,1.35
8039.00,1.35
8038.00,1.35
8037.00,1.35
8036.00,1.35
8035.00,1.35
8034.00,1.35
8033.00,1.35
8032.00,1.35
8031.00,1.35
8030.00,1.35
8029.00,1.35
8028.00,1.35
8027.00,1.35
8026.00,1.35
8025.00,1.35
8024.00,1.35
8023.00,1.35
8022.00,1.35
8021.00,1.35
8020.00,1.35
8019.00,1.35
8018.00,1.35
8017.00,1.35
8016.00,1.35
8015.00,1.35
8014.00,1.35
8013.00,1.35
8012.00,1.35
8011.00,1.35
8010.00,1.35
8009.00,1.35
8008.00,1.35
8007.00,1.35
8006.00,1.35
8005.00,1.35
8004.00,1.35
8003.00,1.35
8002.00,1.35
8001.00,1.35
8000.00,1.35
7999.00,1.35
7998.00,1.35
7997.00,1.36
7996.00,1.36
7995.00,1.36
7994.00,1.36
7993.00,1.36
7992.00,1.36
7991.00,1.36
7990.00,1.36
7989.00,1.36
7988.00,1.36
7987.00,1.36
7986.00,1.36
7985.00,1.36
7984.00,1.36
7983.00,1.36
7982.00,1.37
7981.00,1.37
7980.00,1.37
7979.00,1.37
7978.00,1.37
7977.00,1.37
7976.00,1.37
7975.00,1.37
7974.00,1.37
7973.00,1.36
7972.00,1.36
7971.00,1.36
7970.00,1.36
7969.00,1.36
7968.00,1.36
7967.00,1.36
7966.00,1.36
7965.00,1.36
7964.00,1.36
7963.00,1.36
7962.00,1.37
7961.00,1.37
7960.00,1.37
7959.00,1.37
7958.00,1.37
7957.00,1.37
7956.00,1.37
7955.00,1.37
7954.00,1.37
7953.00,1.36
7952.00,1.36
7951.00,1.36
7950.00,1.36
7949.00,1.36
7948.00,1.36
7947.00,1.36
7946.00,1.36
7945.00,1.36
7944.00,1.36
7943.00,1.36
7942.00,1.36
7941.00,1.36
7940.00,1.36
7939.00,1.36
7938.00,1.36
7937.00,1.36
7936.00,1.36
7935.00,1.36
7934.00,1.36
7933.00,1.37
7932.00,1.37
7931.00,1.37
7930.00,1.37
7929.00,1.37
7928.00,1.37
7927.00,1.37
7926.00,1.37
7925.00,1.37
7924.00,1.37
7923.00,1.37
7922.00,1.37
7921.00,1.37
7920.00,1.38
7919.00,1.38
7918.00,1.38
7917.00,1.38
7916.00,1.38
7915.00,1.38
7914.00,1.38
7913.00,1.38
7912.00,1.38
7911.00,1.38
7910.00,1.38
7909.00,1.38
7908.00,1.38
7907.00,1.38
7906.00,1.38
7905.00,1.38
7904.00,1.38
7903.00,1.38
7902.00,1.38
7901.00,1.38
7900.00,1.38
7899.00,1.38
7898.00,1.38
7897.00,1.38
7896.00,1.38
7895.00,1.38
7894.00,1.38
7893.00,1.38
7892.00,1.38
7891.00,1.38
7890.00,1.38
7889.00,1.38
7888.00,1.38
7887.00,1.38
7886.00,1.38
7885.00,1.38
7884.00,1.38
7883.00,1.38
7882.00,1.38
7881.00,1.38
7880.00,1.38
7879.00,1.38
7878.00,1.38
7877.00,1.38
7876.00,1.38
7875.00,1.38
7874.00,1.38
7873.00,1.38
7872.00,1.38
7871.00,1.38
7870.00,1.38
7869.00,1.38
7868.00,1.38
7867.00,1.38
7866.00,1.38
7865.00,1.38
7864.00,1.38
7863.00,1.38
7862.00,1.38
7861.00,1.38
7860.00,1.38
7859.00,1.38
7858.00,1.38
7857.00,1.38
7856.00,1.38
7855.00,1.38
7854.00,1.38
7853.00,1.38
7852.00,1.38
7851.00,1.38
7850.00,1.38
7849.00,1.38
7848.00,1.38
7847.00,1.39
7846.00,1.39
7845.00,1.39
7844.00,1.39
7843.00,1.39
7842.00,1.39
7841.00,1.39
7840.00,1.39
7839.00,1.39
7838.00,1.39
7837.00,1.39
7836.00,1.39
7835.00,1.39
7834.00,1.39
7833.00,1.39
7832.00,1.39
7831.00,1.39
7830.00,1.39
7829.00,1.39
7828.00,1.39
7827.00,1.39
7826.00,1.39
7825.00,1.39
7824.00,1.39
7823.00,1.39
7822.00,1.39
7821.00,1.39
7820.00,1.39
7819.00,1.39
7818.00,1.39
7817.00,1.39
7816.00,1.39
7815.00,1.39
7814.00,1.39
7813.00,1.39
7812.00,1.39
7811.00,1.39
7810.00,1.39
7809.00,1.39
7808.00,1.39
7807.00,1.39
7806.00,1.40
7805.00,1.40
7804.00,1.40
7803.00,1.40
7802.00,1.40
7801.00,1.40
7800.00,1.40
7799.00,1.40
7798.00,1.40
7797.00,1.40
7796.00,1.40
7795.00,1.40
7794.00,1.39
7793.00,1.39
7792.00,1.39
7791.00,1.39
7790.00,1.39
7789.00,1.39
7788.00,1.39
7787.00,1.39
7786.00,1.40
7785.00,1.40
7784.00,1.40
7783.00,1.40
7782.00,1.40
7781.00,1.40
7780.00,1.40
7779.00,1.40
7778.00,1.40
7777.00,1.40
7776.00,1.40
7775.00,1.40
7774.00,1.40
7773.00,1.40
7772.00,1.40
7771.00,1.40
7770.00,1.40
7769.00,1.40
7768.00,1.40
7767.00,1.40
7766.00,1.40
7765.00,1.40
7764.00,1.40
7763.00,1.40
7762.00,1.40
7761.00,1.40
7760.00,1.40
7759.00,1.40
7758.00,1.40
7757.00,1.40
7756.00,1.40
7755.00,1.40
7754.00,1.40
7753.00,1.40
7752.00,1.40
7751.00,1.40
7750.00,1.40
7749.00,1.40
7748.00,1.40
7747.00,1.40
7746.00,1.40
7745.00,1.40
7744.00,1.40
7743.00,1.40
7742.00,1.40
7741.00,1.40
7740.00,1.40
7739.00,1.40
7738.00,1.40
7737.00,1.40
7736.00,1.40
7735.00,1.40
7734.00,1.40
7733.00,1.40
7732.00,1.40
7731.00,1.40
7730.00,1.40
7729.00,1.40
7728.00,1.40
7727.00,1.40
7726.00,1.40
7725.00,1.40
7724.00,1.40
7723.00,1.40
7722.00,1.40
7721.00,1.40
7720.00,1.40
7719.00,1.40
7718.00,1.40
7717.00,1.40
7716.00,1.40
7715.00,1.40
7714.00,1.40
7713.00,1.40
7712.00,1.40
7711.00,1.40
7710.00,1.40
7709.00,1.40
7708.00,1.40
7707.00,1.40
7706.00,1.40
7705.00,1.40
7704.00,1.40
7703.00,1.40
7702.00,1.40
7701.00,1.40
7700.00,1.40
7699.00,1.40
7698.00,1.40
7697.00,1.40
7696.00,1.40
7695.00,1.40
7694.00,1.40
7693.00,1.40
7692.00,1.40
7691.00,1.40
7690.00,1.40
7689.00,1.40
7688.00,1.40
7687.00,1.40
7686.00,1.40
7685.00,1.40
7684.00,1.40
7683.00,1.40
7682.00,1.40
7681.00,1.40
7680.00,1.40
7679.00,1.40
7678.00,1.40
7677.00,1.40
7676.00,1.40
7675.00,1.40
7674.00,1.40
7673.00,1.40
7672.00,1.40
7671.00,1.40
7670.00,1.40
7669.00,1.40
7668.00,1.40
7667.00,1.40
7666.00,1.40
7665.00,1.40
7664.00,1.40
7663.00,1.40
7662.00,1.40
7661.00,1.40
7660.00,1.40
7659.00,1.40
7658.00,1.40
7657.00,1.40
7656.00,1.40
7655.00,1.40
7654.00,1.40
7653.00,1.40
7652.00,1.40
7651.00,1.40
7650.00,1.40
7649.00,1.40
7648.00,1.40
7647.00,1.40
7646.00,1.40
7645.00,1.40
7644.00,1.40
7643.00,1.40
7642.00,1.40
7641.00,1.40
7640.00,1.40
7639.00,1.40
7638.00,1.40
7637.00,1.40
7636.00,1.40
7635.00,1.40
7634.00,1.40
7633.00,1.40
7632.00,1.40
7631.00,1.40
7630.00,1.40
7629.00,1.40
7628.00,1.40
7627.00,1.40
7626.00,1.40
7625.00,1.40
7624.00,1.40
7623.00,1.40
7622.00,1.40
7621.00,1.40
7620.00,1.40
7619.00,1.40
7618.00,1.40
7617.00,1.40
7616.00,1.40
7615.00,1.40
7614.00,1.40
7613.00,1.40
7612.00,1.40
7611.00,1.40
7610.00,1.40
7609.00,1.40
7608.00,1.40
7607.00,1.40
7606.00,1.40
7605.00,1.40
7604.00,1.40
7603.00,1.40
7602.00,1.40
7601.00,1.40
7600.00,1.40
7599.00,1.40
7598.00,1.40
7597.00,1.40
7596.00,1.40
7595.00,1.40
7594.00,1.40
7593.00,1.40
7592.00,1.40
7591.00,1.40
7590.00,1.40
7589.00,1.40
7588.00,1.40
7587.00,1.40
7586.00,1.39
7585.00,1.39
7584.00,1.39
7583.00,1.39
7582.00,1.39
7581.00,1.39
7580.00,1.39
7579.00,1.39
7578.00,1.39
7577.00,1.39
7576.00,1.39
7575.00,1.39
7574.00,1.39
7573.00,1.39
7572.00,1.39
7571.00,1.39
7570.00,1.39
7569.00,1.39
7568.00,1.39
7567.00,1.39
7566.00,1.39
7565.00,1.39
7564.00,1.39
7563.00,1.39
7562.00,1.39
7561.00,1.39
7560.00,1.39
7559.00,1.39
7558.00,1.39
7557.00,1.39
7556.00,1.39
7555.00,1.39
7554.00,1.39
7553.00,1.39
7552.00,1.39
7551.00,1.39
7550.00,1.39
7549.00,1.38
7548.00,1.38
7547.00,1.38
7546.00,1.38
7545.00,1.38
7544.00,1.38
7543.00,1.38
7542.00,1.38
7541.00,1.38
7540.00,1.38
7539.00,1.38
7538.00,1.38
7537.00,1.38
7536.00,1.38
7535.00,1.38
7534.00,1.38
7533.00,1.38
7532.00,1.38
7531.00,1.38
7530.00,1.38
7529.00,1.38
7528.00,1.38
7527.00,1.38
7526.00,1.38
7525.00,1.39
7524.00,1.39
7523.00,1.39
7522.00,1.39
7521.00,1.39
7520.00,1.39
7519.00,1.39
7518.00,1.39
7517.00,1.39
7516.00,1.39
7515.00,1.39
7514.00,1.38
7513.00,1.38
7512.00,1.38
7511.00,1.38
7510.00,1.38
7509.00,1.38
7508.00,1.38
7507.00,1.38
7506.00,1.38
7505.00,1.38
7504.00,1.38
7503.00,1.38
7502.00,1.38
7501.00,1.37
7500.00,1.37
7499.00,1.37
7498.00,1.37
7497.00,1.37
7496.00,1.37
7495.00,1.37
7494.00,1.37
7493.00,1.37
7492.00,1.36
7491.00,1.36
7490.00,1.36
7489.00,1.36
7488.00,1.36
7487.00,1.36
7486.00,1.36
7485.00,1.36
7484.00,1.36
7483.00,1.36
7482.00,1.36
7481.00,1.36
7480.00,1.36
7479.00,1.36
7478.00,1.36
7477.00,1.36
7476.00,1.36
7475.00,1.36
7474.00,1.36
7473.00,1.36
7472.00,1.36
7471.00,1.36
7470.00,1.36
7469.00,1.36
7468.00,1.36
7467.00,1.36
7466.00,1.36
7465.00,1.36
7464.00,1.35
7463.00,1.35
7462.00,1.35
7461.00,1.35
7460.00,1.35
7459.00,1.35
7458.00,1.35
7457.00,1.35
7456.00,1.35
7455.00,1.35
7454.00,1.35
7453.00,1.35
7452.00,1.35
7451.00,1.35
7450.00,1.35
7449.00,1.34
7448.00,1.34
7447.00,1.34
7446.00,1.34
7445.00,1.34
7444.00,1.34
7443.00,1.34
7442.00,1.34
7441.00,1.34
7440.00,1.34
7439.00,1.34
7438.00,1.33
7437.00,1.33
7436.00,1.33
7435.00,1.33
7434.00,1.33
7433.00,1.33
7432.00,1.33
7431.00,1.32
7430.00,1.32
7429.00,1.32
7428.00,1.32
7427.00,1.32
7426.00,1.32
7425.00,1.32
7424.00,1.32
7423.00,1.32
7422.00,1.32
7421.00,1.32
7420.00,1.32
7419.00,1.32
7418.00,1.31
7417.00,1.31
7416.00,1.31
7415.00,1.31
7414.00,1.31
7413.00,1.31
7412.00,1.31
7411.00,1.31
7410.00,1.31
7409.00,1.31
7408.00,1.31
7407.00,1.31
7406.00,1.31
7405.00,1.31
7404.00,1.30
7403.00,1.30
7402.00,1.30
7401.00,1.30
7400.00,1.30
7399.00,1.30
7398.00,1.30
7397.00,1.29
7396.00,1.29
7395.00,1.29
7394.00,1.29
7393.00,1.29
7392.00,1.29
7391.00,1.29
7390.00,1.29
7389.00,1.29
7388.00,1.28
7387.00,1.28
7386.00,1.28
7385.00,1.28
7384.00,1.28
7383.00,1.28
7382.00,1.28
7381.00,1.28
7380.00,1.28
7379.00,1.28
7378.00,1.27
7377.00,1.27
7376.00,1.27
7375.00,1.27
7374.00,1.27
7373.00,1.27
7372.00,1.27
7371.00,1.27
7370.00,1.27
7369.00,1.27
7368.00,1.27
7367.00,1.27
7366.00,1.27
7365.00,1.27
7364.00,1.27
7363.00,1.27
7362.00,1.27
7361.00,1.27
7360.00,1.26
7359.00,1.26
7358.00,1.26
7357.00,1.26
7356.00,1.26
7355.00,1.26
7354.00,1.26
7353.00,1.26
7352.00,1.26
7351.00,1.26
7350.00,1.26
7349.00,1.26
7348.00,1.26
7347.00,1.26
7346.00,1.26
7345.00,1.26
7344.00,1.26
7343.00,1.26
7342.00,1.26
7341.00,1.26
7340.00,1.26
7339.00,1.26
7338.00,1.26
7337.00,1.26
7336.00,1.26
7335.00,1.26
7334.00,1.26
7333.00,1.26
7332.00,1.26
7331.00,1.26
7330.00,1.26
7329.00,1.26
7328.00,1.26
7327.00,1.26
7326.00,1.26
7325.00,1.26
7324.00,1.26
7323.00,1.25
7322.00,1.25
7321.00,1.25
7320.00,1.25
7319.00,1.25
7318.00,1.25
7317.00,1.25
7316.00,1.25
7315.00,1.25
7314.00,1.25
7313.00,1.24
7312.00,1.24
7311.00,1.24
7310.00,1.24
7309.00,1.24
7308.00,1.24
7307.00,1.24
7306.00,1.24
7305.00,1.24
7304.00,1.23
7303.00,1.23
7302.00,1.23
7301.00,1.23
7300.00,1.23
7299.00,1.23
7298.00,1.23
7297.00,1.23
7296.00,1.23
7295.00,1.22
7294.00,1.22
7293.00,1.22
7292.00,1.22
7291.00,1.22
7290.00,1.22
7289.00,1.22
7288.00,1.22
7287.00,1.22
7286.00,1.21
7285.00,1.21
7284.00,1.21
7283.00,1.21
7282.00,1.21
7281.00,1.21
7280.00,1.21
7279.00,1.21
7278.00,1.21
7277.00,1.21
7276.00,1.21
7275.00,1.21
7274.00,1.21
7273.00,1.21
7272.00,1.21
7271.00,1.21
7270.00,1.20
7269.00,1.20
7268.00,1.20
7267.00,1.20
7266.00,1.20
7265.00,1.20
7264.00,1.20
7263.00,1.19
7262.00,1.19
7261.00,1.19
7260.00,1.19
7259.00,1.19
7258.00,1.18
7257.00,1.18
7256.00,1.18
7255.00,1.18
7254.00,1.18
7253.00,1.17
7252.00,1.17
7251.00,1.17
7250.00,1.17
7249.00,1.16
7248.00,1.16
7247.00,1.16
7246.00,1.15
7245.00,1.15
7244.00,1.15
7243.00,1.14
7242.00,1.14
7241.00,1.14
7240.00,1.13
7239.00,1.13
7238.00,1.12
7237.00,1.12
7236.00,1.11
7235.00,1.11
7234.00,1.10
7233.00,1.10
7232.00,1.10
7231.00,1.09
7230.00,1.09
7229.00,1.08
7228.00,1.08
7227.00,1.08
7226.00,1.07
7225.00,1.07
7224.00,1.07
7223.00,1.06
7222.00,1.06
7221.00,1.06
7220.00,1.05
7219.00,1.05
7218.00,1.05
7217.00,1.04
7216.00,1.04
7215.00,1.04
7214.00,1.03
7213.00,1.03
7212.00,1.03
7211.00,1.02
7210.00,1.02
7209.00,1.02
7208.00,1.01
7207.00,1.01
7206.00,1.01
7205.00,1.00
7204.00,1.00
7203.00,1.00
7202.00,0.99
7201.00,0.99
7200.00,0.99
7199.00,0.98
7198.00,0.98
7197.00,0.98
7196.00,0.97
7195.00,0.97
7194.00,0.97
7193.00,0.96
7192.00,0.96
7191.00,0.95
7190.00,0.95
7189.00,0.95
7188.00,0.94
7187.00,0.94
7186.00,0.93
7185.00,0.93
7184.00,0.92
7183.00,0.92
7182.00,0.92
7181.00,0.91
7180.00,0.91
7179.00,0.91
7178.00,0.90
7177.00,0.90
7176.00,0.90
7175.00,0.89
7174.00,0.89
7173.00,0.89
7172.00,0.88
7171.00,0.88
7170.00,0.88
7169.00,0.87
7168.00,0.87
7167.00,0.87
7166.00,0.86
7165.00,0.86
7164.00,0.86
7163.00,0.85
7162.00,0.85
7161.00,0.85
7160.00,0.85
7159.00,0.84
7158.00,0.84
7157.00,0.84
7156.00,0.84
7155.00,0.83
7154.00,0.83
7153.00,0.83
7152.00,0.82
7151.00,0.82
7150.00,0.82
7149.00,0.81
7148.00,0.81
7147.00,0.81
7146.00,0.81
7145.00,0.80
7144.00,0.80
7143.00,0.80
7142.00,0.79
7141.00,0.79
7140.00,0.79
7139.00,0.79
7138.00,0.78
7137.00,0.78
7136.00,0.78
7135.00,0.78
7134.00,0.78
7133.00,0.77
7132.00,0.77
7131.00,0.77
7130.00,0.77
7129.00,0.77
7128.00,0.76
7127.00,0.76
7126.00,0.76
7125.00,0.76
7124.00,0.76
7123.00,0.75
7122.00,0.75
7121.00,0.75
7120.00,0.74
7119.00,0.74
7118.00,0.74
7117.00,0.74
7116.00,0.73
7115.00,0.73
7114.00,0.73
7113.00,0.73
7112.00,0.72
7111.00,0.72
7110.00,0.72
7109.00,0.72
7108.00,0.72
7107.00,0.71
7106.00,0.71
7105.00,0.71
7104.00,0.71
7103.00,0.71
7102.00,0.70
7101.00,0.70
7100.00,0.70
7099.00,0.70
7098.00,0.70
7097.00,0.70
7096.00,0.69
7095.00,0.69
7094.00,0.69
7093.00,0.69
7092.00,0.69
7091.00,0.69
7090.00,0.68
7089.00,0.68
7088.00,0.68
7087.00,0.68
7086.00,0.68
7085.00,0.68
7084.00,0.68
7083.00,0.67
7082.00,0.67
7081.00,0.67
7080.00,0.67
7079.00,0.67
7078.00,0.67
7077.00,0.67
7076.00,0.66
7075.00,0.66
7074.00,0.66
7073.00,0.66
7072.00,0.66
7071.00,0.66
7070.00,0.66
7069.00,0.65
7068.00,0.65
7067.00,0.65
7066.00,0.65
7065.00,0.65
7064.00,0.65
7063.00,0.65
7062.00,0.65
7061.00,0.65
7060.00,0.65
7059.00,0.65
7058.00,0.64
7057.00,0.64
7056.00,0.64
7055.00,0.64
7054.00,0.64
7053.00,0.64
7052.00,0.64
7051.00,0.64
7050.00,0.64
7049.00,0.64
7048.00,0.64
7047.00,0.64
7046.00,0.64
7045.00,0.64
7044.00,0.64
7043.00,0.64
7042.00,0.64
7041.00,0.64
7040.00,0.64
7039.00,0.63
7038.00,0.63
7037.00,0.63
7036.00,0.63
7035.00,0.63
7034.00,0.63
7033.00,0.63
7032.00,0.63
7031.00,0.63
7030.00,0.63
7029.00,0.63
7028.00,0.63
7027.00,0.63
7026.00,0.62
7025.00,0.62
7024.00,0.62
7023.00,0.62
7022.00,0.62
7021.00,0.62
7020.00,0.62
7019.00,0.62
7018.00,0.62
7017.00,0.62
7016.00,0.62
7015.00,0.62
7014.00,0.61
7013.00,0.61
7012.00,0.61
7011.00,0.61
7010.00,0.61
7009.00,0.61
7008.00,0.61
7007.00,0.61
7006.00,0.61
7005.00,0.61
7004.00,0.61
7003.00,0.61
7002.00,0.61
7001.00,0.61
7000.00,0.61
6999.00,0.61
6998.00,0.61
6997.00,0.61
6996.00,0.61
6995.00,0.61
6994.00,0.61
6993.00,0.61
6992.00,0.61
6991.00,0.61
6990.00,0.61
6989.00,0.61
6988.00,0.61
6987.00,0.61
6986.00,0.61
6985.00,0.61
6984.00,0.60
6983.00,0.60
6982.00,0.60
6981.00,0.60
6980.00,0.60
6979.00,0.60
6978.00,0.60
6977.00,0.60
6976.00,0.60
6975.00,0.60
6974.00,0.60
6973.00,0.60
6972.00,0.60
6971.00,0.60
6970.00,0.59
6969.00,0.59
6968.00,0.59
6967.00,0.59
6966.00,0.59
6965.00,0.59
6964.00,0.59
6963.00,0.59
6962.00,0.59
6961.00,0.60
6960.00,0.60
6959.00,0.60
6958.00,0.60
6957.00,0.60
6956.00,0.60
6955.00,0.60
6954.00,0.60
6953.00,0.60
6952.00,0.60
6951.00,0.60
6950.00,0.60
6949.00,0.59
6948.00,0.59
6947.00,0.59
6946.00,0.59
6945.00,0.59
6944.00,0.59
6943.00,0.59
6942.00,0.59
6941.00,0.59
6940.00,0.59
6939.00,0.59
6938.00,0.59
6937.00,0.59
6936.00,0.59
6935.00,0.59
6934.00,0.59
6933.00,0.59
6932.00,0.58
6931.00,0.58
6930.00,0.58
6929.00,0.58
6928.00,0.58
6927.00,0.58
6926.00,0.58
6925.00,0.58
6924.00,0.58
6923.00,0.58
6922.00,0.58
6921.00,0.58
6920.00,0.58
6919.00,0.58
6918.00,0.58
6917.00,0.58
6916.00,0.58
6915.00,0.58
6914.00,0.58
6913.00,0.58
6912.00,0.58
6911.00,0.59
6910.00,0.59
6909.00,0.59
6908.00,0.59
6907.00,0.59
6906.00,0.59
6905.00,0.59
6904.00,0.59
6903.00,0.59
6902.00,0.59
6901.00,0.59
6900.00,0.59
6899.00,0.59
6898.00,0.59
6897.00,0.59
6896.00,0.59
6895.00,0.59
6894.00,0.59
6893.00,0.59
6892.00,0.59
6891.00,0.59
6890.00,0.59
6889.00,0.59
6888.00,0.59
6887.00,0.59
6886.00,0.59
6885.00,0.59
6884.00,0.59
6883.00,0.59
6882.00,0.59
6881.00,0.59
6880.00,0.59
6879.00,0.59
6878.00,0.59
6877.00,0.59
6876.00,0.59
6875.00,0.59
6874.00,0.59
6873.00,0.59
6872.00,0.59
6871.00,0.59
6870.00,0.59
6869.00,0.59
6868.00,0.59
6867.00,0.59
6866.00,0.59
6865.00,0.59
6864.00,0.59
6863.00,0.59
6862.00,0.59
6861.00,0.59
6860.00,0.59
6859.00,0.59
6858.00,0.59
6857.00,0.59
6856.00,0.59
6855.00,0.59
6854.00,0.59
6853.00,0.59
6852.00,0.59
6851.00,0.59
6850.00,0.59
6849.00,0.59
6848.00,0.59
6847.00,0.59
6846.00,0.59
6845.00,0.59
6844.00,0.59
6843.00,0.59
6842.00,0.59
6841.00,0.59
6840.00,0.59
6839.00,0.59
6838.00,0.59
6837.00,0.59
6836.00,0.59
6835.00,0.59
6834.00,0.59
6833.00,0.59
6832.00,0.59
6831.00,0.59
6830.00,0.59
6829.00,0.59
6828.00,0.59
6827.00,0.59
6826.00,0.59
6825.00,0.59
6824.00,0.59
6823.00,0.59
6822.00,0.59
6821.00,0.60
6820.00,0.60
6819.00,0.60
6818.00,0.60
6817.00,0.60
6816.00,0.60
6815.00,0.60
6814.00,0.60
6813.00,0.60
6812.00,0.60
6811.00,0.60
6810.00,0.60
6809.00,0.60
6808.00,0.60
6807.00,0.60
6806.00,0.60
6805.00,0.60
6804.00,0.60
6803.00,0.60
6802.00,0.60
6801.00,0.60
6800.00,0.60
6799.00,0.60
6798.00,0.60
6797.00,0.60
6796.00,0.60
6795.00,0.60
6794.00,0.60
6793.00,0.60
6792.00,0.60
6791.00,0.61
6790.00,0.61
6789.00,0.61
6788.00,0.61
6787.00,0.61
6786.00,0.61
6785.00,0.61
6784.00,0.62
6783.00,0.62
6782.00,0.62
6781.00,0.62
6780.00,0.62
6779.00,0.62
6778.00,0.62
6777.00,0.63
6776.00,0.63
6775.00,0.63
6774.00,0.63
6773.00,0.63
6772.00,0.63
6771.00,0.63
6770.00,0.63
6769.00,0.63
6768.00,0.63
6767.00,0.63
6766.00,0.63
6765.00,0.63
6764.00,0.63
6763.00,0.63
6762.00,0.63
6761.00,0.63
6760.00,0.63
6759.00,0.63
6758.00,0.63
6757.00,0.63
6756.00,0.63
6755.00,0.63
6754.00,0.63
6753.00,0.63
6752.00,0.63
6751.00,0.63
6750.00,0.63
6749.00,0.63
6748.00,0.63
6747.00,0.63
6746.00,0.63
6745.00,0.63
6744.00,0.63
6743.00,0.63
6742.00,0.63
6741.00,0.63
6740.00,0.63
6739.00,0.63
6738.00,0.63
6737.00,0.63
6736.00,0.63
6735.00,0.63
6734.00,0.63
6733.00,0.63
6732.00,0.63
6731.00,0.63
6730.00,0.63
6729.00,0.64
6728.00,0.64
6727.00,0.64
6726.00,0.64
6725.00,0.64
6724.00,0.64
6723.00,0.64
6722.00,0.64
6721.00,0.64
6720.00,0.64
6719.00,0.64
6718.00,0.64
6717.00,0.65
6716.00,0.65
6715.00,0.65
6714.00,0.65
6713.00,0.65
6712.00,0.65
6711.00,0.65
6710.00,0.65
6709.00,0.65
6708.00,0.66
6707.00,0.66
6706.00,0.66
6705.00,0.66
6704.00,0.66
6703.00,0.66
6702.00,0.66
6701.00,0.66
6700.00,0.66
6699.00,0.66
6698.00,0.66
6697.00,0.66
6696.00,0.66
6695.00,0.67
6694.00,0.67
6693.00,0.67
6692.00,0.67
6691.00,0.67
6690.00,0.67
6689.00,0.67
6688.00,0.67
6687.00,0.67
6686.00,0.67
6685.00,0.67
6684.00,0.67
6683.00,0.67
6682.00,0.67
6681.00,0.67
6680.00,0.67
6679.00,0.67
6678.00,0.67
6677.00,0.67
6676.00,0.67
6675.00,0.67
6674.00,0.67
6673.00,0.68
6672.00,0.68
6671.00,0.68
6670.00,0.68
6669.00,0.68
6668.00,0.68
6667.00,0.68
6666.00,0.68
6665.00,0.68
6664.00,0.68
6663.00,0.68
6662.00,0.69
6661.00,0.69
6660.00,0.69
6659.00,0.69
6658.00,0.69
6657.00,0.69
6656.00,0.69
6655.00,0.69
6654.00,0.69
6653.00,0.69
6652.00,0.69
6651.00,0.69
6650.00,0.69
6649.00,0.70
6648.00,0.70
6647.00,0.70
6646.00,0.70
6645.00,0.70
6644.00,0.70
6643.00,0.70
6642.00,0.70
6641.00,0.70
6640.00,0.70
6639.00,0.70
6638.00,0.70
6637.00,0.70
6636.00,0.70
6635.00,0.70
6634.00,0.70
6633.00,0.70
6632.00,0.70
6631.00,0.70
6630.00,0.71
6629.00,0.71
6628.00,0.71
6627.00,0.71
6626.00,0.71
6625.00,0.71
6624.00,0.71
6623.00,0.71
6622.00,0.72
6621.00,0.72
6620.00,0.72
6619.00,0.72
6618.00,0.72
6617.00,0.72
6616.00,0.72
6615.00,0.72
6614.00,0.72
6613.00,0.73
6612.00,0.73
6611.00,0.73
6610.00,0.73
6609.00,0.73
6608.00,0.73
6607.00,0.73
6606.00,0.73
6605.00,0.73
6604.00,0.73
6603.00,0.73
6602.00,0.74
6601.00,0.74
6600.00,0.74
6599.00,0.74
6598.00,0.74
6597.00,0.74
6596.00,0.74
6595.00,0.75
6594.00,0.75
6593.00,0.75
6592.00,0.75
6591.00,0.75
6590.00,0.75
6589.00,0.76
6588.00,0.76
6587.00,0.76
6586.00,0.76
6585.00,0.76
6584.00,0.76
6583.00,0.76
6582.00,0.76
6581.00,0.76
6580.00,0.77
6579.00,0.77
6578.00,0.77
6577.00,0.77
6576.00,0.77
6575.00,0.77
6574.00,0.77
6573.00,0.77
6572.00,0.77
6571.00,0.77
6570.00,0.77
6569.00,0.77
6568.00,0.77
6567.00,0.77
6566.00,0.77
6565.00,0.77
6564.00,0.78
6563.00,0.78
6562.00,0.78
6561.00,0.78
6560.00,0.78
6559.00,0.78
6558.00,0.79
6557.00,0.79
6556.00,0.79
6555.00,0.79
6554.00,0.79
6553.00,0.79
6552.00,0.80
6551.00,0.80
6550.00,0.80
6549.00,0.80
6548.00,0.80
6547.00,0.80
6546.00,0.80
6545.00,0.80
6544.00,0.80
6543.00,0.80
6542.00,0.80
6541.00,0.80
6540.00,0.80
6539.00,0.81
6538.00,0.81
6537.00,0.81
6536.00,0.81
6535.00,0.81
6534.00,0.81
6533.00,0.81
6532.00,0.81
6531.00,0.81
6530.00,0.82
6529.00,0.82
6528.00,0.82
6527.00,0.82
6526.00,0.82
6525.00,0.82
6524.00,0.82
6523.00,0.82
6522.00,0.82
6521.00,0.82
6520.00,0.82
6519.00,0.82
6518.00,0.83
6517.00,0.83
6516.00,0.83
6515.00,0.83
6514.00,0.83
6513.00,0.83
6512.00,0.83
6511.00,0.83
6510.00,0.83
6509.00,0.83
6508.00,0.83
6507.00,0.83
6506.00,0.83
6505.00,0.83
6504.00,0.83
6503.00,0.83
6502.00,0.83
6501.00,0.83
6500.00,0.84
6499.00,0.84
6498.00,0.84
6497.00,0.84
6496.00,0.84
6495.00,0.84
6494.00,0.84
6493.00,0.84
6492.00,0.84
6491.00,0.84
6490.00,0.84
6489.00,0.84
6488.00,0.84
6487.00,0.84
6486.00,0.84
6485.00,0.84
6484.00,0.84
6483.00,0.84
6482.00,0.84
6481.00,0.84
6480.00,0.84
6479.00,0.84
6478.00,0.84
6477.00,0.84
6476.00,0.84
6475.00,0.84
6474.00,0.84
6473.00,0.84
6472.00,0.85
6471.00,0.85
6470.00,0.85
6469.00,0.85
6468.00,0.85
6467.00,0.85
6466.00,0.85
6465.00,0.85
6464.00,0.85
6463.00,0.85
6462.00,0.86
6461.00,0.86
6460.00,0.86
6459.00,0.86
6458.00,0.86
6457.00,0.86
6456.00,0.86
6455.00,0.86
6454.00,0.87
6453.00,0.87
6452.00,0.87
6451.00,0.87
6450.00,0.87
6449.00,0.87
6448.00,0.87
6447.00,0.87
6446.00,0.87
6445.00,0.87
6444.00,0.88
6443.00,0.88
6442.00,0.88
6441.00,0.88
6440.00,0.88
6439.00,0.88
6438.00,0.88
6437.00,0.88
6436.00,0.88
6435.00,0.88
6434.00,0.88
6433.00,0.88
6432.00,0.89
6431.00,0.89
6430.00,0.89
6429.00,0.89
6428.00,0.89
6427.00,0.89
6426.00,0.89
6425.00,0.89
6424.00,0.89
6423.00,0.89
6422.00,0.89
6421.00,0.89
6420.00,0.90
6419.00,0.90
6418.00,0.90
6417.00,0.90
6416.00,0.90
6415.00,0.90
6414.00,0.90
6413.00,0.90
6412.00,0.90
6411.00,0.90
6410.00,0.90
6409.00,0.91
6408.00,0.91
6407.00,0.91
6406.00,0.91
6405.00,0.91
6404.00,0.91
6403.00,0.91
6402.00,0.92
6401.00,0.92
6400.00,0.92
6399.00,0.92
6398.00,0.92
6397.00,0.92
6396.00,0.92
6395.00,0.92
6394.00,0.92
6393.00,0.92
6392.00,0.93
6391.00,0.93
6390.00,0.93
6389.00,0.93
6388.00,0.93
6387.00,0.93
6386.00,0.93
6385.00,0.93
6384.00,0.93
6383.00,0.93
6382.00,0.93
6381.00,0.93
6380.00,0.93
6379.00,0.94
6378.00,0.94
6377.00,0.94
6376.00,0.94
6375.00,0.94
6374.00,0.94
6373.00,0.94
6372.00,0.94
6371.00,0.94
6370.00,0.94
6369.00,0.94
6368.00,0.94
6367.00,0.95
6366.00,0.95
6365.00,0.95
6364.00,0.95
6363.00,0.95
6362.00,0.95
6361.00,0.95
6360.00,0.95
6359.00,0.95
6358.00,0.95
6357.00,0.95
6356.00,0.96
6355.00,0.96
6354.00,0.96
6353.00,0.96
6352.00,0.96
6351.00,0.96
6350.00,0.96
6349.00,0.97
6348.00,0.97
6347.00,0.97
6346.00,0.97
6345.00,0.97
6344.00,0.97
6343.00,0.97
6342.00,0.98
6341.00,0.98
6340.00,0.98
6339.00,0.98
6338.00,0.98
6337.00,0.98
6336.00,0.98
6335.00,0.98
6334.00,0.98
6333.00,0.98
6332.00,0.98
6331.00,0.99
6330.00,0.99
6329.00,0.99
6328.00,0.99
6327.00,0.99
6326.00,0.99
6325.00,0.99
6324.00,0.99
6323.00,0.99
6322.00,0.99
6321.00,0.99
6320.00,0.99
6319.00,0.99
6318.00,0.99
6317.00,0.99
6316.00,1.00
6315.00,1.00
6314.00,1.00
6313.00,1.00
6312.00,1.00
6311.00,1.00
6310.00,1.00
6309.00,1.00
6308.00,1.01
6307.00,1.01
6306.00,1.01
6305.00,1.01
6304.00,1.01
6303.00,1.01
6302.00,1.01
6301.00,1.02
6300.00,1.02
6299.00,1.02
6298.00,1.02
6297.00,1.02
6296.00,1.02
6295.00,1.02
6294.00,1.03
6293.00,1.03
6292.00,1.03
6291.00,1.03
6290.00,1.03
6289.00,1.03
6288.00,1.03
6287.00,1.03
6286.00,1.03
6285.00,1.03
6284.00,1.03
6283.00,1.03
6282.00,1.04
6281.00,1.04
6280.00,1.04
6279.00,1.04
6278.00,1.04
6277.00,1.04
6276.00,1.04
6275.00,1.04
6274.00,1.05
6273.00,1.05
6272.00,1.05
6271.00,1.05
6270.00,1.05
6269.00,1.05
6268.00,1.06
6267.00,1.06
6266.00,1.06
6265.00,1.06
6264.00,1.06
6263.00,1.06
6262.00,1.06
6261.00,1.06
6260.00,1.07
6259.00,1.07
6258.00,1.07
6257.00,1.07
6256.00,1.07
6255.00,1.07
6254.00,1.07
6253.00,1.07
6252.00,1.07
6251.00,1.08
6250.00,1.08
6249.00,1.08
6248.00,1.08
6247.00,1.08
6246.00,1.08
6245.00,1.08
6244.00,1.08
6243.00,1.08
6242.00,1.08
6241.00,1.09
6240.00,1.09
6239.00,1.09
6238.00,1.09
6237.00,1.09
6236.00,1.09
6235.00,1.09
6234.00,1.09
6233.00,1.10
6232.00,1.10
6231.00,1.10
6230.00,1.10
6229.00,1.10
6228.00,1.10
6227.00,1.10
6226.00,1.11
6225.00,1.11
6224.00,1.11
6223.00,1.11
6222.00,1.11
6221.00,1.12
6220.00,1.12
6219.00,1.12
6218.00,1.12
6217.00,1.12
6216.00,1.12
6215.00,1.13
6214.00,1.13
6213.00,1.13
6212.00,1.13
6211.00,1.13
6210.00,1.13
6209.00,1.14
6208.00,1.14
6207.00,1.14
6206.00,1.14
6205.00,1.14
6204.00,1.14
6203.00,1.14
6202.00,1.14
6201.00,1.14
6200.00,1.14
6199.00,1.14
6198.00,1.14
6197.00,1.14
6196.00,1.15
6195.00,1.15
6194.00,1.15
6193.00,1.15
6192.00,1.15
6191.00,1.15
6190.00,1.15
6189.00,1.16
6188.00,1.16
6187.00,1.16
6186.00,1.16
6185.00,1.16
6184.00,1.16
6183.00,1.17
6182.00,1.17
6181.00,1.17
6180.00,1.17
6179.00,1.17
6178.00,1.17
6177.00,1.18
6176.00,1.18
6175.00,1.18
6174.00,1.18
6173.00,1.18
6172.00,1.18
6171.00,1.18
6170.00,1.19
6169.00,1.19
6168.00,1.19
6167.00,1.19
6166.00,1.19
6165.00,1.19
6164.00,1.19
6163.00,1.20
6162.00,1.20
6161.00,1.20
6160.00,1.20
6159.00,1.20
6158.00,1.20
6157.00,1.20
6156.00,1.20
6155.00,1.20
6154.00,1.21
6153.00,1.21
6152.00,1.21
6151.00,1.21
6150.00,1.21
6149.00,1.21
6148.00,1.21
6147.00,1.21
6146.00,1.22
6145.00,1.22
6144.00,1.22
6143.00,1.22
6142.00,1.22
6141.00,1.22
6140.00,1.23
6139.00,1.23
6138.00,1.23
6137.00,1.23
6136.00,1.23
6135.00,1.23
6134.00,1.24
6133.00,1.24
6132.00,1.24
6131.00,1.24
6130.00,1.24
6129.00,1.24
6128.00,1.25
6127.00,1.25
6126.00,1.25
6125.00,1.25
6124.00,1.25
6123.00,1.25
6122.00,1.25
6121.00,1.26
6120.00,1.26
6119.00,1.26
6118.00,1.26
6117.00,1.26
6116.00,1.26
6115.00,1.26
6114.00,1.27
6113.00,1.27
6112.00,1.27
6111.00,1.27
6110.00,1.27
6109.00,1.27
6108.00,1.27
6107.00,1.27
6106.00,1.28
6105.00,1.28
6104.00,1.28
6103.00,1.28
6102.00,1.28
6101.00,1.28
6100.00,1.28
6099.00,1.28
6098.00,1.29
6097.00,1.29
6096.00,1.29
6095.00,1.29
6094.00,1.29
6093.00,1.29
6092.00,1.29
6091.00,1.29
6090.00,1.29
6089.00,1.30
6088.00,1.30
6087.00,1.30
6086.00,1.30
6085.00,1.30
6084.00,1.30
6083.00,1.30
6082.00,1.30
6081.00,1.30
6080.00,1.30
6079.00,1.31
6078.00,1.31
6077.00,1.31
6076.00,1.31
6075.00,1.31
6074.00,1.31
6073.00,1.31
6072.00,1.31
6071.00,1.31
6070.00,1.31
6069.00,1.31
6068.00,1.31
6067.00,1.32
6066.00,1.32
6065.00,1.32
6064.00,1.32
6063.00,1.32
6062.00,1.32
6061.00,1.32
6060.00,1.32
6059.00,1.33
6058.00,1.33
6057.00,1.33
6056.00,1.33
6055.00,1.33
6054.00,1.33
6053.00,1.33
6052.00,1.34
6051.00,1.34
6050.00,1.34
6049.00,1.34
6048.00,1.34
6047.00,1.34
6046.00,1.34
6045.00,1.35
6044.00,1.35
6043.00,1.35
6042.00,1.35
6041.00,1.35
6040.00,1.35
6039.00,1.35
6038.00,1.35
6037.00,1.35
6036.00,1.35
6035.00,1.35
6034.00,1.35
6033.00,1.35
6032.00,1.35
6031.00,1.35
6030.00,1.35
6029.00,1.35
6028.00,1.35
6027.00,1.35
6026.00,1.35
6025.00,1.35
6024.00,1.35
6023.00,1.35
6022.00,1.35
6021.00,1.35
6020.00,1.35
6019.00,1.35
6018.00,1.35
6017.00,1.35
6016.00,1.36
6015.00,1.36
6014.00,1.36
6013.00,1.36
6012.00,1.36
6011.00,1.36
6010.00,1.36
6009.00,1.36
6008.00,1.36
6007.00,1.36
6006.00,1.36
6005.00,1.36
6004.00,1.35
6003.00,1.35
6002.00,1.35
6001.00,1.35
6000.00,1.35
5999.00,1.35
5998.00,1.35
5997.00,1.35
5996.00,1.35
5995.00,1.35
5994.00,1.35
5993.00,1.35
5992.00,1.35
5991.00,1.35
5990.00,1.34
5989.00,1.34
5988.00,1.34
5987.00,1.34
5986.00,1.34
5985.00,1.34
5984.00,1.33
5983.00,1.33
5982.00,1.33
5981.00,1.33
5980.00,1.32
5979.00,1.32
5978.00,1.32
5977.00,1.32
5976.00,1.31
5975.00,1.31
5974.00,1.31
5973.00,1.30
5972.00,1.30
5971.00,1.29
5970.00,1.29
5969.00,1.28
5968.00,1.28
5967.00,1.27
5966.00,1.27
5965.00,1.26
5964.00,1.26
5963.00,1.25
5962.00,1.25
5961.00,1.24
5960.00,1.23
5959.00,1.23
5958.00,1.22
5957.00,1.22
5956.00,1.21
5955.00,1.21
5954.00,1.20
5953.00,1.20
5952.00,1.20
5951.00,1.19
5950.00,1.19
5949.00,1.19
5948.00,1.18
5947.00,1.18
5946.00,1.18
5945.00,1.18
5944.00,1.18
5943.00,1.17
5942.00,1.17
5941.00,1.17
5940.00,1.17
5939.00,1.17
5938.00,1.17
5937.00,1.17
5936.00,1.17
5935.00,1.16
5934.00,1.16
5933.00,1.16
5932.00,1.16
5931.00,1.16
5930.00,1.16
5929.00,1.16
5928.00,1.15
5927.00,1.15
5926.00,1.15
5925.00,1.15
5924.00,1.15
5923.00,1.14
5922.00,1.14
5921.00,1.14
5920.00,1.14
5919.00,1.14
5918.00,1.13
5917.00,1.13
5916.00,1.13
5915.00,1.13
5914.00,1.13
5913.00,1.13
5912.00,1.12
5911.00,1.12
5910.00,1.12
5909.00,1.12
5908.00,1.12
5907.00,1.12
5906.00,1.12
5905.00,1.12
5904.00,1.12
5903.00,1.12
5902.00,1.12
5901.00,1.12
5900.00,1.12
5899.00,1.12
5898.00,1.12
5897.00,1.12
5896.00,1.12
5895.00,1.12
5894.00,1.13
5893.00,1.13
5892.00,1.13
5891.00,1.13
5890.00,1.13
5889.00,1.14
5888.00,1.14
5887.00,1.14
5886.00,1.14
5885.00,1.15
5884.00,1.15
5883.00,1.15
5882.00,1.15
5881.00,1.16
5880.00,1.16
5879.00,1.16
5878.00,1.16
5877.00,1.17
5876.00,1.17
5875.00,1.17
5874.00,1.17
5873.00,1.18
5872.00,1.18
5871.00,1.18
5870.00,1.18
5869.00,1.18
5868.00,1.19
5867.00,1.19
5866.00,1.19
5865.00,1.19
5864.00,1.19
5863.00,1.19
5862.00,1.20
5861.00,1.20
5860.00,1.20
5859.00,1.20
5858.00,1.20
5857.00,1.20
5856.00,1.21
5855.00,1.21
5854.00,1.21
5853.00,1.21
5852.00,1.21
5851.00,1.21
5850.00,1.21
5849.00,1.21
5848.00,1.21
5847.00,1.22
5846.00,1.22
5845.00,1.22
5844.00,1.22
5843.00,1.22
5842.00,1.22
5841.00,1.22
5840.00,1.22
5839.00,1.22
5838.00,1.22
5837.00,1.22
5836.00,1.22
5835.00,1.22
5834.00,1.22
5833.00,1.22
5832.00,1.22
5831.00,1.22
5830.00,1.22
5829.00,1.21
5828.00,1.21
5827.00,1.21
5826.00,1.21
5825.00,1.21
5824.00,1.21
5823.00,1.21
5822.00,1.21
5821.00,1.21
5820.00,1.21
5819.00,1.21
5818.00,1.21
5817.00,1.21
5816.00,1.21
5815.00,1.21
5814.00,1.21
5813.00,1.21
5812.00,1.21
5811.00,1.21
5810.00,1.21
5809.00,1.21
5808.00,1.21
5807.00,1.21
5806.00,1.20
5805.00,1.20
5804.00,1.20
5803.00,1.20
5802.00,1.20
5801.00,1.20
5800.00,1.20
5799.00,1.20
5798.00,1.20
5797.00,1.20
5796.00,1.20
5795.00,1.19
5794.00,1.19
5793.00,1.19
5792.00,1.19
5791.00,1.19
5790.00,1.19
5789.00,1.18
5788.00,1.18
5787.00,1.18
5786.00,1.18
5785.00,1.18
5784.00,1.18
5783.00,1.18
5782.00,1.17
5781.00,1.17
5780.00,1.17
5779.00,1.17
5778.00,1.17
5777.00,1.17
5776.00,1.17
5775.00,1.17
5774.00,1.17
5773.00,1.17
5772.00,1.17
5771.00,1.17
5770.00,1.17
5769.00,1.17
5768.00,1.17
5767.00,1.17
5766.00,1.17
5765.00,1.17
5764.00,1.17
5763.00,1.18
5762.00,1.18
5761.00,1.18
5760.00,1.18
5759.00,1.18
5758.00,1.19
5757.00,1.19
5756.00,1.19
5755.00,1.20
5754.00,1.20
5753.00,1.20
5752.00,1.20
5751.00,1.21
5750.00,1.21
5749.00,1.21
5748.00,1.21
5747.00,1.22
5746.00,1.22
5745.00,1.22
5744.00,1.22
5743.00,1.23
5742.00,1.23
5741.00,1.23
5740.00,1.23
5739.00,1.23
5738.00,1.23
5737.00,1.23
5736.00,1.24
5735.00,1.24
5734.00,1.24
5733.00,1.24
5732.00,1.24
5731.00,1.24
5730.00,1.24
5729.00,1.24
5728.00,1.24
5727.00,1.24
5726.00,1.24
5725.00,1.24
5724.00,1.24
5723.00,1.24
5722.00,1.24
5721.00,1.23
5720.00,1.23
5719.00,1.23
5718.00,1.23
5717.00,1.23
5716.00,1.23
5715.00,1.23
5714.00,1.23
5713.00,1.23
5712.00,1.23
5711.00,1.23
5710.00,1.22
5709.00,1.22
5708.00,1.22
5707.00,1.22
5706.00,1.22
5705.00,1.22
5704.00,1.22
5703.00,1.22
5702.00,1.22
5701.00,1.22
5700.00,1.21
5699.00,1.21
5698.00,1.21
5697.00,1.21
5696.00,1.21
5695.00,1.21
5694.00,1.21
5693.00,1.21
5692.00,1.20
5691.00,1.20
5690.00,1.20
5689.00,1.20
5688.00,1.20
5687.00,1.20
5686.00,1.20
5685.00,1.19
5684.00,1.19
5683.00,1.19
5682.00,1.19
5681.00,1.19
5680.00,1.19
5679.00,1.19
5678.00,1.19
5677.00,1.19
5676.00,1.19
5675.00,1.19
5674.00,1.19
5673.00,1.19
5672.00,1.19
5671.00,1.19
5670.00,1.19
5669.00,1.19
5668.00,1.19
5667.00,1.19
5666.00,1.19
5665.00,1.19
5664.00,1.20
5663.00,1.20
5662.00,1.20
5661.00,1.20
5660.00,1.20
5659.00,1.20
5658.00,1.20
5657.00,1.20
5656.00,1.21
5655.00,1.21
5654.00,1.21
5653.00,1.21
5652.00,1.21
5651.00,1.21
5650.00,1.21
5649.00,1.21
5648.00,1.21
5647.00,1.21
5646.00,1.21
5645.00,1.22
5644.00,1.22
5643.00,1.22
5642.00,1.22
5641.00,1.22
5640.00,1.22
5639.00,1.22
5638.00,1.22
5637.00,1.23
5636.00,1.23
5635.00,1.23
5634.00,1.23
5633.00,1.23
5632.00,1.23
5631.00,1.24
5630.00,1.24
5629.00,1.24
5628.00,1.24
5627.00,1.24
5626.00,1.24
5625.00,1.24
5624.00,1.24
5623.00,1.25
5622.00,1.25
5621.00,1.25
5620.00,1.25
5619.00,1.25
5618.00,1.25
5617.00,1.25
5616.00,1.25
5615.00,1.25
5614.00,1.26
5613.00,1.26
5612.00,1.26
5611.00,1.26
5610.00,1.26
5609.00,1.26
5608.00,1.26
5607.00,1.26
5606.00,1.26
5605.00,1.26
5604.00,1.27
5603.00,1.27
5602.00,1.27
5601.00,1.27
5600.00,1.27
5599.00,1.27
5598.00,1.27
5597.00,1.27
5596.00,1.27
5595.00,1.28
5594.00,1.28
5593.00,1.28
5592.00,1.28
5591.00,1.28
5590.00,1.28
5589.00,1.28
5588.00,1.28
5587.00,1.29
5586.00,1.29
5585.00,1.29
5584.00,1.29
5583.00,1.29
5582.00,1.29
5581.00,1.29
5580.00,1.29
5579.00,1.30
5578.00,1.30
5577.00,1.30
5576.00,1.30
5575.00,1.30
5574.00,1.30
5573.00,1.30
5572.00,1.30
5571.00,1.30
5570.00,1.31
5569.00,1.31
5568.00,1.31
5567.00,1.31
5566.00,1.31
5565.00,1.31
5564.00,1.31
5563.00,1.31
5562.00,1.32
5561.00,1.32
5560.00,1.32
5559.00,1.32
5558.00,1.32
5557.00,1.32
5556.00,1.32
5555.00,1.32
5554.00,1.32
5553.00,1.32
5552.00,1.33
5551.00,1.33
5550.00,1.33
5549.00,1.33
5548.00,1.33
5547.00,1.33
5546.00,1.33
5545.00,1.33
5544.00,1.34
5543.00,1.34
5542.00,1.34
5541.00,1.34
5540.00,1.34
5539.00,1.34
5538.00,1.34
5537.00,1.35
5536.00,1.35
5535.00,1.35
5534.00,1.35
5533.00,1.35
5532.00,1.35
5531.00,1.35
5530.00,1.35
5529.00,1.36
5528.00,1.36
5527.00,1.36
5526.00,1.36
5525.00,1.36
5524.00,1.36
5523.00,1.36
5522.00,1.36
5521.00,1.36
5520.00,1.36
5519.00,1.36
5518.00,1.36
5517.00,1.36
5516.00,1.36
5515.00,1.36
5514.00,1.36
5513.00,1.36
5512.00,1.36
5511.00,1.36
5510.00,1.36
5509.00,1.36
5508.00,1.36
5507.00,1.37
5506.00,1.37
5505.00,1.37
5504.00,1.37
5503.00,1.37
5502.00,1.37
5501.00,1.37
5500.00,1.37
5499.00,1.37
5498.00,1.38
5497.00,1.38
5496.00,1.38
5495.00,1.38
5494.00,1.38
5493.00,1.38
5492.00,1.38
5491.00,1.38
5490.00,1.39
5489.00,1.39
5488.00,1.39
5487.00,1.39
5486.00,1.39
5485.00,1.39
5484.00,1.39
5483.00,1.39
5482.00,1.39
5481.00,1.39
5480.00,1.39
5479.00,1.39
5478.00,1.39
5477.00,1.39
5476.00,1.39
5475.00,1.40
5474.00,1.40
5473.00,1.40
5472.00,1.40
5471.00,1.40
5470.00,1.40
5469.00,1.40
5468.00,1.40
5467.00,1.40
5466.00,1.40
5465.00,1.40
5464.00,1.40
5463.00,1.40
5462.00,1.40
5461.00,1.40
5460.00,1.40
5459.00,1.40
5458.00,1.40
5457.00,1.40
5456.00,1.40
5455.00,1.40
5454.00,1.40
5453.00,1.40
5452.00,1.40
5451.00,1.40
5450.00,1.40
5449.00,1.40
5448.00,1.40
5447.00,1.40
5446.00,1.40
5445.00,1.40
5444.00,1.40
5443.00,1.40
5442.00,1.40
5441.00,1.40
5440.00,1.40
5439.00,1.40
5438.00,1.40
5437.00,1.40
5436.00,1.40
5435.00,1.40
5434.00,1.40
5433.00,1.40
5432.00,1.40
5431.00,1.40
5430.00,1.40
5429.00,1.40
5428.00,1.40
5427.00,1.40
5426.00,1.40
5425.00,1.40
5424.00,1.40
5423.00,1.40
5422.00,1.40
5421.00,1.40
5420.00,1.40
5419.00,1.40
5418.00,1.40
5417.00,1.40
5416.00,1.40
5415.00,1.40
5414.00,1.40
5413.00,1.40
5412.00,1.40
5411.00,1.40
5410.00,1.40
5409.00,1.40
5408.00,1.40
5407.00,1.40
5406.00,1.39
5405.00,1.39
5404.00,1.39
5403.00,1.39
5402.00,1.39
5401.00,1.39
5400.00,1.39
5399.00,1.39
5398.00,1.39
5397.00,1.38
5396.00,1.38
5395.00,1.38
5394.00,1.38
5393.00,1.37
5392.00,1.37
5391.00,1.37
5390.00,1.36
5389.00,1.36
5388.00,1.36
5387.00,1.35
5386.00,1.35
5385.00,1.35
5384.00,1.34
5383.00,1.34
5382.00,1.34
5381.00,1.33
5380.00,1.33
5379.00,1.32
5378.00,1.32
5377.00,1.31
5376.00,1.31
5375.00,1.30
5374.00,1.30
5373.00,1.29
5372.00,1.29
5371.00,1.28
5370.00,1.28
5369.00,1.27
5368.00,1.27
5367.00,1.26
5366.00,1.25
5365.00,1.25
5364.00,1.24
5363.00,1.24
5362.00,1.23
5361.00,1.22
5360.00,1.21
5359.00,1.21
5358.00,1.20
5357.00,1.19
5356.00,1.18
5355.00,1.17
5354.00,1.17
5353.00,1.16
5352.00,1.15
5351.00,1.14
5350.00,1.13
5349.00,1.12
5348.00,1.11
5347.00,1.10
5346.00,1.10
5345.00,1.09
5344.00,1.08
5343.00,1.07
5342.00,1.06
5341.00,1.05
5340.00,1.04
5339.00,1.04
5338.00,1.03
5337.00,1.02
5336.00,1.01
5335.00,1.00
5334.00,1.00
5333.00,0.99
5332.00,0.98
5331.00,0.98
5330.00,0.97
5329.00,0.96
5328.00,0.95
5327.00,0.95
5326.00,0.94
5325.00,0.93
5324.00,0.93
5323.00,0.92
5322.00,0.91
5321.00,0.91
5320.00,0.90
5319.00,0.90
5318.00,0.89
5317.00,0.88
5316.00,0.88
5315.00,0.87
5314.00,0.87
5313.00,0.86
5312.00,0.85
5311.00,0.85
5310.00,0.84
5309.00,0.84
5308.00,0.83
5307.00,0.83
5306.00,0.82
5305.00,0.82
5304.00,0.82
5303.00,0.81
5302.00,0.81
5301.00,0.81
5300.00,0.81
5299.00,0.80
5298.00,0.80
5297.00,0.80
5296.00,0.80
5295.00,0.80
5294.00,0.80
5293.00,0.79
5292.00,0.79
5291.00,0.79
5290.00,0.79
5289.00,0.79
5288.00,0.79
5287.00,0.79
5286.00,0.79
5285.00,0.79
5284.00,0.79
5283.00,0.79
5282.00,0.79
5281.00,0.79
5280.00,0.79
5279.00,0.79
5278.00,0.79
5277.00,0.79
5276.00,0.79
5275.00,0.79
5274.00,0.79
5273.00,0.79
5272.00,0.79
5271.00,0.79
5270.00,0.79
5269.00,0.79
5268.00,0.79
5267.00,0.78
5266.00,0.78
5265.00,0.78
5264.00,0.78
5263.00,0.78
5262.00,0.78
5261.00,0.78
5260.00,0.78
5259.00,0.78
5258.00,0.78
5257.00,0.78
5256.00,0.78
5255.00,0.78
5254.00,0.78
5253.00,0.78
5252.00,0.78
5251.00,0.78
5250.00,0.78
5249.00,0.78
5248.00,0.78
5247.00,0.78
5246.00,0.78
5245.00,0.79
5244.00,0.79
5243.00,0.79
5242.00,0.79
5241.00,0.79
5240.00,0.79
5239.00,0.79
5238.00,0.79
5237.00,0.79
5236.00,0.79
5235.00,0.79
5234.00,0.79
5233.00,0.79
5232.00,0.79
5231.00,0.79
5230.00,0.79
5229.00,0.80
5228.00,0.80
5227.00,0.80
5226.00,0.80
5225.00,0.80
5224.00,0.80
5223.00,0.80
5222.00,0.80
5221.00,0.80
5220.00,0.80
5219.00,0.80
5218.00,0.80
5217.00,0.80
5216.00,0.80
5215.00,0.80
5214.00,0.80
5213.00,0.80
5212.00,0.80
5211.00,0.80
5210.00,0.80
5209.00,0.80
5208.00,0.80
5207.00,0.80
5206.00,0.80
5205.00,0.80
5204.00,0.80
5203.00,0.80
5202.00,0.80
5201.00,0.80
5200.00,0.80
5199.00,0.80
5198.00,0.80
5197.00,0.81
5196.00,0.81
5195.00,0.81
5194.00,0.81
5193.00,0.81
5192.00,0.81
5191.00,0.81
5190.00,0.81
5189.00,0.81
5188.00,0.81
5187.00,0.81
5186.00,0.81
5185.00,0.81
5184.00,0.81
5183.00,0.81
5182.00,0.81
5181.00,0.81
5180.00,0.81
5179.00,0.81
5178.00,0.82
5177.00,0.82
5176.00,0.82
5175.00,0.82
5174.00,0.82
5173.00,0.82
5172.00,0.82
5171.00,0.82
5170.00,0.82
5169.00,0.82
5168.00,0.82
5167.00,0.82
5166.00,0.82
5165.00,0.82
5164.00,0.82
5163.00,0.82
5162.00,0.82
5161.00,0.82
5160.00,0.82
5159.00,0.82
5158.00,0.82
5157.00,0.82
5156.00,0.82
5155.00,0.82
5154.00,0.82
5153.00,0.82
5152.00,0.82
5151.00,0.82
5150.00,0.82
5149.00,0.82
5148.00,0.82
5147.00,0.82
5146.00,0.82
5145.00,0.82
5144.00,0.82
5143.00,0.82
5142.00,0.82
5141.00,0.82
5140.00,0.82
5139.00,0.82
5138.00,0.82
5137.00,0.82
5136.00,0.82
5135.00,0.82
5134.00,0.82
5133.00,0.82
5132.00,0.83
5131.00,0.83
5130.00,0.83
5129.00,0.83
5128.00,0.83
5127.00,0.83
5126.00,0.83
5125.00,0.83
5124.00,0.83
5123.00,0.83
5122.00,0.83
5121.00,0.83
5120.00,0.83
5119.00,0.83
5118.00,0.83
5117.00,0.83
5116.00,0.84
5115.00,0.84
5114.00,0.84
5113.00,0.84
5112.00,0.84
5111.00,0.84
5110.00,0.84
5109.00,0.84
5108.00,0.84
5107.00,0.84
5106.00,0.84
5105.00,0.84
5104.00,0.84
5103.00,0.84
5102.00,0.84
5101.00,0.84
5100.00,0.84
5099.00,0.84
5098.00,0.84
5097.00,0.84
5096.00,0.84
5095.00,0.84
5094.00,0.85
5093.00,0.85
5092.00,0.85
5091.00,0.85
5090.00,0.85
5089.00,0.85
5088.00,0.85
5087.00,0.85
5086.00,0.85
5085.00,0.85
5084.00,0.85
5083.00,0.85
5082.00,0.85
5081.00,0.85
5080.00,0.85
5079.00,0.85
5078.00,0.85
5077.00,0.85
5076.00,0.85
5075.00,0.85
5074.00,0.85
5073.00,0.85
5072.00,0.85
5071.00,0.85
5070.00,0.85
5069.00,0.85
5068.00,0.85
5067.00,0.85
5066.00,0.85
5065.00,0.86
5064.00,0.86
5063.00,0.86
5062.00,0.86
5061.00,0.86
5060.00,0.86
5059.00,0.86
5058.00,0.86
5057.00,0.86
5056.00,0.86
5055.00,0.86
5054.00,0.86
5053.00,0.86
5052.00,0.86
5051.00,0.86
5050.00,0.86
5049.00,0.86
5048.00,0.86
5047.00,0.86
5046.00,0.86
5045.00,0.86
5044.00,0.86
5043.00,0.86
5042.00,0.86
5041.00,0.86
5040.00,0.87
5039.00,0.87
5038.00,0.87
5037.00,0.87
5036.00,0.87
5035.00,0.87
5034.00,0.87
5033.00,0.87
5032.00,0.87
5031.00,0.87
5030.00,0.88
5029.00,0.88
5028.00,0.88
5027.00,0.88
5026.00,0.88
5025.00,0.88
5024.00,0.88
5023.00,0.88
5022.00,0.88
5021.00,0.88
5020.00,0.88
5019.00,0.88
5018.00,0.88
5017.00,0.89
5016.00,0.89
5015.00,0.89
5014.00,0.89
5013.00,0.89
5012.00,0.89
5011.00,0.89
5010.00,0.89
5009.00,0.89
5008.00,0.89
5007.00,0.89
5006.00,0.89
5005.00,0.89
5004.00,0.90
5003.00,0.90
5002.00,0.90
5001.00,0.90
5000.00,0.90
4999.00,0.90
4998.00,0.90
4997.00,0.90
4996.00,0.90
4995.00,0.90
4994.00,0.91
4993.00,0.91
4992.00,0.91
4991.00,0.91
4990.00,0.91
4989.00,0.91
4988.00,0.91
4987.00,0.91
4986.00,0.91
4985.00,0.91
4984.00,0.91
4983.00,0.91
4982.00,0.91
4981.00,0.91
4980.00,0.91
4979.00,0.91
4978.00,0.91
4977.00,0.91
4976.00,0.91
4975.00,0.91
4974.00,0.91
4973.00,0.91
4972.00,0.92
4971.00,0.92
4970.00,0.92
4969.00,0.92
4968.00,0.92
4967.00,0.92
4966.00,0.92
4965.00,0.92
4964.00,0.92
4963.00,0.92
4962.00,0.92
4961.00,0.92
4960.00,0.92
4959.00,0.92
4958.00,0.92
4957.00,0.92
4956.00,0.92
4955.00,0.92
4954.00,0.92
4953.00,0.92
4952.00,0.92
4951.00,0.92
4950.00,0.92
4949.00,0.92
4948.00,0.92
4947.00,0.92
4946.00,0.93
4945.00,0.93
4944.00,0.93
4943.00,0.93
4942.00,0.93
4941.00,0.93
4940.00,0.93
4939.00,0.93
4938.00,0.93
4937.00,0.93
4936.00,0.93
4935.00,0.93
4934.00,0.93
4933.00,0.93
4932.00,0.93
4931.00,0.93
4930.00,0.94
4929.00,0.94
4928.00,0.94
4927.00,0.94
4926.00,0.94
4925.00,0.94
4924.00,0.94
4923.00,0.94
4922.00,0.94
4921.00,0.94
4920.00,0.94
4919.00,0.94
4918.00,0.94
4917.00,0.94
4916.00,0.94
4915.00,0.94
4914.00,0.94
4913.00,0.94
4912.00,0.94
4911.00,0.94
4910.00,0.95
4909.00,0.95
4908.00,0.95
4907.00,0.95
4906.00,0.95
4905.00,0.95
4904.00,0.95
4903.00,0.95
4902.00,0.95
4901.00,0.95
4900.00,0.95
4899.00,0.96
4898.00,0.96
4897.00,0.96
4896.00,0.96
4895.00,0.96
4894.00,0.96
4893.00,0.96
4892.00,0.96
4891.00,0.96
4890.00,0.96
4889.00,0.96
4888.00,0.96
4887.00,0.96
4886.00,0.96
4885.00,0.96
4884.00,0.96
4883.00,0.96
4882.00,0.97
4881.00,0.97
4880.00,0.97
4879.00,0.97
4878.00,0.97
4877.00,0.97
4876.00,0.97
4875.00,0.97
4874.00,0.97
4873.00,0.97
4872.00,0.97
4871.00,0.97
4870.00,0.97
4869.00,0.97
4868.00,0.97
4867.00,0.97
4866.00,0.97
4865.00,0.97
4864.00,0.97
4863.00,0.98
4862.00,0.98
4861.00,0.98
4860.00,0.98
4859.00,0.98
4858.00,0.98
4857.00,0.98
4856.00,0.98
4855.00,0.98
4854.00,0.98
4853.00,0.98
4852.00,0.98
4851.00,0.98
4850.00,0.98
4849.00,0.98
4848.00,0.99
4847.00,0.99
4846.00,0.99
4845.00,0.99
4844.00,0.99
4843.00,0.99
4842.00,0.99
4841.00,0.99
4840.00,0.99
4839.00,0.99
4838.00,0.99
4837.00,1.00
4836.00,1.00
4835.00,1.00
4834.00,1.00
4833.00,1.00
4832.00,1.00
4831.00,1.00
4830.00,1.00
4829.00,1.00
4828.00,1.00
4827.00,1.00
4826.00,1.00
4825.00,1.00
4824.00,1.00
4823.00,1.00
4822.00,1.00
4821.00,1.00
4820.00,1.00
4819.00,1.00
4818.00,1.00
4817.00,1.00
4816.00,1.00
4815.00,1.00
4814.00,1.00
4813.00,1.01
4812.00,1.01
4811.00,1.01
4810.00,1.01
4809.00,1.01
4808.00,1.01
4807.00,1.01
4806.00,1.01
4805.00,1.01
4804.00,1.01
4803.00,1.01
4802.00,1.01
4801.00,1.01
4800.00,1.02
4799.00,1.02
4798.00,1.02
4797.00,1.02
4796.00,1.02
4795.00,1.02
4794.00,1.02
4793.00,1.03
4792.00,1.03
4791.00,1.03
4790.00,1.03
4789.00,1.03
4788.00,1.03
4787.00,1.03
4786.00,1.03
4785.00,1.03
4784.00,1.03
4783.00,1.03
4782.00,1.03
4781.00,1.03
4780.00,1.03
4779.00,1.03
4778.00,1.04
4777.00,1.04
4776.00,1.04
4775.00,1.04
4774.00,1.04
4773.00,1.04
4772.00,1.04
4771.00,1.04
4770.00,1.04
4769.00,1.04
4768.00,1.04
4767.00,1.04
4766.00,1.04
4765.00,1.04
4764.00,1.04
4763.00,1.04
4762.00,1.04
4761.00,1.05
4760.00,1.05
4759.00,1.05
4758.00,1.05
4757.00,1.05
4756.00,1.05
4755.00,1.06
4754.00,1.06
4753.00,1.06
4752.00,1.06
4751.00,1.06
4750.00,1.07
4749.00,1.07
4748.00,1.07
4747.00,1.07
4746.00,1.07
4745.00,1.07
4744.00,1.07
4743.00,1.08
4742.00,1.08
4741.00,1.08
4740.00,1.08
4739.00,1.08
4738.00,1.08
4737.00,1.08
4736.00,1.08
4735.00,1.08
4734.00,1.08
4733.00,1.08
4732.00,1.09
4731.00,1.09
4730.00,1.09
4729.00,1.09
4728.00,1.09
4727.00,1.09
4726.00,1.09
4725.00,1.09
4724.00,1.09
4723.00,1.09
4722.00,1.09
4721.00,1.09
4720.00,1.09
4719.00,1.10
4718.00,1.10
4717.00,1.10
4716.00,1.10
4715.00,1.10
4714.00,1.10
4713.00,1.10
4712.00,1.10
4711.00,1.10
4710.00,1.11
4709.00,1.11
4708.00,1.11
4707.00,1.11
4706.00,1.11
4705.00,1.11
4704.00,1.11
4703.00,1.11
4702.00,1.12
4701.00,1.12
4700.00,1.12
4699.00,1.12
4698.00,1.12
4697.00,1.12
4696.00,1.12
4695.00,1.12
4694.00,1.13
4693.00,1.13
4692.00,1.13
4691.00,1.13
4690.00,1.13
4689.00,1.13
4688.00,1.13
4687.00,1.13
4686.00,1.13
4685.00,1.13
4684.00,1.13
4683.00,1.14
4682.00,1.14
4681.00,1.14
4680.00,1.14
4679.00,1.14
4678.00,1.14
4677.00,1.14
4676.00,1.15
4675.00,1.15
4674.00,1.15
4673.00,1.15
4672.00,1.15
4671.00,1.15
4670.00,1.16
4669.00,1.16
4668.00,1.16
4667.00,1.16
4666.00,1.16
4665.00,1.16
4664.00,1.17
4663.00,1.17
4662.00,1.17
4661.00,1.17
4660.00,1.17
4659.00,1.17
4658.00,1.17
4657.00,1.17
4656.00,1.17
4655.00,1.17
4654.00,1.17
4653.00,1.18
4652.00,1.18
4651.00,1.18
4650.00,1.18
4649.00,1.18
4648.00,1.18
4647.00,1.18
4646.00,1.18
4645.00,1.18
4644.00,1.18
4643.00,1.18
4642.00,1.18
4641.00,1.18
4640.00,1.18
4639.00,1.19
4638.00,1.19
4637.00,1.19
4636.00,1.19
4635.00,1.19
4634.00,1.19
4633.00,1.19
4632.00,1.19
4631.00,1.20
4630.00,1.20
4629.00,1.20
4628.00,1.20
4627.00,1.20
4626.00,1.20
4625.00,1.20
4624.00,1.20
4623.00,1.20
4622.00,1.20
4621.00,1.20
4620.00,1.20
4619.00,1.20
4618.00,1.20
4617.00,1.20
4616.00,1.20
4615.00,1.20
4614.00,1.20
4613.00,1.20
4612.00,1.21
4611.00,1.21
4610.00,1.21
4609.00,1.21
4608.00,1.21
4607.00,1.21
4606.00,1.22
4605.00,1.22
4604.00,1.22
4603.00,1.22
4602.00,1.22
4601.00,1.22
4600.00,1.22
4599.00,1.22
4598.00,1.23
4597.00,1.23
4596.00,1.23
4595.00,1.23
4594.00,1.23
4593.00,1.23
4592.00,1.23
4591.00,1.23
4590.00,1.23
4589.00,1.23
4588.00,1.23
4587.00,1.23
4586.00,1.23
4585.00,1.23
4584.00,1.23
4583.00,1.23
4582.00,1.23
4581.00,1.23
4580.00,1.23
4579.00,1.23
4578.00,1.23
4577.00,1.23
4576.00,1.23
4575.00,1.23
4574.00,1.24
4573.00,1.24
4572.00,1.24
4571.00,1.24
4570.00,1.24
4569.00,1.24
4568.00,1.24
4567.00,1.24
4566.00,1.24
4565.00,1.24
4564.00,1.24
4563.00,1.24
4562.00,1.24
4561.00,1.24
4560.00,1.24
4559.00,1.24
4558.00,1.24
4557.00,1.24
4556.00,1.25
4555.00,1.25
4554.00,1.25
4553.00,1.25
4552.00,1.25
4551.00,1.25
4550.00,1.25
4549.00,1.25
4548.00,1.25
4547.00,1.25
4546.00,1.25
4545.00,1.25
4544.00,1.25
4543.00,1.25
4542.00,1.25
4541.00,1.25
4540.00,1.25
4539.00,1.25
4538.00,1.25
4537.00,1.25
4536.00,1.25
4535.00,1.25
4534.00,1.26
4533.00,1.26
4532.00,1.26
4531.00,1.26
4530.00,1.26
4529.00,1.26
4528.00,1.26
4527.00,1.26
4526.00,1.27
4525.00,1.27
4524.00,1.27
4523.00,1.27
4522.00,1.27
4521.00,1.27
4520.00,1.27
4519.00,1.27
4518.00,1.27
4517.00,1.27
4516.00,1.28
4515.00,1.28
4514.00,1.28
4513.00,1.28
4512.00,1.28
4511.00,1.28
4510.00,1.28
4509.00,1.27
4508.00,1.27
4507.00,1.27
4506.00,1.27
4505.00,1.27
4504.00,1.27
4503.00,1.27
4502.00,1.27
4501.00,1.27
4500.00,1.27
4499.00,1.27
4498.00,1.27
4497.00,1.27
4496.00,1.27
4495.00,1.27
4494.00,1.27
4493.00,1.27
4492.00,1.27
4491.00,1.27
4490.00,1.27
4489.00,1.27
4488.00,1.27
4487.00,1.27
4486.00,1.26
4485.00,1.26
4484.00,1.26
4483.00,1.26
4482.00,1.26
4481.00,1.26
4480.00,1.26
4479.00,1.26
4478.00,1.26
4477.00,1.26
4476.00,1.26
4475.00,1.26
4474.00,1.26
4473.00,1.26
4472.00,1.26
4471.00,1.26
4470.00,1.26
4469.00,1.26
4468.00,1.26
4467.00,1.26
4466.00,1.25
4465.00,1.25
4464.00,1.25
4463.00,1.25
4462.00,1.25
4461.00,1.25
4460.00,1.24
4459.00,1.24
4458.00,1.24
4457.00,1.24
4456.00,1.24
4455.00,1.23
4454.00,1.23
4453.00,1.23
4452.00,1.23
4451.00,1.23
4450.00,1.22
4449.00,1.22
4448.00,1.22
4447.00,1.22
4446.00,1.22
4445.00,1.21
4444.00,1.21
4443.00,1.21
4442.00,1.21
4441.00,1.20
4440.00,1.20
4439.00,1.20
4438.00,1.19
4437.00,1.19
4436.00,1.19
4435.00,1.19
4434.00,1.19
4433.00,1.18
4432.00,1.18
4431.00,1.18
4430.00,1.18
4429.00,1.18
4428.00,1.17
4427.00,1.17
4426.00,1.17
4425.00,1.17
4424.00,1.17
4423.00,1.17
4422.00,1.17
4421.00,1.16
4420.00,1.16
4419.00,1.16
4418.00,1.16
4417.00,1.16
4416.00,1.16
4415.00,1.16
4414.00,1.16
4413.00,1.16
4412.00,1.16
4411.00,1.16
4410.00,1.16
4409.00,1.16
4408.00,1.17
4407.00,1.17
4406.00,1.17
4405.00,1.17
4404.00,1.17
4403.00,1.17
4402.00,1.18
4401.00,1.18
4400.00,1.18
4399.00,1.18
4398.00,1.18
4397.00,1.18
4396.00,1.18
4395.00,1.18
4394.00,1.18
4393.00,1.18
4392.00,1.18
4391.00,1.19
4390.00,1.19
4389.00,1.19
4388.00,1.19
4387.00,1.19
4386.00,1.19
4385.00,1.19
4384.00,1.19
4383.00,1.19
4382.00,1.19
4381.00,1.19
4380.00,1.19
4379.00,1.19
4378.00,1.19
4377.00,1.19
4376.00,1.19
4375.00,1.19
4374.00,1.19
4373.00,1.20
4372.00,1.20
4371.00,1.20
4370.00,1.20
4369.00,1.20
4368.00,1.20
4367.00,1.20
4366.00,1.20
4365.00,1.20
4364.00,1.20
4363.00,1.20
4362.00,1.20
4361.00,1.20
4360.00,1.20
4359.00,1.20
4358.00,1.20
4357.00,1.20
4356.00,1.20
4355.00,1.20
4354.00,1.20
4353.00,1.20
4352.00,1.21
4351.00,1.21
4350.00,1.21
4349.00,1.21
4348.00,1.21
4347.00,1.21
4346.00,1.21
4345.00,1.21
4344.00,1.21
4343.00,1.21
4342.00,1.21
4341.00,1.21
4340.00,1.21
4339.00,1.21
4338.00,1.22
4337.00,1.22
4336.00,1.22
4335.00,1.22
4334.00,1.22
4333.00,1.22
4332.00,1.22
4331.00,1.22
4330.00,1.22
4329.00,1.22
4328.00,1.22
4327.00,1.22
4326.00,1.22
4325.00,1.22
4324.00,1.22
4323.00,1.22
4322.00,1.22
4321.00,1.22
4320.00,1.22
4319.00,1.22
4318.00,1.22
4317.00,1.22
4316.00,1.22
4315.00,1.22
4314.00,1.22
4313.00,1.22
4312.00,1.23
4311.00,1.23
4310.00,1.23
4309.00,1.23
4308.00,1.23
4307.00,1.23
4306.00,1.24
4305.00,1.24
4304.00,1.24
4303.00,1.24
4302.00,1.24
4301.00,1.25
4300.00,1.25
4299.00,1.25
4298.00,1.25
4297.00,1.25
4296.00,1.25
4295.00,1.26
4294.00,1.26
4293.00,1.26
4292.00,1.26
4291.00,1.26
4290.00,1.26
4289.00,1.26
4288.00,1.26
4287.00,1.26
4286.00,1.26
4285.00,1.26
4284.00,1.26
4283.00,1.26
4282.00,1.27
4281.00,1.27
4280.00,1.27
4279.00,1.27
4278.00,1.27
4277.00,1.27
4276.00,1.27
4275.00,1.27
4274.00,1.27
4273.00,1.27
4272.00,1.27
4271.00,1.27
4270.00,1.27
4269.00,1.27
4268.00,1.28
4267.00,1.28
4266.00,1.28
4265.00,1.28
4264.00,1.28
4263.00,1.28
4262.00,1.28
4261.00,1.28
4260.00,1.28
4259.00,1.28
4258.00,1.28
4257.00,1.28
4256.00,1.28
4255.00,1.28
4254.00,1.28
4253.00,1.28
4252.00,1.28
4251.00,1.27
4250.00,1.27
4249.00,1.27
4248.00,1.27
4247.00,1.27
4246.00,1.27
4245.00,1.27
4244.00,1.27
4243.00,1.27
4242.00,1.27
4241.00,1.27
4240.00,1.27
4239.00,1.27
4238.00,1.27
4237.00,1.27
4236.00,1.27
4235.00,1.27
4234.00,1.27
4233.00,1.27
4232.00,1.27
4231.00,1.28
4230.00,1.28
4229.00,1.28
4228.00,1.28
4227.00,1.28
4226.00,1.28
4225.00,1.28
4224.00,1.29
4223.00,1.29
4222.00,1.29
4221.00,1.29
4220.00,1.29
4219.00,1.29
4218.00,1.29
4217.00,1.29
4216.00,1.29
4215.00,1.29
4214.00,1.29
4213.00,1.29
4212.00,1.29
4211.00,1.29
4210.00,1.29
4209.00,1.29
4208.00,1.29
4207.00,1.29
4206.00,1.29
4205.00,1.29
4204.00,1.29
4203.00,1.29
4202.00,1.29
4201.00,1.29
4200.00,1.29
4199.00,1.29
4198.00,1.29
4197.00,1.29
4196.00,1.29
4195.00,1.29
4194.00,1.29
4193.00,1.29
4192.00,1.30
4191.00,1.30
4190.00,1.30
4189.00,1.30
4188.00,1.30
4187.00,1.30
4186.00,1.30
4185.00,1.30
4184.00,1.30
4183.00,1.30
4182.00,1.30
4181.00,1.30
4180.00,1.31
4179.00,1.31
4178.00,1.31
4177.00,1.31
4176.00,1.31
4175.00,1.31
4174.00,1.31
4173.00,1.32
4172.00,1.32
4171.00,1.32
4170.00,1.32
4169.00,1.32
4168.00,1.32
4167.00,1.32
4166.00,1.32
4165.00,1.32
4164.00,1.32
4163.00,1.32
4162.00,1.32
4161.00,1.32
4160.00,1.32
4159.00,1.32
4158.00,1.32
4157.00,1.32
4156.00,1.32
4155.00,1.32
4154.00,1.32
4153.00,1.32
4152.00,1.32
4151.00,1.32
4150.00,1.32
4149.00,1.32
4148.00,1.31
4147.00,1.31
4146.00,1.31
4145.00,1.31
4144.00,1.31
4143.00,1.31
4142.00,1.31
4141.00,1.31
4140.00,1.32
4139.00,1.32
4138.00,1.32
4137.00,1.32
4136.00,1.32
4135.00,1.32
4134.00,1.32
4133.00,1.32
4132.00,1.32
4131.00,1.32
4130.00,1.32
4129.00,1.32
4128.00,1.32
4127.00,1.32
4126.00,1.32
4125.00,1.33
4124.00,1.33
4123.00,1.33
4122.00,1.33
4121.00,1.33
4120.00,1.33
4119.00,1.33
4118.00,1.33
4117.00,1.33
4116.00,1.33
4115.00,1.33
4114.00,1.33
4113.00,1.33
4112.00,1.33
4111.00,1.33
4110.00,1.33
4109.00,1.34
4108.00,1.34
4107.00,1.34
4106.00,1.34
4105.00,1.34
4104.00,1.34
4103.00,1.34
4102.00,1.34
4101.00,1.34
4100.00,1.34
4099.00,1.34
4098.00,1.34
4097.00,1.34
4096.00,1.34
4095.00,1.34
4094.00,1.34
4093.00,1.34
4092.00,1.34
4091.00,1.34
4090.00,1.34
4089.00,1.34
4088.00,1.34
4087.00,1.34
4086.00,1.35
4085.00,1.35
4084.00,1.35
4083.00,1.35
4082.00,1.36
4081.00,1.36
4080.00,1.36
4079.00,1.36
4078.00,1.37
4077.00,1.37
4076.00,1.37
4075.00,1.37
4074.00,1.38
4073.00,1.38
4072.00,1.38
4071.00,1.38
4070.00,1.38
4069.00,1.38
4068.00,1.38
4067.00,1.38
4066.00,1.38
4065.00,1.38
4064.00,1.38
4063.00,1.37
4062.00,1.37
4061.00,1.37
4060.00,1.37
4059.00,1.37
4058.00,1.37
4057.00,1.37
4056.00,1.37
4055.00,1.37
4054.00,1.37
4053.00,1.37
4052.00,1.37
4051.00,1.37
4050.00,1.37
4049.00,1.37
4048.00,1.37
4047.00,1.37
4046.00,1.37
4045.00,1.37
4044.00,1.37
4043.00,1.37
4042.00,1.37
4041.00,1.37
4040.00,1.37
4039.00,1.37
4038.00,1.37
4037.00,1.37
4036.00,1.37
4035.00,1.37
4034.00,1.37
4033.00,1.38
4032.00,1.38
4031.00,1.38
4030.00,1.38
4029.00,1.38
4028.00,1.38
4027.00,1.38
4026.00,1.39
4025.00,1.39
4024.00,1.39
4023.00,1.39
4022.00,1.39
4021.00,1.39
4020.00,1.39
4019.00,1.39
4018.00,1.39
4017.00,1.39
4016.00,1.39
4015.00,1.40
4014.00,1.40
4013.00,1.40
4012.00,1.40
4011.00,1.40
4010.00,1.40
4009.00,1.40
4008.00,1.40
4007.00,1.40
4006.00,1.40
4005.00,1.40
4004.00,1.40
4003.00,1.40
4002.00,1.40
4001.00,1.40
4000.00,1.41
