创建为新数据集,样品 064 用户 Administrator 日期 星期五, 七月 20 2018
cm-1,%T
10000.00,1.42
9999.00,1.42
9998.00,1.42
9997.00,1.42
9996.00,1.42
9995.00,1.42
9994.00,1.42
9993.00,1.42
9992.00,1.42
9991.00,1.42
9990.00,1.42
9989.00,1.42
9988.00,1.41
9987.00,1.41
9986.00,1.41
9985.00,1.41
9984.00,1.41
9983.00,1.42
9982.00,1.42
9981.00,1.42
9980.00,1.42
9979.00,1.42
9978.00,1.42
9977.00,1.42
9976.00,1.42
9975.00,1.42
9974.00,1.42
9973.00,1.42
9972.00,1.42
9971.00,1.42
9970.00,1.42
9969.00,1.42
9968.00,1.41
9967.00,1.41
9966.00,1.41
9965.00,1.41
9964.00,1.40
9963.00,1.40
9962.00,1.40
9961.00,1.39
9960.00,1.39
9959.00,1.39
9958.00,1.38
9957.00,1.38
9956.00,1.38
9955.00,1.37
9954.00,1.37
9953.00,1.37
9952.00,1.37
9951.00,1.37
9950.00,1.37
9949.00,1.37
9948.00,1.37
9947.00,1.37
9946.00,1.37
9945.00,1.37
9944.00,1.37
9943.00,1.37
9942.00,1.38
9941.00,1.38
9940.00,1.38
9939.00,1.38
9938.00,1.38
9937.00,1.38
9936.00,1.38
9935.00,1.39
9934.00,1.39
9933.00,1.39
9932.00,1.39
9931.00,1.39
9930.00,1.39
9929.00,1.39
9928.00,1.39
9927.00,1.40
9926.00,1.40
9925.00,1.40
9924.00,1.40
9923.00,1.40
9922.00,1.40
9921.00,1.40
9920.00,1.40
9919.00,1.40
9918.00,1.40
9917.00,1.40
9916.00,1.40
9915.00,1.40
9914.00,1.39
9913.00,1.39
9912.00,1.39
9911.00,1.39
9910.00,1.39
9909.00,1.38
9908.00,1.38
9907.00,1.38
9906.00,1.38
9905.00,1.38
9904.00,1.37
9903.00,1.37
9902.00,1.37
9901.00,1.37
9900.00,1.37
9899.00,1.37
9898.00,1.37
9897.00,1.36
9896.00,1.36
9895.00,1.36
9894.00,1.36
9893.00,1.36
9892.00,1.37
9891.00,1.37
9890.00,1.37
9889.00,1.37
9888.00,1.37
9887.00,1.37
9886.00,1.37
9885.00,1.37
9884.00,1.37
9883.00,1.37
9882.00,1.37
9881.00,1.37
9880.00,1.37
9879.00,1.38
9878.00,1.38
9877.00,1.38
9876.00,1.38
9875.00,1.38
9874.00,1.38
9873.00,1.38
9872.00,1.37
9871.00,1.37
9870.00,1.37
9869.00,1.37
9868.00,1.37
9867.00,1.37
9866.00,1.37
9865.00,1.37
9864.00,1.37
9863.00,1.37
9862.00,1.37
9861.00,1.37
9860.00,1.37
9859.00,1.37
9858.00,1.37
9857.00,1.37
9856.00,1.37
9855.00,1.37
9854.00,1.38
9853.00,1.38
9852.00,1.38
9851.00,1.38
9850.00,1.39
9849.00,1.39
9848.00,1.39
9847.00,1.39
9846.00,1.39
9845.00,1.40
9844.00,1.40
9843.00,1.40
9842.00,1.40
9841.00,1.40
9840.00,1.40
9839.00,1.40
9838.00,1.40
9837.00,1.39
9836.00,1.39
9835.00,1.39
9834.00,1.39
9833.00,1.38
9832.00,1.38
9831.00,1.38
9830.00,1.38
9829.00,1.38
9828.00,1.37
9827.00,1.37
9826.00,1.37
9825.00,1.37
9824.00,1.37
9823.00,1.37
9822.00,1.37
9821.00,1.37
9820.00,1.37
9819.00,1.37
9818.00,1.37
9817.00,1.37
9816.00,1.37
9815.00,1.37
9814.00,1.38
9813.00,1.38
9812.00,1.38
9811.00,1.38
9810.00,1.38
9809.00,1.38
9808.00,1.38
9807.00,1.38
9806.00,1.39
9805.00,1.39
9804.00,1.39
9803.00,1.39
9802.00,1.39
9801.00,1.39
9800.00,1.39
9799.00,1.40
9798.00,1.40
9797.00,1.40
9796.00,1.40
9795.00,1.40
9794.00,1.40
9793.00,1.40
9792.00,1.40
9791.00,1.40
9790.00,1.40
9789.00,1.40
9788.00,1.40
9787.00,1.40
9786.00,1.40
9785.00,1.40
9784.00,1.40
9783.00,1.40
9782.00,1.40
9781.00,1.40
9780.00,1.40
9779.00,1.40
9778.00,1.39
9777.00,1.39
9776.00,1.39
9775.00,1.39
9774.00,1.39
9773.00,1.39
9772.00,1.39
9771.00,1.38
9770.00,1.38
9769.00,1.38
9768.00,1.38
9767.00,1.38
9766.00,1.38
9765.00,1.38
9764.00,1.38
9763.00,1.38
9762.00,1.38
9761.00,1.38
9760.00,1.38
9759.00,1.38
9758.00,1.38
9757.00,1.38
9756.00,1.38
9755.00,1.38
9754.00,1.38
9753.00,1.38
9752.00,1.38
9751.00,1.38
9750.00,1.37
9749.00,1.37
9748.00,1.37
9747.00,1.37
9746.00,1.37
9745.00,1.37
9744.00,1.37
9743.00,1.37
9742.00,1.37
9741.00,1.37
9740.00,1.37
9739.00,1.37
9738.00,1.37
9737.00,1.37
9736.00,1.37
9735.00,1.37
9734.00,1.37
9733.00,1.37
9732.00,1.37
9731.00,1.37
9730.00,1.37
9729.00,1.37
9728.00,1.37
9727.00,1.37
9726.00,1.37
9725.00,1.37
9724.00,1.37
9723.00,1.37
9722.00,1.37
9721.00,1.37
9720.00,1.37
9719.00,1.38
9718.00,1.38
9717.00,1.38
9716.00,1.38
9715.00,1.38
9714.00,1.38
9713.00,1.38
9712.00,1.38
9711.00,1.38
9710.00,1.39
9709.00,1.39
9708.00,1.39
9707.00,1.39
9706.00,1.39
9705.00,1.39
9704.00,1.40
9703.00,1.40
9702.00,1.40
9701.00,1.40
9700.00,1.40
9699.00,1.40
9698.00,1.40
9697.00,1.40
9696.00,1.41
9695.00,1.41
9694.00,1.41
9693.00,1.41
9692.00,1.41
9691.00,1.41
9690.00,1.41
9689.00,1.42
9688.00,1.42
9687.00,1.42
9686.00,1.42
9685.00,1.42
9684.00,1.42
9683.00,1.42
9682.00,1.42
9681.00,1.42
9680.00,1.42
9679.00,1.42
9678.00,1.42
9677.00,1.42
9676.00,1.42
9675.00,1.42
9674.00,1.41
9673.00,1.41
9672.00,1.41
9671.00,1.41
9670.00,1.41
9669.00,1.41
9668.00,1.41
9667.00,1.41
9666.00,1.40
9665.00,1.40
9664.00,1.40
9663.00,1.40
9662.00,1.40
9661.00,1.40
9660.00,1.40
9659.00,1.39
9658.00,1.39
9657.00,1.39
9656.00,1.39
9655.00,1.39
9654.00,1.39
9653.00,1.39
9652.00,1.39
9651.00,1.39
9650.00,1.39
9649.00,1.39
9648.00,1.39
9647.00,1.39
9646.00,1.39
9645.00,1.39
9644.00,1.39
9643.00,1.40
9642.00,1.40
9641.00,1.40
9640.00,1.40
9639.00,1.40
9638.00,1.40
9637.00,1.40
9636.00,1.40
9635.00,1.41
9634.00,1.41
9633.00,1.41
9632.00,1.41
9631.00,1.41
9630.00,1.41
9629.00,1.42
9628.00,1.42
9627.00,1.42
9626.00,1.42
9625.00,1.42
9624.00,1.42
9623.00,1.42
9622.00,1.42
9621.00,1.41
9620.00,1.41
9619.00,1.41
9618.00,1.41
9617.00,1.40
9616.00,1.40
9615.00,1.40
9614.00,1.39
9613.00,1.39
9612.00,1.39
9611.00,1.38
9610.00,1.38
9609.00,1.38
9608.00,1.38
9607.00,1.38
9606.00,1.37
9605.00,1.37
9604.00,1.38
9603.00,1.38
9602.00,1.38
9601.00,1.38
9600.00,1.38
9599.00,1.38
9598.00,1.38
9597.00,1.38
9596.00,1.38
9595.00,1.38
9594.00,1.38
9593.00,1.38
9592.00,1.38
9591.00,1.38
9590.00,1.37
9589.00,1.37
9588.00,1.37
9587.00,1.37
9586.00,1.37
9585.00,1.37
9584.00,1.37
9583.00,1.38
9582.00,1.38
9581.00,1.38
9580.00,1.38
9579.00,1.38
9578.00,1.39
9577.00,1.39
9576.00,1.39
9575.00,1.39
9574.00,1.40
9573.00,1.40
9572.00,1.40
9571.00,1.40
9570.00,1.40
9569.00,1.40
9568.00,1.41
9567.00,1.41
9566.00,1.41
9565.00,1.41
9564.00,1.41
9563.00,1.41
9562.00,1.41
9561.00,1.41
9560.00,1.41
9559.00,1.41
9558.00,1.41
9557.00,1.41
9556.00,1.41
9555.00,1.41
9554.00,1.41
9553.00,1.41
9552.00,1.41
9551.00,1.41
9550.00,1.41
9549.00,1.41
9548.00,1.41
9547.00,1.41
9546.00,1.41
9545.00,1.41
9544.00,1.41
9543.00,1.41
9542.00,1.41
9541.00,1.41
9540.00,1.40
9539.00,1.40
9538.00,1.40
9537.00,1.40
9536.00,1.40
9535.00,1.39
9534.00,1.39
9533.00,1.39
9532.00,1.39
9531.00,1.38
9530.00,1.38
9529.00,1.38
9528.00,1.38
9527.00,1.38
9526.00,1.38
9525.00,1.37
9524.00,1.37
9523.00,1.37
9522.00,1.37
9521.00,1.37
9520.00,1.37
9519.00,1.37
9518.00,1.37
9517.00,1.37
9516.00,1.38
9515.00,1.38
9514.00,1.38
9513.00,1.38
9512.00,1.38
9511.00,1.38
9510.00,1.38
9509.00,1.38
9508.00,1.39
9507.00,1.39
9506.00,1.39
9505.00,1.39
9504.00,1.39
9503.00,1.39
9502.00,1.40
9501.00,1.40
9500.00,1.40
9499.00,1.40
9498.00,1.40
9497.00,1.40
9496.00,1.40
9495.00,1.40
9494.00,1.40
9493.00,1.40
9492.00,1.41
9491.00,1.41
9490.00,1.41
9489.00,1.41
9488.00,1.41
9487.00,1.41
9486.00,1.41
9485.00,1.41
9484.00,1.41
9483.00,1.40
9482.00,1.40
9481.00,1.40
9480.00,1.40
9479.00,1.40
9478.00,1.40
9477.00,1.39
9476.00,1.39
9475.00,1.39
9474.00,1.39
9473.00,1.38
9472.00,1.38
9471.00,1.38
9470.00,1.37
9469.00,1.37
9468.00,1.37
9467.00,1.37
9466.00,1.37
9465.00,1.37
9464.00,1.36
9463.00,1.36
9462.00,1.36
9461.00,1.36
9460.00,1.36
9459.00,1.37
9458.00,1.37
9457.00,1.37
9456.00,1.37
9455.00,1.37
9454.00,1.37
9453.00,1.37
9452.00,1.37
9451.00,1.37
9450.00,1.37
9449.00,1.37
9448.00,1.37
9447.00,1.38
9446.00,1.38
9445.00,1.38
9444.00,1.38
9443.00,1.38
9442.00,1.38
9441.00,1.38
9440.00,1.38
9439.00,1.38
9438.00,1.39
9437.00,1.39
9436.00,1.39
9435.00,1.39
9434.00,1.39
9433.00,1.39
9432.00,1.40
9431.00,1.40
9430.00,1.40
9429.00,1.40
9428.00,1.40
9427.00,1.40
9426.00,1.40
9425.00,1.40
9424.00,1.41
9423.00,1.41
9422.00,1.41
9421.00,1.41
9420.00,1.41
9419.00,1.41
9418.00,1.41
9417.00,1.41
9416.00,1.41
9415.00,1.42
9414.00,1.42
9413.00,1.42
9412.00,1.42
9411.00,1.41
9410.00,1.41
9409.00,1.41
9408.00,1.41
9407.00,1.41
9406.00,1.41
9405.00,1.41
9404.00,1.40
9403.00,1.40
9402.00,1.40
9401.00,1.40
9400.00,1.40
9399.00,1.40
9398.00,1.40
9397.00,1.40
9396.00,1.40
9395.00,1.40
9394.00,1.40
9393.00,1.41
9392.00,1.41
9391.00,1.41
9390.00,1.41
9389.00,1.41
9388.00,1.41
9387.00,1.41
9386.00,1.41
9385.00,1.42
9384.00,1.42
9383.00,1.42
9382.00,1.42
9381.00,1.42
9380.00,1.41
9379.00,1.41
9378.00,1.41
9377.00,1.41
9376.00,1.41
9375.00,1.41
9374.00,1.41
9373.00,1.40
9372.00,1.40
9371.00,1.40
9370.00,1.40
9369.00,1.40
9368.00,1.39
9367.00,1.39
9366.00,1.39
9365.00,1.39
9364.00,1.39
9363.00,1.39
9362.00,1.39
9361.00,1.39
9360.00,1.39
9359.00,1.39
9358.00,1.40
9357.00,1.40
9356.00,1.40
9355.00,1.40
9354.00,1.41
9353.00,1.41
9352.00,1.41
9351.00,1.41
9350.00,1.42
9349.00,1.42
9348.00,1.42
9347.00,1.42
9346.00,1.42
9345.00,1.42
9344.00,1.42
9343.00,1.42
9342.00,1.42
9341.00,1.41
9340.00,1.41
9339.00,1.41
9338.00,1.41
9337.00,1.41
9336.00,1.40
9335.00,1.40
9334.00,1.40
9333.00,1.40
9332.00,1.39
9331.00,1.39
9330.00,1.39
9329.00,1.39
9328.00,1.39
9327.00,1.39
9326.00,1.38
9325.00,1.38
9324.00,1.38
9323.00,1.38
9322.00,1.38
9321.00,1.38
9320.00,1.38
9319.00,1.38
9318.00,1.38
9317.00,1.38
9316.00,1.38
9315.00,1.38
9314.00,1.38
9313.00,1.38
9312.00,1.38
9311.00,1.38
9310.00,1.38
9309.00,1.38
9308.00,1.38
9307.00,1.38
9306.00,1.38
9305.00,1.39
9304.00,1.39
9303.00,1.39
9302.00,1.39
9301.00,1.39
9300.00,1.40
9299.00,1.40
9298.00,1.40
9297.00,1.40
9296.00,1.40
9295.00,1.40
9294.00,1.40
9293.00,1.40
9292.00,1.40
9291.00,1.40
9290.00,1.40
9289.00,1.40
9288.00,1.40
9287.00,1.40
9286.00,1.40
9285.00,1.40
9284.00,1.40
9283.00,1.40
9282.00,1.40
9281.00,1.39
9280.00,1.39
9279.00,1.39
9278.00,1.39
9277.00,1.39
9276.00,1.38
9275.00,1.38
9274.00,1.38
9273.00,1.38
9272.00,1.38
9271.00,1.37
9270.00,1.37
9269.00,1.37
9268.00,1.37
9267.00,1.37
9266.00,1.37
9265.00,1.36
9264.00,1.36
9263.00,1.36
9262.00,1.36
9261.00,1.36
9260.00,1.36
9259.00,1.37
9258.00,1.37
9257.00,1.37
9256.00,1.37
9255.00,1.37
9254.00,1.37
9253.00,1.38
9252.00,1.38
9251.00,1.38
9250.00,1.39
9249.00,1.39
9248.00,1.39
9247.00,1.39
9246.00,1.40
9245.00,1.40
9244.00,1.40
9243.00,1.40
9242.00,1.41
9241.00,1.41
9240.00,1.41
9239.00,1.41
9238.00,1.41
9237.00,1.41
9236.00,1.41
9235.00,1.41
9234.00,1.41
9233.00,1.41
9232.00,1.41
9231.00,1.40
9230.00,1.40
9229.00,1.40
9228.00,1.40
9227.00,1.40
9226.00,1.40
9225.00,1.40
9224.00,1.40
9223.00,1.40
9222.00,1.40
9221.00,1.40
9220.00,1.40
9219.00,1.40
9218.00,1.40
9217.00,1.40
9216.00,1.40
9215.00,1.40
9214.00,1.40
9213.00,1.40
9212.00,1.40
9211.00,1.39
9210.00,1.39
9209.00,1.39
9208.00,1.39
9207.00,1.39
9206.00,1.39
9205.00,1.39
9204.00,1.39
9203.00,1.39
9202.00,1.39
9201.00,1.39
9200.00,1.39
9199.00,1.39
9198.00,1.39
9197.00,1.39
9196.00,1.39
9195.00,1.39
9194.00,1.39
9193.00,1.39
9192.00,1.40
9191.00,1.40
9190.00,1.40
9189.00,1.40
9188.00,1.41
9187.00,1.41
9186.00,1.41
9185.00,1.41
9184.00,1.41
9183.00,1.41
9182.00,1.42
9181.00,1.42
9180.00,1.42
9179.00,1.42
9178.00,1.42
9177.00,1.42
9176.00,1.42
9175.00,1.42
9174.00,1.42
9173.00,1.42
9172.00,1.42
9171.00,1.42
9170.00,1.42
9169.00,1.42
9168.00,1.42
9167.00,1.42
9166.00,1.42
9165.00,1.42
9164.00,1.42
9163.00,1.41
9162.00,1.41
9161.00,1.41
9160.00,1.41
9159.00,1.41
9158.00,1.41
9157.00,1.41
9156.00,1.41
9155.00,1.41
9154.00,1.41
9153.00,1.41
9152.00,1.41
9151.00,1.41
9150.00,1.41
9149.00,1.41
9148.00,1.41
9147.00,1.41
9146.00,1.41
9145.00,1.41
9144.00,1.41
9143.00,1.41
9142.00,1.41
9141.00,1.41
9140.00,1.41
9139.00,1.41
9138.00,1.41
9137.00,1.41
9136.00,1.41
9135.00,1.41
9134.00,1.41
9133.00,1.41
9132.00,1.41
9131.00,1.41
9130.00,1.41
9129.00,1.40
9128.00,1.40
9127.00,1.40
9126.00,1.40
9125.00,1.40
9124.00,1.40
9123.00,1.40
9122.00,1.40
9121.00,1.40
9120.00,1.40
9119.00,1.40
9118.00,1.40
9117.00,1.40
9116.00,1.40
9115.00,1.40
9114.00,1.40
9113.00,1.40
9112.00,1.40
9111.00,1.40
9110.00,1.40
9109.00,1.40
9108.00,1.40
9107.00,1.40
9106.00,1.40
9105.00,1.40
9104.00,1.40
9103.00,1.40
9102.00,1.40
9101.00,1.40
9100.00,1.40
9099.00,1.40
9098.00,1.40
9097.00,1.40
9096.00,1.40
9095.00,1.41
9094.00,1.41
9093.00,1.41
9092.00,1.41
9091.00,1.41
9090.00,1.41
9089.00,1.41
9088.00,1.41
9087.00,1.41
9086.00,1.41
9085.00,1.41
9084.00,1.41
9083.00,1.40
9082.00,1.40
9081.00,1.40
9080.00,1.40
9079.00,1.40
9078.00,1.40
9077.00,1.40
9076.00,1.40
9075.00,1.40
9074.00,1.40
9073.00,1.40
9072.00,1.40
9071.00,1.40
9070.00,1.40
9069.00,1.40
9068.00,1.40
9067.00,1.40
9066.00,1.40
9065.00,1.40
9064.00,1.40
9063.00,1.41
9062.00,1.41
9061.00,1.41
9060.00,1.41
9059.00,1.41
9058.00,1.41
9057.00,1.41
9056.00,1.41
9055.00,1.41
9054.00,1.41
9053.00,1.41
9052.00,1.40
9051.00,1.40
9050.00,1.40
9049.00,1.40
9048.00,1.40
9047.00,1.40
9046.00,1.40
9045.00,1.40
9044.00,1.40
9043.00,1.40
9042.00,1.40
9041.00,1.40
9040.00,1.40
9039.00,1.40
9038.00,1.40
9037.00,1.40
9036.00,1.41
9035.00,1.41
9034.00,1.41
9033.00,1.41
9032.00,1.41
9031.00,1.41
9030.00,1.41
9029.00,1.42
9028.00,1.42
9027.00,1.42
9026.00,1.42
9025.00,1.42
9024.00,1.42
9023.00,1.42
9022.00,1.42
9021.00,1.42
9020.00,1.42
9019.00,1.42
9018.00,1.42
9017.00,1.42
9016.00,1.42
9015.00,1.42
9014.00,1.42
9013.00,1.42
9012.00,1.41
9011.00,1.41
9010.00,1.41
9009.00,1.41
9008.00,1.41
9007.00,1.41
9006.00,1.40
9005.00,1.40
9004.00,1.40
9003.00,1.40
9002.00,1.39
9001.00,1.39
9000.00,1.39
8999.00,1.39
8998.00,1.39
8997.00,1.38
8996.00,1.38
8995.00,1.38
8994.00,1.38
8993.00,1.38
8992.00,1.38
8991.00,1.38
8990.00,1.38
8989.00,1.38
8988.00,1.38
8987.00,1.38
8986.00,1.38
8985.00,1.38
8984.00,1.39
8983.00,1.39
8982.00,1.39
8981.00,1.39
8980.00,1.39
8979.00,1.39
8978.00,1.39
8977.00,1.39
8976.00,1.39
8975.00,1.39
8974.00,1.39
8973.00,1.39
8972.00,1.39
8971.00,1.39
8970.00,1.39
8969.00,1.39
8968.00,1.39
8967.00,1.39
8966.00,1.39
8965.00,1.39
8964.00,1.39
8963.00,1.39
8962.00,1.39
8961.00,1.39
8960.00,1.39
8959.00,1.39
8958.00,1.39
8957.00,1.39
8956.00,1.39
8955.00,1.39
8954.00,1.39
8953.00,1.39
8952.00,1.39
8951.00,1.39
8950.00,1.39
8949.00,1.39
8948.00,1.39
8947.00,1.39
8946.00,1.39
8945.00,1.39
8944.00,1.39
8943.00,1.39
8942.00,1.39
8941.00,1.39
8940.00,1.39
8939.00,1.39
8938.00,1.40
8937.00,1.40
8936.00,1.40
8935.00,1.40
8934.00,1.40
8933.00,1.40
8932.00,1.40
8931.00,1.40
8930.00,1.40
8929.00,1.40
8928.00,1.40
8927.00,1.40
8926.00,1.40
8925.00,1.40
8924.00,1.40
8923.00,1.39
8922.00,1.39
8921.00,1.39
8920.00,1.39
8919.00,1.39
8918.00,1.39
8917.00,1.39
8916.00,1.39
8915.00,1.39
8914.00,1.40
8913.00,1.40
8912.00,1.40
8911.00,1.40
8910.00,1.40
8909.00,1.40
8908.00,1.40
8907.00,1.40
8906.00,1.40
8905.00,1.41
8904.00,1.41
8903.00,1.41
8902.00,1.41
8901.00,1.41
8900.00,1.41
8899.00,1.41
8898.00,1.41
8897.00,1.41
8896.00,1.41
8895.00,1.42
8894.00,1.42
8893.00,1.41
8892.00,1.41
8891.00,1.41
8890.00,1.41
8889.00,1.41
8888.00,1.41
8887.00,1.41
8886.00,1.41
8885.00,1.41
8884.00,1.41
8883.00,1.41
8882.00,1.41
8881.00,1.41
8880.00,1.41
8879.00,1.41
8878.00,1.41
8877.00,1.41
8876.00,1.41
8875.00,1.41
8874.00,1.41
8873.00,1.41
8872.00,1.41
8871.00,1.41
8870.00,1.41
8869.00,1.41
8868.00,1.41
8867.00,1.41
8866.00,1.41
8865.00,1.41
8864.00,1.41
8863.00,1.41
8862.00,1.41
8861.00,1.41
8860.00,1.41
8859.00,1.41
8858.00,1.41
8857.00,1.41
8856.00,1.41
8855.00,1.41
8854.00,1.41
8853.00,1.41
8852.00,1.40
8851.00,1.40
8850.00,1.40
8849.00,1.40
8848.00,1.40
8847.00,1.40
8846.00,1.40
8845.00,1.40
8844.00,1.39
8843.00,1.39
8842.00,1.39
8841.00,1.39
8840.00,1.39
8839.00,1.39
8838.00,1.38
8837.00,1.38
8836.00,1.38
8835.00,1.38
8834.00,1.38
8833.00,1.37
8832.00,1.37
8831.00,1.37
8830.00,1.37
8829.00,1.37
8828.00,1.37
8827.00,1.37
8826.00,1.37
8825.00,1.37
8824.00,1.37
8823.00,1.37
8822.00,1.37
8821.00,1.37
8820.00,1.37
8819.00,1.37
8818.00,1.37
8817.00,1.38
8816.00,1.38
8815.00,1.38
8814.00,1.38
8813.00,1.38
8812.00,1.38
8811.00,1.38
8810.00,1.38
8809.00,1.38
8808.00,1.38
8807.00,1.38
8806.00,1.39
8805.00,1.39
8804.00,1.39
8803.00,1.39
8802.00,1.39
8801.00,1.39
8800.00,1.39
8799.00,1.39
8798.00,1.39
8797.00,1.39
8796.00,1.39
8795.00,1.39
8794.00,1.39
8793.00,1.39
8792.00,1.39
8791.00,1.39
8790.00,1.39
8789.00,1.39
8788.00,1.39
8787.00,1.38
8786.00,1.38
8785.00,1.38
8784.00,1.38
8783.00,1.38
8782.00,1.38
8781.00,1.37
8780.00,1.37
8779.00,1.37
8778.00,1.37
8777.00,1.37
8776.00,1.37
8775.00,1.37
8774.00,1.36
8773.00,1.36
8772.00,1.36
8771.00,1.36
8770.00,1.36
8769.00,1.36
8768.00,1.36
8767.00,1.36
8766.00,1.36
8765.00,1.36
8764.00,1.36
8763.00,1.36
8762.00,1.36
8761.00,1.36
8760.00,1.36
8759.00,1.36
8758.00,1.36
8757.00,1.36
8756.00,1.36
8755.00,1.36
8754.00,1.36
8753.00,1.36
8752.00,1.36
8751.00,1.36
8750.00,1.36
8749.00,1.36
8748.00,1.35
8747.00,1.35
8746.00,1.35
8745.00,1.35
8744.00,1.35
8743.00,1.35
8742.00,1.35
8741.00,1.35
8740.00,1.35
8739.00,1.35
8738.00,1.34
8737.00,1.34
8736.00,1.34
8735.00,1.34
8734.00,1.34
8733.00,1.34
8732.00,1.34
8731.00,1.34
8730.00,1.34
8729.00,1.34
8728.00,1.34
8727.00,1.34
8726.00,1.34
8725.00,1.34
8724.00,1.34
8723.00,1.34
8722.00,1.34
8721.00,1.34
8720.00,1.34
8719.00,1.34
8718.00,1.34
8717.00,1.34
8716.00,1.34
8715.00,1.34
8714.00,1.34
8713.00,1.34
8712.00,1.33
8711.00,1.33
8710.00,1.33
8709.00,1.33
8708.00,1.33
8707.00,1.33
8706.00,1.33
8705.00,1.33
8704.00,1.33
8703.00,1.33
8702.00,1.33
8701.00,1.33
8700.00,1.33
8699.00,1.33
8698.00,1.33
8697.00,1.33
8696.00,1.34
8695.00,1.34
8694.00,1.34
8693.00,1.34
8692.00,1.34
8691.00,1.34
8690.00,1.34
8689.00,1.34
8688.00,1.34
8687.00,1.34
8686.00,1.34
8685.00,1.34
8684.00,1.34
8683.00,1.34
8682.00,1.34
8681.00,1.34
8680.00,1.34
8679.00,1.34
8678.00,1.34
8677.00,1.34
8676.00,1.34
8675.00,1.34
8674.00,1.34
8673.00,1.33
8672.00,1.33
8671.00,1.33
8670.00,1.33
8669.00,1.33
8668.00,1.33
8667.00,1.33
8666.00,1.33
8665.00,1.33
8664.00,1.33
8663.00,1.33
8662.00,1.34
8661.00,1.34
8660.00,1.34
8659.00,1.34
8658.00,1.34
8657.00,1.34
8656.00,1.34
8655.00,1.34
8654.00,1.35
8653.00,1.35
8652.00,1.35
8651.00,1.35
8650.00,1.35
8649.00,1.35
8648.00,1.35
8647.00,1.35
8646.00,1.35
8645.00,1.35
8644.00,1.35
8643.00,1.35
8642.00,1.35
8641.00,1.35
8640.00,1.35
8639.00,1.35
8638.00,1.35
8637.00,1.34
8636.00,1.34
8635.00,1.34
8634.00,1.34
8633.00,1.34
8632.00,1.34
8631.00,1.34
8630.00,1.34
8629.00,1.33
8628.00,1.33
8627.00,1.33
8626.00,1.33
8625.00,1.33
8624.00,1.33
8623.00,1.33
8622.00,1.33
8621.00,1.33
8620.00,1.34
8619.00,1.34
8618.00,1.34
8617.00,1.34
8616.00,1.34
8615.00,1.34
8614.00,1.33
8613.00,1.33
8612.00,1.33
8611.00,1.33
8610.00,1.33
8609.00,1.33
8608.00,1.33
8607.00,1.32
8606.00,1.32
8605.00,1.32
8604.00,1.32
8603.00,1.32
8602.00,1.32
8601.00,1.32
8600.00,1.31
8599.00,1.31
8598.00,1.31
8597.00,1.31
8596.00,1.31
8595.00,1.31
8594.00,1.31
8593.00,1.31
8592.00,1.31
8591.00,1.31
8590.00,1.31
8589.00,1.30
8588.00,1.30
8587.00,1.30
8586.00,1.30
8585.00,1.30
8584.00,1.30
8583.00,1.30
8582.00,1.30
8581.00,1.30
8580.00,1.30
8579.00,1.31
8578.00,1.31
8577.00,1.31
8576.00,1.31
8575.00,1.31
8574.00,1.31
8573.00,1.31
8572.00,1.31
8571.00,1.31
8570.00,1.31
8569.00,1.31
8568.00,1.31
8567.00,1.31
8566.00,1.31
8565.00,1.31
8564.00,1.31
8563.00,1.31
8562.00,1.31
8561.00,1.31
8560.00,1.31
8559.00,1.31
8558.00,1.30
8557.00,1.30
8556.00,1.30
8555.00,1.30
8554.00,1.30
8553.00,1.30
8552.00,1.30
8551.00,1.30
8550.00,1.29
8549.00,1.29
8548.00,1.29
8547.00,1.29
8546.00,1.29
8545.00,1.29
8544.00,1.29
8543.00,1.29
8542.00,1.29
8541.00,1.29
8540.00,1.29
8539.00,1.29
8538.00,1.29
8537.00,1.29
8536.00,1.29
8535.00,1.29
8534.00,1.29
8533.00,1.29
8532.00,1.29
8531.00,1.29
8530.00,1.29
8529.00,1.29
8528.00,1.29
8527.00,1.29
8526.00,1.29
8525.00,1.28
8524.00,1.28
8523.00,1.28
8522.00,1.28
8521.00,1.28
8520.00,1.28
8519.00,1.28
8518.00,1.28
8517.00,1.28
8516.00,1.28
8515.00,1.28
8514.00,1.27
8513.00,1.27
8512.00,1.27
8511.00,1.27
8510.00,1.27
8509.00,1.27
8508.00,1.27
8507.00,1.27
8506.00,1.27
8505.00,1.27
8504.00,1.27
8503.00,1.27
8502.00,1.27
8501.00,1.27
8500.00,1.27
8499.00,1.27
8498.00,1.27
8497.00,1.27
8496.00,1.27
8495.00,1.27
8494.00,1.27
8493.00,1.27
8492.00,1.27
8491.00,1.27
8490.00,1.27
8489.00,1.27
8488.00,1.27
8487.00,1.27
8486.00,1.27
8485.00,1.27
8484.00,1.27
8483.00,1.27
8482.00,1.27
8481.00,1.27
8480.00,1.27
8479.00,1.27
8478.00,1.27
8477.00,1.27
8476.00,1.27
8475.00,1.27
8474.00,1.27
8473.00,1.26
8472.00,1.26
8471.00,1.26
8470.00,1.26
8469.00,1.26
8468.00,1.26
8467.00,1.25
8466.00,1.25
8465.00,1.25
8464.00,1.25
8463.00,1.25
8462.00,1.24
8461.00,1.24
8460.00,1.24
8459.00,1.24
8458.00,1.24
8457.00,1.24
8456.00,1.24
8455.00,1.23
8454.00,1.23
8453.00,1.23
8452.00,1.23
8451.00,1.23
8450.00,1.23
8449.00,1.23
8448.00,1.23
8447.00,1.24
8446.00,1.24
8445.00,1.24
8444.00,1.24
8443.00,1.24
8442.00,1.24
8441.00,1.24
8440.00,1.24
8439.00,1.24
8438.00,1.24
8437.00,1.24
8436.00,1.24
8435.00,1.24
8434.00,1.24
8433.00,1.24
8432.00,1.24
8431.00,1.24
8430.00,1.24
8429.00,1.24
8428.00,1.24
8427.00,1.24
8426.00,1.24
8425.00,1.24
8424.00,1.24
8423.00,1.24
8422.00,1.24
8421.00,1.25
8420.00,1.25
8419.00,1.25
8418.00,1.25
8417.00,1.25
8416.00,1.25
8415.00,1.25
8414.00,1.25
8413.00,1.25
8412.00,1.26
8411.00,1.26
8410.00,1.26
8409.00,1.26
8408.00,1.26
8407.00,1.26
8406.00,1.26
8405.00,1.26
8404.00,1.26
8403.00,1.26
8402.00,1.26
8401.00,1.26
8400.00,1.26
8399.00,1.26
8398.00,1.26
8397.00,1.26
8396.00,1.26
8395.00,1.26
8394.00,1.26
8393.00,1.26
8392.00,1.26
8391.00,1.26
8390.00,1.26
8389.00,1.26
8388.00,1.26
8387.00,1.26
8386.00,1.26
8385.00,1.26
8384.00,1.26
8383.00,1.26
8382.00,1.26
8381.00,1.26
8380.00,1.26
8379.00,1.26
8378.00,1.26
8377.00,1.25
8376.00,1.25
8375.00,1.25
8374.00,1.26
8373.00,1.26
8372.00,1.26
8371.00,1.26
8370.00,1.26
8369.00,1.26
8368.00,1.26
8367.00,1.26
8366.00,1.26
8365.00,1.27
8364.00,1.27
8363.00,1.27
8362.00,1.27
8361.00,1.27
8360.00,1.28
8359.00,1.28
8358.00,1.28
8357.00,1.28
8356.00,1.28
8355.00,1.28
8354.00,1.29
8353.00,1.29
8352.00,1.29
8351.00,1.29
8350.00,1.29
8349.00,1.29
8348.00,1.29
8347.00,1.29
8346.00,1.29
8345.00,1.30
8344.00,1.30
8343.00,1.30
8342.00,1.30
8341.00,1.30
8340.00,1.30
8339.00,1.30
8338.00,1.30
8337.00,1.30
8336.00,1.30
8335.00,1.30
8334.00,1.30
8333.00,1.30
8332.00,1.30
8331.00,1.30
8330.00,1.30
8329.00,1.30
8328.00,1.30
8327.00,1.29
8326.00,1.29
8325.00,1.29
8324.00,1.29
8323.00,1.29
8322.00,1.29
8321.00,1.29
8320.00,1.29
8319.00,1.29
8318.00,1.29
8317.00,1.29
8316.00,1.30
8315.00,1.30
8314.00,1.30
8313.00,1.30
8312.00,1.30
8311.00,1.30
8310.00,1.30
8309.00,1.30
8308.00,1.31
8307.00,1.31
8306.00,1.31
8305.00,1.31
8304.00,1.31
8303.00,1.31
8302.00,1.31
8301.00,1.31
8300.00,1.31
8299.00,1.30
8298.00,1.30
8297.00,1.30
8296.00,1.30
8295.00,1.30
8294.00,1.30
8293.00,1.30
8292.00,1.30
8291.00,1.30
8290.00,1.29
8289.00,1.29
8288.00,1.29
8287.00,1.29
8286.00,1.29
8285.00,1.29
8284.00,1.29
8283.00,1.29
8282.00,1.29
8281.00,1.29
8280.00,1.28
8279.00,1.28
8278.00,1.28
8277.00,1.28
8276.00,1.28
8275.00,1.28
8274.00,1.28
8273.00,1.28
8272.00,1.28
8271.00,1.28
8270.00,1.28
8269.00,1.28
8268.00,1.29
8267.00,1.29
8266.00,1.29
8265.00,1.29
8264.00,1.29
8263.00,1.30
8262.00,1.30
8261.00,1.30
8260.00,1.30
8259.00,1.30
8258.00,1.30
8257.00,1.31
8256.00,1.31
8255.00,1.31
8254.00,1.31
8253.00,1.31
8252.00,1.31
8251.00,1.31
8250.00,1.31
8249.00,1.31
8248.00,1.31
8247.00,1.31
8246.00,1.31
8245.00,1.31
8244.00,1.31
8243.00,1.31
8242.00,1.31
8241.00,1.31
8240.00,1.31
8239.00,1.31
8238.00,1.31
8237.00,1.31
8236.00,1.31
8235.00,1.31
8234.00,1.31
8233.00,1.31
8232.00,1.31
8231.00,1.31
8230.00,1.31
8229.00,1.31
8228.00,1.30
8227.00,1.30
8226.00,1.30
8225.00,1.30
8224.00,1.30
8223.00,1.30
8222.00,1.30
8221.00,1.30
8220.00,1.30
8219.00,1.30
8218.00,1.31
8217.00,1.31
8216.00,1.31
8215.00,1.31
8214.00,1.31
8213.00,1.31
8212.00,1.31
8211.00,1.31
8210.00,1.31
8209.00,1.31
8208.00,1.31
8207.00,1.31
8206.00,1.31
8205.00,1.31
8204.00,1.31
8203.00,1.31
8202.00,1.32
8201.00,1.32
8200.00,1.32
8199.00,1.32
8198.00,1.32
8197.00,1.32
8196.00,1.32
8195.00,1.32
8194.00,1.32
8193.00,1.32
8192.00,1.32
8191.00,1.33
8190.00,1.33
8189.00,1.33
8188.00,1.33
8187.00,1.33
8186.00,1.33
8185.00,1.33
8184.00,1.33
8183.00,1.33
8182.00,1.33
8181.00,1.33
8180.00,1.34
8179.00,1.34
8178.00,1.34
8177.00,1.34
8176.00,1.34
8175.00,1.34
8174.00,1.34
8173.00,1.34
8172.00,1.34
8171.00,1.34
8170.00,1.34
8169.00,1.34
8168.00,1.34
8167.00,1.34
8166.00,1.34
8165.00,1.34
8164.00,1.34
8163.00,1.34
8162.00,1.34
8161.00,1.34
8160.00,1.34
8159.00,1.34
8158.00,1.34
8157.00,1.34
8156.00,1.34
8155.00,1.34
8154.00,1.34
8153.00,1.34
8152.00,1.34
8151.00,1.34
8150.00,1.34
8149.00,1.34
8148.00,1.34
8147.00,1.34
8146.00,1.34
8145.00,1.34
8144.00,1.34
8143.00,1.34
8142.00,1.34
8141.00,1.34
8140.00,1.34
8139.00,1.34
8138.00,1.34
8137.00,1.34
8136.00,1.34
8135.00,1.34
8134.00,1.34
8133.00,1.34
8132.00,1.34
8131.00,1.34
8130.00,1.34
8129.00,1.34
8128.00,1.34
8127.00,1.34
8126.00,1.34
8125.00,1.34
8124.00,1.34
8123.00,1.34
8122.00,1.35
8121.00,1.35
8120.00,1.35
8119.00,1.35
8118.00,1.35
8117.00,1.35
8116.00,1.35
8115.00,1.35
8114.00,1.35
8113.00,1.35
8112.00,1.35
8111.00,1.35
8110.00,1.35
8109.00,1.35
8108.00,1.36
8107.00,1.36
8106.00,1.36
8105.00,1.36
8104.00,1.36
8103.00,1.36
8102.00,1.36
8101.00,1.36
8100.00,1.36
8099.00,1.36
8098.00,1.36
8097.00,1.36
8096.00,1.36
8095.00,1.36
8094.00,1.36
8093.00,1.36
8092.00,1.36
8091.00,1.36
8090.00,1.36
8089.00,1.36
8088.00,1.36
8087.00,1.35
8086.00,1.35
8085.00,1.35
8084.00,1.36
8083.00,1.36
8082.00,1.36
8081.00,1.36
8080.00,1.36
8079.00,1.36
8078.00,1.36
8077.00,1.36
8076.00,1.36
8075.00,1.36
8074.00,1.36
8073.00,1.36
8072.00,1.36
8071.00,1.36
8070.00,1.36
8069.00,1.36
8068.00,1.37
8067.00,1.37
8066.00,1.37
8065.00,1.37
8064.00,1.37
8063.00,1.37
8062.00,1.37
8061.00,1.37
8060.00,1.37
8059.00,1.37
8058.00,1.37
8057.00,1.37
8056.00,1.37
8055.00,1.37
8054.00,1.37
8053.00,1.37
8052.00,1.38
8051.00,1.38
8050.00,1.38
8049.00,1.38
8048.00,1.38
8047.00,1.38
8046.00,1.38
8045.00,1.38
8044.00,1.38
8043.00,1.38
8042.00,1.38
8041.00,1.38
8040.00,1.38
8039.00,1.38
8038.00,1.38
8037.00,1.38
8036.00,1.38
8035.00,1.38
8034.00,1.38
8033.00,1.38
8032.00,1.38
8031.00,1.38
8030.00,1.38
8029.00,1.38
8028.00,1.38
8027.00,1.38
8026.00,1.38
8025.00,1.38
8024.00,1.38
8023.00,1.38
8022.00,1.38
8021.00,1.37
8020.00,1.37
8019.00,1.37
8018.00,1.37
8017.00,1.37
8016.00,1.37
8015.00,1.37
8014.00,1.36
8013.00,1.36
8012.00,1.36
8011.00,1.36
8010.00,1.36
8009.00,1.36
8008.00,1.36
8007.00,1.36
8006.00,1.36
8005.00,1.36
8004.00,1.36
8003.00,1.36
8002.00,1.36
8001.00,1.36
8000.00,1.37
7999.00,1.37
7998.00,1.37
7997.00,1.37
7996.00,1.37
7995.00,1.37
7994.00,1.38
7993.00,1.38
7992.00,1.38
7991.00,1.38
7990.00,1.38
7989.00,1.39
7988.00,1.39
7987.00,1.39
7986.00,1.39
7985.00,1.39
7984.00,1.39
7983.00,1.39
7982.00,1.39
7981.00,1.39
7980.00,1.39
7979.00,1.39
7978.00,1.39
7977.00,1.39
7976.00,1.39
7975.00,1.39
7974.00,1.39
7973.00,1.39
7972.00,1.39
7971.00,1.38
7970.00,1.38
7969.00,1.38
7968.00,1.38
7967.00,1.38
7966.00,1.38
7965.00,1.38
7964.00,1.38
7963.00,1.38
7962.00,1.38
7961.00,1.38
7960.00,1.38
7959.00,1.39
7958.00,1.39
7957.00,1.39
7956.00,1.39
7955.00,1.39
7954.00,1.39
7953.00,1.39
7952.00,1.39
7951.00,1.39
7950.00,1.39
7949.00,1.39
7948.00,1.39
7947.00,1.39
7946.00,1.39
7945.00,1.39
7944.00,1.39
7943.00,1.39
7942.00,1.39
7941.00,1.39
7940.00,1.39
7939.00,1.39
7938.00,1.39
7937.00,1.39
7936.00,1.39
7935.00,1.39
7934.00,1.39
7933.00,1.39
7932.00,1.39
7931.00,1.39
7930.00,1.39
7929.00,1.39
7928.00,1.39
7927.00,1.39
7926.00,1.39
7925.00,1.39
7924.00,1.39
7923.00,1.39
7922.00,1.39
7921.00,1.39
7920.00,1.39
7919.00,1.39
7918.00,1.39
7917.00,1.39
7916.00,1.39
7915.00,1.39
7914.00,1.39
7913.00,1.39
7912.00,1.39
7911.00,1.39
7910.00,1.39
7909.00,1.39
7908.00,1.39
7907.00,1.39
7906.00,1.39
7905.00,1.39
7904.00,1.39
7903.00,1.39
7902.00,1.39
7901.00,1.39
7900.00,1.39
7899.00,1.39
7898.00,1.39
7897.00,1.39
7896.00,1.39
7895.00,1.39
7894.00,1.39
7893.00,1.39
7892.00,1.39
7891.00,1.39
7890.00,1.39
7889.00,1.39
7888.00,1.39
7887.00,1.39
7886.00,1.39
7885.00,1.39
7884.00,1.39
7883.00,1.39
7882.00,1.39
7881.00,1.39
7880.00,1.39
7879.00,1.39
7878.00,1.39
7877.00,1.39
7876.00,1.39
7875.00,1.39
7874.00,1.39
7873.00,1.39
7872.00,1.39
7871.00,1.39
7870.00,1.39
7869.00,1.39
7868.00,1.40
7867.00,1.40
7866.00,1.40
7865.00,1.40
7864.00,1.40
7863.00,1.40
7862.00,1.40
7861.00,1.40
7860.00,1.40
7859.00,1.40
7858.00,1.40
7857.00,1.40
7856.00,1.40
7855.00,1.41
7854.00,1.41
7853.00,1.41
7852.00,1.41
7851.00,1.41
7850.00,1.41
7849.00,1.41
7848.00,1.41
7847.00,1.41
7846.00,1.41
7845.00,1.41
7844.00,1.41
7843.00,1.41
7842.00,1.41
7841.00,1.41
7840.00,1.41
7839.00,1.41
7838.00,1.41
7837.00,1.41
7836.00,1.41
7835.00,1.41
7834.00,1.41
7833.00,1.42
7832.00,1.42
7831.00,1.42
7830.00,1.42
7829.00,1.42
7828.00,1.42
7827.00,1.42
7826.00,1.42
7825.00,1.41
7824.00,1.41
7823.00,1.41
7822.00,1.41
7821.00,1.41
7820.00,1.41
7819.00,1.41
7818.00,1.41
7817.00,1.41
7816.00,1.41
7815.00,1.41
7814.00,1.41
7813.00,1.40
7812.00,1.40
7811.00,1.40
7810.00,1.40
7809.00,1.40
7808.00,1.40
7807.00,1.40
7806.00,1.40
7805.00,1.40
7804.00,1.40
7803.00,1.40
7802.00,1.40
7801.00,1.40
7800.00,1.40
7799.00,1.40
7798.00,1.40
7797.00,1.40
7796.00,1.40
7795.00,1.40
7794.00,1.41
7793.00,1.41
7792.00,1.41
7791.00,1.41
7790.00,1.41
7789.00,1.41
7788.00,1.41
7787.00,1.41
7786.00,1.41
7785.00,1.41
7784.00,1.41
7783.00,1.41
7782.00,1.41
7781.00,1.41
7780.00,1.41
7779.00,1.41
7778.00,1.41
7777.00,1.41
7776.00,1.41
7775.00,1.41
7774.00,1.41
7773.00,1.41
7772.00,1.41
7771.00,1.41
7770.00,1.41
7769.00,1.41
7768.00,1.41
7767.00,1.41
7766.00,1.41
7765.00,1.41
7764.00,1.42
7763.00,1.42
7762.00,1.42
7761.00,1.42
7760.00,1.42
7759.00,1.42
7758.00,1.42
7757.00,1.42
7756.00,1.42
7755.00,1.42
7754.00,1.42
7753.00,1.42
7752.00,1.42
7751.00,1.42
7750.00,1.42
7749.00,1.42
7748.00,1.42
7747.00,1.42
7746.00,1.42
7745.00,1.42
7744.00,1.42
7743.00,1.42
7742.00,1.42
7741.00,1.42
7740.00,1.41
7739.00,1.41
7738.00,1.41
7737.00,1.41
7736.00,1.41
7735.00,1.41
7734.00,1.41
7733.00,1.41
7732.00,1.41
7731.00,1.41
7730.00,1.41
7729.00,1.41
7728.00,1.41
7727.00,1.41
7726.00,1.41
7725.00,1.41
7724.00,1.41
7723.00,1.41
7722.00,1.41
7721.00,1.42
7720.00,1.42
7719.00,1.42
7718.00,1.42
7717.00,1.42
7716.00,1.42
7715.00,1.42
7714.00,1.42
7713.00,1.42
7712.00,1.42
7711.00,1.42
7710.00,1.42
7709.00,1.42
7708.00,1.42
7707.00,1.42
7706.00,1.42
7705.00,1.42
7704.00,1.42
7703.00,1.42
7702.00,1.42
7701.00,1.42
7700.00,1.42
7699.00,1.42
7698.00,1.42
7697.00,1.42
7696.00,1.42
7695.00,1.41
7694.00,1.41
7693.00,1.41
7692.00,1.41
7691.00,1.41
7690.00,1.41
7689.00,1.41
7688.00,1.41
7687.00,1.41
7686.00,1.41
7685.00,1.41
7684.00,1.41
7683.00,1.41
7682.00,1.41
7681.00,1.41
7680.00,1.41
7679.00,1.41
7678.00,1.41
7677.00,1.42
7676.00,1.42
7675.00,1.42
7674.00,1.42
7673.00,1.42
7672.00,1.42
7671.00,1.42
7670.00,1.42
7669.00,1.42
7668.00,1.42
7667.00,1.42
7666.00,1.42
7665.00,1.42
7664.00,1.42
7663.00,1.42
7662.00,1.42
7661.00,1.42
7660.00,1.42
7659.00,1.42
7658.00,1.42
7657.00,1.42
7656.00,1.42
7655.00,1.42
7654.00,1.42
7653.00,1.42
7652.00,1.42
7651.00,1.41
7650.00,1.41
7649.00,1.41
7648.00,1.41
7647.00,1.41
7646.00,1.42
7645.00,1.42
7644.00,1.42
7643.00,1.42
7642.00,1.42
7641.00,1.42
7640.00,1.42
7639.00,1.42
7638.00,1.42
7637.00,1.42
7636.00,1.42
7635.00,1.42
7634.00,1.42
7633.00,1.42
7632.00,1.42
7631.00,1.42
7630.00,1.42
7629.00,1.42
7628.00,1.42
7627.00,1.42
7626.00,1.42
7625.00,1.41
7624.00,1.41
7623.00,1.41
7622.00,1.41
7621.00,1.41
7620.00,1.41
7619.00,1.41
7618.00,1.41
7617.00,1.41
7616.00,1.41
7615.00,1.41
7614.00,1.41
7613.00,1.41
7612.00,1.41
7611.00,1.41
7610.00,1.41
7609.00,1.41
7608.00,1.41
7607.00,1.41
7606.00,1.41
7605.00,1.41
7604.00,1.41
7603.00,1.41
7602.00,1.41
7601.00,1.41
7600.00,1.42
7599.00,1.42
7598.00,1.42
7597.00,1.42
7596.00,1.41
7595.00,1.41
7594.00,1.41
7593.00,1.41
7592.00,1.41
7591.00,1.41
7590.00,1.41
7589.00,1.41
7588.00,1.41
7587.00,1.41
7586.00,1.41
7585.00,1.41
7584.00,1.41
7583.00,1.41
7582.00,1.41
7581.00,1.41
7580.00,1.41
7579.00,1.41
7578.00,1.41
7577.00,1.41
7576.00,1.41
7575.00,1.41
7574.00,1.41
7573.00,1.41
7572.00,1.41
7571.00,1.41
7570.00,1.41
7569.00,1.41
7568.00,1.41
7567.00,1.41
7566.00,1.41
7565.00,1.41
7564.00,1.41
7563.00,1.41
7562.00,1.41
7561.00,1.41
7560.00,1.41
7559.00,1.41
7558.00,1.41
7557.00,1.41
7556.00,1.41
7555.00,1.41
7554.00,1.41
7553.00,1.41
7552.00,1.41
7551.00,1.41
7550.00,1.41
7549.00,1.41
7548.00,1.41
7547.00,1.41
7546.00,1.41
7545.00,1.41
7544.00,1.41
7543.00,1.40
7542.00,1.40
7541.00,1.40
7540.00,1.40
7539.00,1.40
7538.00,1.40
7537.00,1.40
7536.00,1.40
7535.00,1.40
7534.00,1.40
7533.00,1.40
7532.00,1.40
7531.00,1.40
7530.00,1.40
7529.00,1.40
7528.00,1.40
7527.00,1.40
7526.00,1.40
7525.00,1.40
7524.00,1.40
7523.00,1.40
7522.00,1.39
7521.00,1.39
7520.00,1.39
7519.00,1.39
7518.00,1.39
7517.00,1.39
7516.00,1.39
7515.00,1.39
7514.00,1.39
7513.00,1.39
7512.00,1.39
7511.00,1.39
7510.00,1.38
7509.00,1.38
7508.00,1.38
7507.00,1.38
7506.00,1.38
7505.00,1.38
7504.00,1.38
7503.00,1.38
7502.00,1.38
7501.00,1.38
7500.00,1.38
7499.00,1.38
7498.00,1.38
7497.00,1.38
7496.00,1.38
7495.00,1.38
7494.00,1.38
7493.00,1.38
7492.00,1.38
7491.00,1.38
7490.00,1.38
7489.00,1.37
7488.00,1.37
7487.00,1.37
7486.00,1.37
7485.00,1.37
7484.00,1.37
7483.00,1.37
7482.00,1.37
7481.00,1.37
7480.00,1.37
7479.00,1.37
7478.00,1.37
7477.00,1.37
7476.00,1.37
7475.00,1.37
7474.00,1.37
7473.00,1.37
7472.00,1.37
7471.00,1.37
7470.00,1.37
7469.00,1.37
7468.00,1.37
7467.00,1.37
7466.00,1.37
7465.00,1.37
7464.00,1.37
7463.00,1.37
7462.00,1.37
7461.00,1.37
7460.00,1.37
7459.00,1.37
7458.00,1.37
7457.00,1.37
7456.00,1.37
7455.00,1.37
7454.00,1.36
7453.00,1.36
7452.00,1.36
7451.00,1.36
7450.00,1.36
7449.00,1.36
7448.00,1.36
7447.00,1.36
7446.00,1.36
7445.00,1.35
7444.00,1.35
7443.00,1.35
7442.00,1.35
7441.00,1.35
7440.00,1.35
7439.00,1.35
7438.00,1.35
7437.00,1.35
7436.00,1.35
7435.00,1.35
7434.00,1.34
7433.00,1.34
7432.00,1.34
7431.00,1.34
7430.00,1.34
7429.00,1.34
7428.00,1.34
7427.00,1.34
7426.00,1.34
7425.00,1.34
7424.00,1.33
7423.00,1.33
7422.00,1.33
7421.00,1.33
7420.00,1.33
7419.00,1.33
7418.00,1.33
7417.00,1.33
7416.00,1.33
7415.00,1.32
7414.00,1.32
7413.00,1.32
7412.00,1.32
7411.00,1.32
7410.00,1.32
7409.00,1.32
7408.00,1.32
7407.00,1.32
7406.00,1.32
7405.00,1.32
7404.00,1.32
7403.00,1.32
7402.00,1.32
7401.00,1.32
7400.00,1.31
7399.00,1.31
7398.00,1.31
7397.00,1.31
7396.00,1.31
7395.00,1.31
7394.00,1.31
7393.00,1.31
7392.00,1.31
7391.00,1.30
7390.00,1.30
7389.00,1.30
7388.00,1.30
7387.00,1.30
7386.00,1.30
7385.00,1.30
7384.00,1.29
7383.00,1.29
7382.00,1.29
7381.00,1.29
7380.00,1.29
7379.00,1.29
7378.00,1.28
7377.00,1.28
7376.00,1.28
7375.00,1.28
7374.00,1.28
7373.00,1.28
7372.00,1.28
7371.00,1.28
7370.00,1.28
7369.00,1.28
7368.00,1.28
7367.00,1.28
7366.00,1.28
7365.00,1.28
7364.00,1.28
7363.00,1.28
7362.00,1.28
7361.00,1.28
7360.00,1.28
7359.00,1.28
7358.00,1.28
7357.00,1.28
7356.00,1.28
7355.00,1.28
7354.00,1.28
7353.00,1.28
7352.00,1.28
7351.00,1.28
7350.00,1.28
7349.00,1.28
7348.00,1.28
7347.00,1.28
7346.00,1.27
7345.00,1.27
7344.00,1.27
7343.00,1.27
7342.00,1.27
7341.00,1.27
7340.00,1.27
7339.00,1.27
7338.00,1.27
7337.00,1.27
7336.00,1.27
7335.00,1.27
7334.00,1.27
7333.00,1.27
7332.00,1.26
7331.00,1.26
7330.00,1.26
7329.00,1.26
7328.00,1.26
7327.00,1.26
7326.00,1.26
7325.00,1.26
7324.00,1.26
7323.00,1.26
7322.00,1.26
7321.00,1.26
7320.00,1.26
7319.00,1.25
7318.00,1.25
7317.00,1.25
7316.00,1.25
7315.00,1.25
7314.00,1.25
7313.00,1.25
7312.00,1.25
7311.00,1.25
7310.00,1.25
7309.00,1.25
7308.00,1.25
7307.00,1.24
7306.00,1.24
7305.00,1.24
7304.00,1.24
7303.00,1.24
7302.00,1.24
7301.00,1.24
7300.00,1.24
7299.00,1.24
7298.00,1.24
7297.00,1.24
7296.00,1.23
7295.00,1.23
7294.00,1.23
7293.00,1.23
7292.00,1.23
7291.00,1.23
7290.00,1.23
7289.00,1.23
7288.00,1.23
7287.00,1.23
7286.00,1.22
7285.00,1.22
7284.00,1.22
7283.00,1.22
7282.00,1.22
7281.00,1.22
7280.00,1.22
7279.00,1.22
7278.00,1.22
7277.00,1.21
7276.00,1.21
7275.00,1.21
7274.00,1.21
7273.00,1.21
7272.00,1.21
7271.00,1.21
7270.00,1.21
7269.00,1.20
7268.00,1.20
7267.00,1.20
7266.00,1.20
7265.00,1.20
7264.00,1.20
7263.00,1.20
7262.00,1.19
7261.00,1.19
7260.00,1.19
7259.00,1.19
7258.00,1.19
7257.00,1.19
7256.00,1.19
7255.00,1.18
7254.00,1.18
7253.00,1.18
7252.00,1.18
7251.00,1.18
7250.00,1.18
7249.00,1.17
7248.00,1.17
7247.00,1.17
7246.00,1.17
7245.00,1.16
7244.00,1.16
7243.00,1.16
7242.00,1.15
7241.00,1.15
7240.00,1.15
7239.00,1.14
7238.00,1.14
7237.00,1.13
7236.00,1.13
7235.00,1.13
7234.00,1.12
7233.00,1.12
7232.00,1.11
7231.00,1.11
7230.00,1.11
7229.00,1.10
7228.00,1.10
7227.00,1.10
7226.00,1.09
7225.00,1.09
7224.00,1.09
7223.00,1.09
7222.00,1.08
7221.00,1.08
7220.00,1.08
7219.00,1.07
7218.00,1.07
7217.00,1.07
7216.00,1.06
7215.00,1.06
7214.00,1.06
7213.00,1.05
7212.00,1.05
7211.00,1.05
7210.00,1.04
7209.00,1.04
7208.00,1.03
7207.00,1.03
7206.00,1.03
7205.00,1.02
7204.00,1.02
7203.00,1.02
7202.00,1.01
7201.00,1.01
7200.00,1.01
7199.00,1.00
7198.00,1.00
7197.00,0.99
7196.00,0.99
7195.00,0.99
7194.00,0.98
7193.00,0.98
7192.00,0.98
7191.00,0.97
7190.00,0.97
7189.00,0.96
7188.00,0.96
7187.00,0.96
7186.00,0.95
7185.00,0.95
7184.00,0.94
7183.00,0.94
7182.00,0.94
7181.00,0.93
7180.00,0.93
7179.00,0.93
7178.00,0.92
7177.00,0.92
7176.00,0.92
7175.00,0.92
7174.00,0.91
7173.00,0.91
7172.00,0.91
7171.00,0.90
7170.00,0.90
7169.00,0.90
7168.00,0.90
7167.00,0.89
7166.00,0.89
7165.00,0.89
7164.00,0.89
7163.00,0.88
7162.00,0.88
7161.00,0.88
7160.00,0.88
7159.00,0.87
7158.00,0.87
7157.00,0.87
7156.00,0.87
7155.00,0.86
7154.00,0.86
7153.00,0.86
7152.00,0.86
7151.00,0.85
7150.00,0.85
7149.00,0.85
7148.00,0.85
7147.00,0.84
7146.00,0.84
7145.00,0.84
7144.00,0.83
7143.00,0.83
7142.00,0.83
7141.00,0.83
7140.00,0.82
7139.00,0.82
7138.00,0.82
7137.00,0.82
7136.00,0.82
7135.00,0.81
7134.00,0.81
7133.00,0.81
7132.00,0.81
7131.00,0.80
7130.00,0.80
7129.00,0.80
7128.00,0.80
7127.00,0.80
7126.00,0.79
7125.00,0.79
7124.00,0.79
7123.00,0.79
7122.00,0.79
7121.00,0.78
7120.00,0.78
7119.00,0.78
7118.00,0.78
7117.00,0.77
7116.00,0.77
7115.00,0.77
7114.00,0.77
7113.00,0.77
7112.00,0.76
7111.00,0.76
7110.00,0.76
7109.00,0.76
7108.00,0.75
7107.00,0.75
7106.00,0.75
7105.00,0.75
7104.00,0.75
7103.00,0.74
7102.00,0.74
7101.00,0.74
7100.00,0.74
7099.00,0.73
7098.00,0.73
7097.00,0.73
7096.00,0.73
7095.00,0.73
7094.00,0.72
7093.00,0.72
7092.00,0.72
7091.00,0.72
7090.00,0.72
7089.00,0.72
7088.00,0.72
7087.00,0.72
7086.00,0.71
7085.00,0.71
7084.00,0.71
7083.00,0.71
7082.00,0.71
7081.00,0.71
7080.00,0.71
7079.00,0.71
7078.00,0.71
7077.00,0.71
7076.00,0.70
7075.00,0.70
7074.00,0.70
7073.00,0.70
7072.00,0.70
7071.00,0.70
7070.00,0.70
7069.00,0.70
7068.00,0.69
7067.00,0.69
7066.00,0.69
7065.00,0.69
7064.00,0.69
7063.00,0.69
7062.00,0.69
7061.00,0.69
7060.00,0.69
7059.00,0.69
7058.00,0.69
7057.00,0.69
7056.00,0.69
7055.00,0.69
7054.00,0.69
7053.00,0.69
7052.00,0.69
7051.00,0.69
7050.00,0.69
7049.00,0.69
7048.00,0.69
7047.00,0.68
7046.00,0.68
7045.00,0.68
7044.00,0.68
7043.00,0.68
7042.00,0.68
7041.00,0.68
7040.00,0.68
7039.00,0.68
7038.00,0.68
7037.00,0.68
7036.00,0.68
7035.00,0.67
7034.00,0.67
7033.00,0.67
7032.00,0.67
7031.00,0.67
7030.00,0.67
7029.00,0.67
7028.00,0.67
7027.00,0.67
7026.00,0.67
7025.00,0.67
7024.00,0.67
7023.00,0.66
7022.00,0.66
7021.00,0.66
7020.00,0.66
7019.00,0.66
7018.00,0.66
7017.00,0.66
7016.00,0.66
7015.00,0.66
7014.00,0.65
7013.00,0.65
7012.00,0.65
7011.00,0.65
7010.00,0.65
7009.00,0.65
7008.00,0.65
7007.00,0.65
7006.00,0.65
7005.00,0.65
7004.00,0.65
7003.00,0.65
7002.00,0.65
7001.00,0.65
7000.00,0.65
6999.00,0.65
6998.00,0.65
6997.00,0.65
6996.00,0.65
6995.00,0.65
6994.00,0.65
6993.00,0.65
6992.00,0.65
6991.00,0.65
6990.00,0.65
6989.00,0.65
6988.00,0.65
6987.00,0.65
6986.00,0.65
6985.00,0.65
6984.00,0.64
6983.00,0.64
6982.00,0.64
6981.00,0.64
6980.00,0.64
6979.00,0.64
6978.00,0.64
6977.00,0.64
6976.00,0.64
6975.00,0.64
6974.00,0.64
6973.00,0.64
6972.00,0.64
6971.00,0.64
6970.00,0.63
6969.00,0.63
6968.00,0.63
6967.00,0.63
6966.00,0.63
6965.00,0.63
6964.00,0.63
6963.00,0.63
6962.00,0.63
6961.00,0.63
6960.00,0.63
6959.00,0.63
6958.00,0.63
6957.00,0.63
6956.00,0.64
6955.00,0.64
6954.00,0.64
6953.00,0.64
6952.00,0.64
6951.00,0.64
6950.00,0.64
6949.00,0.64
6948.00,0.64
6947.00,0.64
6946.00,0.64
6945.00,0.64
6944.00,0.64
6943.00,0.64
6942.00,0.64
6941.00,0.64
6940.00,0.64
6939.00,0.64
6938.00,0.64
6937.00,0.64
6936.00,0.64
6935.00,0.64
6934.00,0.64
6933.00,0.64
6932.00,0.64
6931.00,0.64
6930.00,0.65
6929.00,0.65
6928.00,0.65
6927.00,0.65
6926.00,0.65
6925.00,0.65
6924.00,0.65
6923.00,0.65
6922.00,0.65
6921.00,0.65
6920.00,0.65
6919.00,0.64
6918.00,0.64
6917.00,0.64
6916.00,0.64
6915.00,0.64
6914.00,0.64
6913.00,0.64
6912.00,0.64
6911.00,0.64
6910.00,0.64
6909.00,0.64
6908.00,0.64
6907.00,0.64
6906.00,0.64
6905.00,0.64
6904.00,0.64
6903.00,0.64
6902.00,0.64
6901.00,0.64
6900.00,0.64
6899.00,0.64
6898.00,0.64
6897.00,0.64
6896.00,0.64
6895.00,0.65
6894.00,0.65
6893.00,0.65
6892.00,0.65
6891.00,0.65
6890.00,0.65
6889.00,0.65
6888.00,0.65
6887.00,0.65
6886.00,0.65
6885.00,0.65
6884.00,0.65
6883.00,0.64
6882.00,0.64
6881.00,0.64
6880.00,0.64
6879.00,0.64
6878.00,0.64
6877.00,0.64
6876.00,0.64
6875.00,0.64
6874.00,0.64
6873.00,0.64
6872.00,0.64
6871.00,0.64
6870.00,0.64
6869.00,0.64
6868.00,0.64
6867.00,0.64
6866.00,0.64
6865.00,0.64
6864.00,0.64
6863.00,0.64
6862.00,0.64
6861.00,0.64
6860.00,0.64
6859.00,0.64
6858.00,0.64
6857.00,0.64
6856.00,0.64
6855.00,0.64
6854.00,0.64
6853.00,0.64
6852.00,0.64
6851.00,0.64
6850.00,0.64
6849.00,0.64
6848.00,0.64
6847.00,0.64
6846.00,0.64
6845.00,0.64
6844.00,0.64
6843.00,0.64
6842.00,0.64
6841.00,0.64
6840.00,0.64
6839.00,0.64
6838.00,0.64
6837.00,0.64
6836.00,0.64
6835.00,0.64
6834.00,0.64
6833.00,0.64
6832.00,0.63
6831.00,0.63
6830.00,0.63
6829.00,0.63
6828.00,0.63
6827.00,0.63
6826.00,0.63
6825.00,0.63
6824.00,0.63
6823.00,0.63
6822.00,0.64
6821.00,0.64
6820.00,0.64
6819.00,0.64
6818.00,0.64
6817.00,0.64
6816.00,0.64
6815.00,0.64
6814.00,0.64
6813.00,0.64
6812.00,0.64
6811.00,0.65
6810.00,0.65
6809.00,0.65
6808.00,0.65
6807.00,0.65
6806.00,0.65
6805.00,0.65
6804.00,0.65
6803.00,0.65
6802.00,0.65
6801.00,0.65
6800.00,0.65
6799.00,0.65
6798.00,0.65
6797.00,0.65
6796.00,0.65
6795.00,0.65
6794.00,0.65
6793.00,0.65
6792.00,0.65
6791.00,0.65
6790.00,0.65
6789.00,0.65
6788.00,0.65
6787.00,0.65
6786.00,0.65
6785.00,0.66
6784.00,0.66
6783.00,0.66
6782.00,0.66
6781.00,0.66
6780.00,0.66
6779.00,0.66
6778.00,0.66
6777.00,0.66
6776.00,0.66
6775.00,0.66
6774.00,0.66
6773.00,0.66
6772.00,0.66
6771.00,0.66
6770.00,0.66
6769.00,0.66
6768.00,0.66
6767.00,0.66
6766.00,0.66
6765.00,0.66
6764.00,0.66
6763.00,0.67
6762.00,0.67
6761.00,0.67
6760.00,0.67
6759.00,0.67
6758.00,0.67
6757.00,0.67
6756.00,0.67
6755.00,0.67
6754.00,0.67
6753.00,0.68
6752.00,0.68
6751.00,0.68
6750.00,0.68
6749.00,0.68
6748.00,0.68
6747.00,0.68
6746.00,0.68
6745.00,0.68
6744.00,0.68
6743.00,0.68
6742.00,0.68
6741.00,0.68
6740.00,0.68
6739.00,0.68
6738.00,0.68
6737.00,0.68
6736.00,0.68
6735.00,0.68
6734.00,0.68
6733.00,0.68
6732.00,0.69
6731.00,0.69
6730.00,0.69
6729.00,0.69
6728.00,0.69
6727.00,0.69
6726.00,0.69
6725.00,0.69
6724.00,0.69
6723.00,0.69
6722.00,0.69
6721.00,0.69
6720.00,0.69
6719.00,0.69
6718.00,0.69
6717.00,0.69
6716.00,0.70
6715.00,0.70
6714.00,0.70
6713.00,0.70
6712.00,0.70
6711.00,0.70
6710.00,0.70
6709.00,0.70
6708.00,0.70
6707.00,0.70
6706.00,0.70
6705.00,0.70
6704.00,0.70
6703.00,0.70
6702.00,0.70
6701.00,0.70
6700.00,0.71
6699.00,0.71
6698.00,0.71
6697.00,0.71
6696.00,0.71
6695.00,0.71
6694.00,0.71
6693.00,0.71
6692.00,0.71
6691.00,0.71
6690.00,0.71
6689.00,0.71
6688.00,0.71
6687.00,0.71
6686.00,0.71
6685.00,0.71
6684.00,0.71
6683.00,0.71
6682.00,0.71
6681.00,0.71
6680.00,0.71
6679.00,0.71
6678.00,0.71
6677.00,0.72
6676.00,0.72
6675.00,0.72
6674.00,0.72
6673.00,0.72
6672.00,0.72
6671.00,0.72
6670.00,0.72
6669.00,0.72
6668.00,0.72
6667.00,0.72
6666.00,0.72
6665.00,0.72
6664.00,0.72
6663.00,0.73
6662.00,0.73
6661.00,0.73
6660.00,0.73
6659.00,0.73
6658.00,0.73
6657.00,0.73
6656.00,0.73
6655.00,0.74
6654.00,0.74
6653.00,0.74
6652.00,0.74
6651.00,0.74
6650.00,0.74
6649.00,0.74
6648.00,0.75
6647.00,0.75
6646.00,0.75
6645.00,0.75
6644.00,0.75
6643.00,0.75
6642.00,0.75
6641.00,0.75
6640.00,0.75
6639.00,0.75
6638.00,0.75
6637.00,0.75
6636.00,0.75
6635.00,0.75
6634.00,0.76
6633.00,0.76
6632.00,0.76
6631.00,0.76
6630.00,0.76
6629.00,0.76
6628.00,0.76
6627.00,0.76
6626.00,0.76
6625.00,0.76
6624.00,0.76
6623.00,0.76
6622.00,0.76
6621.00,0.76
6620.00,0.76
6619.00,0.77
6618.00,0.77
6617.00,0.77
6616.00,0.77
6615.00,0.77
6614.00,0.77
6613.00,0.77
6612.00,0.77
6611.00,0.77
6610.00,0.77
6609.00,0.77
6608.00,0.77
6607.00,0.78
6606.00,0.78
6605.00,0.78
6604.00,0.78
6603.00,0.78
6602.00,0.78
6601.00,0.78
6600.00,0.78
6599.00,0.78
6598.00,0.78
6597.00,0.78
6596.00,0.78
6595.00,0.78
6594.00,0.78
6593.00,0.78
6592.00,0.79
6591.00,0.79
6590.00,0.79
6589.00,0.79
6588.00,0.79
6587.00,0.79
6586.00,0.79
6585.00,0.79
6584.00,0.80
6583.00,0.80
6582.00,0.80
6581.00,0.80
6580.00,0.80
6579.00,0.80
6578.00,0.80
6577.00,0.80
6576.00,0.80
6575.00,0.80
6574.00,0.80
6573.00,0.80
6572.00,0.80
6571.00,0.81
6570.00,0.81
6569.00,0.81
6568.00,0.81
6567.00,0.81
6566.00,0.81
6565.00,0.81
6564.00,0.81
6563.00,0.81
6562.00,0.82
6561.00,0.82
6560.00,0.82
6559.00,0.82
6558.00,0.82
6557.00,0.82
6556.00,0.82
6555.00,0.82
6554.00,0.82
6553.00,0.82
6552.00,0.83
6551.00,0.83
6550.00,0.83
6549.00,0.83
6548.00,0.83
6547.00,0.83
6546.00,0.83
6545.00,0.83
6544.00,0.83
6543.00,0.83
6542.00,0.84
6541.00,0.84
6540.00,0.84
6539.00,0.84
6538.00,0.84
6537.00,0.84
6536.00,0.84
6535.00,0.84
6534.00,0.85
6533.00,0.85
6532.00,0.85
6531.00,0.85
6530.00,0.85
6529.00,0.85
6528.00,0.85
6527.00,0.85
6526.00,0.85
6525.00,0.86
6524.00,0.86
6523.00,0.86
6522.00,0.86
6521.00,0.86
6520.00,0.86
6519.00,0.86
6518.00,0.86
6517.00,0.86
6516.00,0.86
6515.00,0.86
6514.00,0.86
6513.00,0.86
6512.00,0.86
6511.00,0.86
6510.00,0.86
6509.00,0.86
6508.00,0.86
6507.00,0.86
6506.00,0.87
6505.00,0.87
6504.00,0.87
6503.00,0.87
6502.00,0.87
6501.00,0.87
6500.00,0.87
6499.00,0.87
6498.00,0.87
6497.00,0.87
6496.00,0.87
6495.00,0.88
6494.00,0.88
6493.00,0.88
6492.00,0.88
6491.00,0.88
6490.00,0.88
6489.00,0.88
6488.00,0.88
6487.00,0.88
6486.00,0.88
6485.00,0.88
6484.00,0.88
6483.00,0.88
6482.00,0.88
6481.00,0.88
6480.00,0.88
6479.00,0.88
6478.00,0.88
6477.00,0.89
6476.00,0.89
6475.00,0.89
6474.00,0.89
6473.00,0.89
6472.00,0.89
6471.00,0.89
6470.00,0.89
6469.00,0.89
6468.00,0.89
6467.00,0.90
6466.00,0.90
6465.00,0.90
6464.00,0.90
6463.00,0.90
6462.00,0.90
6461.00,0.90
6460.00,0.90
6459.00,0.90
6458.00,0.90
6457.00,0.90
6456.00,0.90
6455.00,0.90
6454.00,0.90
6453.00,0.90
6452.00,0.90
6451.00,0.90
6450.00,0.90
6449.00,0.90
6448.00,0.90
6447.00,0.91
6446.00,0.91
6445.00,0.91
6444.00,0.91
6443.00,0.91
6442.00,0.91
6441.00,0.91
6440.00,0.91
6439.00,0.91
6438.00,0.91
6437.00,0.91
6436.00,0.91
6435.00,0.91
6434.00,0.92
6433.00,0.92
6432.00,0.92
6431.00,0.92
6430.00,0.92
6429.00,0.92
6428.00,0.92
6427.00,0.92
6426.00,0.92
6425.00,0.92
6424.00,0.92
6423.00,0.92
6422.00,0.92
6421.00,0.92
6420.00,0.92
6419.00,0.92
6418.00,0.92
6417.00,0.92
6416.00,0.92
6415.00,0.92
6414.00,0.92
6413.00,0.92
6412.00,0.93
6411.00,0.93
6410.00,0.93
6409.00,0.93
6408.00,0.93
6407.00,0.93
6406.00,0.93
6405.00,0.93
6404.00,0.93
6403.00,0.93
6402.00,0.93
6401.00,0.94
6400.00,0.94
6399.00,0.94
6398.00,0.94
6397.00,0.94
6396.00,0.94
6395.00,0.95
6394.00,0.95
6393.00,0.95
6392.00,0.95
6391.00,0.95
6390.00,0.95
6389.00,0.95
6388.00,0.95
6387.00,0.95
6386.00,0.95
6385.00,0.96
6384.00,0.96
6383.00,0.96
6382.00,0.96
6381.00,0.96
6380.00,0.96
6379.00,0.96
6378.00,0.96
6377.00,0.96
6376.00,0.96
6375.00,0.96
6374.00,0.96
6373.00,0.96
6372.00,0.97
6371.00,0.97
6370.00,0.97
6369.00,0.97
6368.00,0.97
6367.00,0.97
6366.00,0.97
6365.00,0.97
6364.00,0.97
6363.00,0.97
6362.00,0.97
6361.00,0.97
6360.00,0.98
6359.00,0.98
6358.00,0.98
6357.00,0.98
6356.00,0.98
6355.00,0.98
6354.00,0.98
6353.00,0.98
6352.00,0.98
6351.00,0.98
6350.00,0.99
6349.00,0.99
6348.00,0.99
6347.00,0.99
6346.00,0.99
6345.00,0.99
6344.00,0.99
6343.00,1.00
6342.00,1.00
6341.00,1.00
6340.00,1.00
6339.00,1.00
6338.00,1.00
6337.00,1.00
6336.00,1.00
6335.00,1.00
6334.00,1.00
6333.00,1.00
6332.00,1.01
6331.00,1.01
6330.00,1.01
6329.00,1.01
6328.00,1.01
6327.00,1.01
6326.00,1.01
6325.00,1.01
6324.00,1.01
6323.00,1.01
6322.00,1.01
6321.00,1.01
6320.00,1.01
6319.00,1.02
6318.00,1.02
6317.00,1.02
6316.00,1.02
6315.00,1.02
6314.00,1.02
6313.00,1.02
6312.00,1.03
6311.00,1.03
6310.00,1.03
6309.00,1.03
6308.00,1.03
6307.00,1.03
6306.00,1.03
6305.00,1.04
6304.00,1.04
6303.00,1.04
6302.00,1.04
6301.00,1.04
6300.00,1.04
6299.00,1.04
6298.00,1.04
6297.00,1.04
6296.00,1.04
6295.00,1.04
6294.00,1.05
6293.00,1.05
6292.00,1.05
6291.00,1.05
6290.00,1.05
6289.00,1.05
6288.00,1.05
6287.00,1.05
6286.00,1.05
6285.00,1.05
6284.00,1.05
6283.00,1.06
6282.00,1.06
6281.00,1.06
6280.00,1.06
6279.00,1.06
6278.00,1.06
6277.00,1.06
6276.00,1.06
6275.00,1.06
6274.00,1.07
6273.00,1.07
6272.00,1.07
6271.00,1.07
6270.00,1.07
6269.00,1.07
6268.00,1.07
6267.00,1.07
6266.00,1.07
6265.00,1.08
6264.00,1.08
6263.00,1.08
6262.00,1.08
6261.00,1.08
6260.00,1.08
6259.00,1.08
6258.00,1.08
6257.00,1.08
6256.00,1.09
6255.00,1.09
6254.00,1.09
6253.00,1.09
6252.00,1.09
6251.00,1.09
6250.00,1.09
6249.00,1.09
6248.00,1.10
6247.00,1.10
6246.00,1.10
6245.00,1.10
6244.00,1.10
6243.00,1.10
6242.00,1.10
6241.00,1.10
6240.00,1.10
6239.00,1.11
6238.00,1.11
6237.00,1.11
6236.00,1.11
6235.00,1.11
6234.00,1.11
6233.00,1.11
6232.00,1.11
6231.00,1.11
6230.00,1.11
6229.00,1.11
6228.00,1.12
6227.00,1.12
6226.00,1.12
6225.00,1.12
6224.00,1.12
6223.00,1.12
6222.00,1.12
6221.00,1.13
6220.00,1.13
6219.00,1.13
6218.00,1.13
6217.00,1.13
6216.00,1.13
6215.00,1.13
6214.00,1.14
6213.00,1.14
6212.00,1.14
6211.00,1.14
6210.00,1.14
6209.00,1.14
6208.00,1.14
6207.00,1.14
6206.00,1.14
6205.00,1.15
6204.00,1.15
6203.00,1.15
6202.00,1.15
6201.00,1.15
6200.00,1.15
6199.00,1.15
6198.00,1.15
6197.00,1.16
6196.00,1.16
6195.00,1.16
6194.00,1.16
6193.00,1.16
6192.00,1.16
6191.00,1.16
6190.00,1.16
6189.00,1.17
6188.00,1.17
6187.00,1.17
6186.00,1.17
6185.00,1.17
6184.00,1.17
6183.00,1.18
6182.00,1.18
6181.00,1.18
6180.00,1.18
6179.00,1.18
6178.00,1.19
6177.00,1.19
6176.00,1.19
6175.00,1.19
6174.00,1.19
6173.00,1.19
6172.00,1.19
6171.00,1.20
6170.00,1.20
6169.00,1.20
6168.00,1.20
6167.00,1.20
6166.00,1.20
6165.00,1.20
6164.00,1.21
6163.00,1.21
6162.00,1.21
6161.00,1.21
6160.00,1.21
6159.00,1.21
6158.00,1.21
6157.00,1.22
6156.00,1.22
6155.00,1.22
6154.00,1.22
6153.00,1.22
6152.00,1.22
6151.00,1.22
6150.00,1.23
6149.00,1.23
6148.00,1.23
6147.00,1.23
6146.00,1.23
6145.00,1.23
6144.00,1.24
6143.00,1.24
6142.00,1.24
6141.00,1.24
6140.00,1.24
6139.00,1.24
6138.00,1.24
6137.00,1.24
6136.00,1.24
6135.00,1.24
6134.00,1.24
6133.00,1.24
6132.00,1.24
6131.00,1.24
6130.00,1.25
6129.00,1.25
6128.00,1.25
6127.00,1.25
6126.00,1.25
6125.00,1.25
6124.00,1.25
6123.00,1.26
6122.00,1.26
6121.00,1.26
6120.00,1.26
6119.00,1.26
6118.00,1.27
6117.00,1.27
6116.00,1.27
6115.00,1.27
6114.00,1.27
6113.00,1.28
6112.00,1.28
6111.00,1.28
6110.00,1.28
6109.00,1.29
6108.00,1.29
6107.00,1.29
6106.00,1.29
6105.00,1.29
6104.00,1.29
6103.00,1.29
6102.00,1.30
6101.00,1.30
6100.00,1.30
6099.00,1.30
6098.00,1.30
6097.00,1.30
6096.00,1.30
6095.00,1.30
6094.00,1.30
6093.00,1.31
6092.00,1.31
6091.00,1.31
6090.00,1.31
6089.00,1.31
6088.00,1.31
6087.00,1.31
6086.00,1.31
6085.00,1.31
6084.00,1.31
6083.00,1.32
6082.00,1.32
6081.00,1.32
6080.00,1.32
6079.00,1.32
6078.00,1.32
6077.00,1.32
6076.00,1.32
6075.00,1.32
6074.00,1.32
6073.00,1.32
6072.00,1.32
6071.00,1.33
6070.00,1.33
6069.00,1.33
6068.00,1.33
6067.00,1.33
6066.00,1.33
6065.00,1.33
6064.00,1.33
6063.00,1.33
6062.00,1.33
6061.00,1.34
6060.00,1.34
6059.00,1.34
6058.00,1.34
6057.00,1.34
6056.00,1.34
6055.00,1.34
6054.00,1.34
6053.00,1.34
6052.00,1.34
6051.00,1.35
6050.00,1.35
6049.00,1.35
6048.00,1.35
6047.00,1.35
6046.00,1.35
6045.00,1.35
6044.00,1.35
6043.00,1.35
6042.00,1.35
6041.00,1.35
6040.00,1.36
6039.00,1.36
6038.00,1.36
6037.00,1.36
6036.00,1.36
6035.00,1.36
6034.00,1.36
6033.00,1.36
6032.00,1.36
6031.00,1.36
6030.00,1.36
6029.00,1.36
6028.00,1.36
6027.00,1.36
6026.00,1.36
6025.00,1.36
6024.00,1.37
6023.00,1.37
6022.00,1.37
6021.00,1.37
6020.00,1.37
6019.00,1.37
6018.00,1.37
6017.00,1.37
6016.00,1.37
6015.00,1.37
6014.00,1.37
6013.00,1.37
6012.00,1.37
6011.00,1.37
6010.00,1.37
6009.00,1.37
6008.00,1.37
6007.00,1.37
6006.00,1.37
6005.00,1.36
6004.00,1.36
6003.00,1.36
6002.00,1.36
6001.00,1.36
6000.00,1.36
5999.00,1.36
5998.00,1.36
5997.00,1.36
5996.00,1.36
5995.00,1.35
5994.00,1.35
5993.00,1.35
5992.00,1.35
5991.00,1.35
5990.00,1.35
5989.00,1.35
5988.00,1.35
5987.00,1.35
5986.00,1.34
5985.00,1.34
5984.00,1.34
5983.00,1.34
5982.00,1.34
5981.00,1.33
5980.00,1.33
5979.00,1.33
5978.00,1.32
5977.00,1.32
5976.00,1.32
5975.00,1.31
5974.00,1.31
5973.00,1.30
5972.00,1.30
5971.00,1.30
5970.00,1.29
5969.00,1.29
5968.00,1.28
5967.00,1.27
5966.00,1.27
5965.00,1.26
5964.00,1.26
5963.00,1.25
5962.00,1.25
5961.00,1.24
5960.00,1.24
5959.00,1.23
5958.00,1.22
5957.00,1.22
5956.00,1.21
5955.00,1.21
5954.00,1.20
5953.00,1.20
5952.00,1.19
5951.00,1.19
5950.00,1.19
5949.00,1.18
5948.00,1.18
5947.00,1.18
5946.00,1.17
5945.00,1.17
5944.00,1.17
5943.00,1.17
5942.00,1.17
5941.00,1.16
5940.00,1.16
5939.00,1.16
5938.00,1.16
5937.00,1.16
5936.00,1.16
5935.00,1.16
5934.00,1.16
5933.00,1.16
5932.00,1.16
5931.00,1.16
5930.00,1.16
5929.00,1.15
5928.00,1.15
5927.00,1.15
5926.00,1.15
5925.00,1.15
5924.00,1.15
5923.00,1.14
5922.00,1.14
5921.00,1.14
5920.00,1.14
5919.00,1.14
5918.00,1.13
5917.00,1.13
5916.00,1.13
5915.00,1.13
5914.00,1.12
5913.00,1.12
5912.00,1.12
5911.00,1.12
5910.00,1.12
5909.00,1.12
5908.00,1.12
5907.00,1.12
5906.00,1.11
5905.00,1.11
5904.00,1.11
5903.00,1.11
5902.00,1.11
5901.00,1.11
5900.00,1.11
5899.00,1.12
5898.00,1.12
5897.00,1.12
5896.00,1.12
5895.00,1.12
5894.00,1.12
5893.00,1.12
5892.00,1.13
5891.00,1.13
5890.00,1.13
5889.00,1.13
5888.00,1.14
5887.00,1.14
5886.00,1.14
5885.00,1.14
5884.00,1.15
5883.00,1.15
5882.00,1.15
5881.00,1.15
5880.00,1.16
5879.00,1.16
5878.00,1.16
5877.00,1.17
5876.00,1.17
5875.00,1.17
5874.00,1.17
5873.00,1.18
5872.00,1.18
5871.00,1.18
5870.00,1.18
5869.00,1.18
5868.00,1.19
5867.00,1.19
5866.00,1.19
5865.00,1.19
5864.00,1.19
5863.00,1.20
5862.00,1.20
5861.00,1.20
5860.00,1.20
5859.00,1.20
5858.00,1.20
5857.00,1.20
5856.00,1.20
5855.00,1.20
5854.00,1.21
5853.00,1.21
5852.00,1.21
5851.00,1.21
5850.00,1.21
5849.00,1.21
5848.00,1.21
5847.00,1.21
5846.00,1.21
5845.00,1.21
5844.00,1.21
5843.00,1.21
5842.00,1.21
5841.00,1.21
5840.00,1.21
5839.00,1.21
5838.00,1.21
5837.00,1.21
5836.00,1.21
5835.00,1.21
5834.00,1.21
5833.00,1.21
5832.00,1.21
5831.00,1.21
5830.00,1.21
5829.00,1.21
5828.00,1.21
5827.00,1.21
5826.00,1.21
5825.00,1.21
5824.00,1.21
5823.00,1.21
5822.00,1.21
5821.00,1.21
5820.00,1.21
5819.00,1.21
5818.00,1.21
5817.00,1.21
5816.00,1.21
5815.00,1.21
5814.00,1.21
5813.00,1.21
5812.00,1.21
5811.00,1.21
5810.00,1.21
5809.00,1.21
5808.00,1.21
5807.00,1.21
5806.00,1.21
5805.00,1.21
5804.00,1.21
5803.00,1.20
5802.00,1.20
5801.00,1.20
5800.00,1.20
5799.00,1.20
5798.00,1.20
5797.00,1.19
5796.00,1.19
5795.00,1.19
5794.00,1.19
5793.00,1.19
5792.00,1.19
5791.00,1.18
5790.00,1.18
5789.00,1.18
5788.00,1.18
5787.00,1.18
5786.00,1.17
5785.00,1.17
5784.00,1.17
5783.00,1.17
5782.00,1.17
5781.00,1.17
5780.00,1.17
5779.00,1.17
5778.00,1.17
5777.00,1.17
5776.00,1.17
5775.00,1.17
5774.00,1.17
5773.00,1.17
5772.00,1.17
5771.00,1.17
5770.00,1.17
5769.00,1.17
5768.00,1.17
5767.00,1.17
5766.00,1.17
5765.00,1.17
5764.00,1.18
5763.00,1.18
5762.00,1.18
5761.00,1.18
5760.00,1.18
5759.00,1.19
5758.00,1.19
5757.00,1.19
5756.00,1.19
5755.00,1.19
5754.00,1.20
5753.00,1.20
5752.00,1.20
5751.00,1.20
5750.00,1.21
5749.00,1.21
5748.00,1.21
5747.00,1.21
5746.00,1.22
5745.00,1.22
5744.00,1.22
5743.00,1.22
5742.00,1.22
5741.00,1.23
5740.00,1.23
5739.00,1.23
5738.00,1.23
5737.00,1.23
5736.00,1.23
5735.00,1.23
5734.00,1.24
5733.00,1.24
5732.00,1.24
5731.00,1.24
5730.00,1.24
5729.00,1.24
5728.00,1.24
5727.00,1.24
5726.00,1.24
5725.00,1.24
5724.00,1.24
5723.00,1.24
5722.00,1.24
5721.00,1.24
5720.00,1.24
5719.00,1.24
5718.00,1.24
5717.00,1.24
5716.00,1.24
5715.00,1.24
5714.00,1.24
5713.00,1.24
5712.00,1.24
5711.00,1.24
5710.00,1.24
5709.00,1.24
5708.00,1.24
5707.00,1.24
5706.00,1.23
5705.00,1.23
5704.00,1.23
5703.00,1.23
5702.00,1.23
5701.00,1.23
5700.00,1.23
5699.00,1.23
5698.00,1.22
5697.00,1.22
5696.00,1.22
5695.00,1.22
5694.00,1.22
5693.00,1.21
5692.00,1.21
5691.00,1.21
5690.00,1.21
5689.00,1.21
5688.00,1.21
5687.00,1.20
5686.00,1.20
5685.00,1.20
5684.00,1.20
5683.00,1.20
5682.00,1.20
5681.00,1.20
5680.00,1.20
5679.00,1.19
5678.00,1.19
5677.00,1.19
5676.00,1.19
5675.00,1.19
5674.00,1.19
5673.00,1.19
5672.00,1.19
5671.00,1.19
5670.00,1.19
5669.00,1.19
5668.00,1.20
5667.00,1.20
5666.00,1.20
5665.00,1.20
5664.00,1.20
5663.00,1.20
5662.00,1.20
5661.00,1.21
5660.00,1.21
5659.00,1.21
5658.00,1.21
5657.00,1.21
5656.00,1.21
5655.00,1.22
5654.00,1.22
5653.00,1.22
5652.00,1.22
5651.00,1.22
5650.00,1.22
5649.00,1.22
5648.00,1.22
5647.00,1.22
5646.00,1.22
5645.00,1.23
5644.00,1.23
5643.00,1.23
5642.00,1.23
5641.00,1.23
5640.00,1.23
5639.00,1.23
5638.00,1.23
5637.00,1.23
5636.00,1.24
5635.00,1.24
5634.00,1.24
5633.00,1.24
5632.00,1.24
5631.00,1.24
5630.00,1.25
5629.00,1.25
5628.00,1.25
5627.00,1.25
5626.00,1.25
5625.00,1.26
5624.00,1.26
5623.00,1.26
5622.00,1.26
5621.00,1.26
5620.00,1.26
5619.00,1.26
5618.00,1.26
5617.00,1.26
5616.00,1.26
5615.00,1.27
5614.00,1.27
5613.00,1.27
5612.00,1.27
5611.00,1.27
5610.00,1.27
5609.00,1.27
5608.00,1.27
5607.00,1.27
5606.00,1.27
5605.00,1.27
5604.00,1.27
5603.00,1.27
5602.00,1.28
5601.00,1.28
5600.00,1.28
5599.00,1.28
5598.00,1.28
5597.00,1.29
5596.00,1.29
5595.00,1.29
5594.00,1.29
5593.00,1.29
5592.00,1.30
5591.00,1.30
5590.00,1.30
5589.00,1.30
5588.00,1.30
5587.00,1.30
5586.00,1.30
5585.00,1.31
5584.00,1.31
5583.00,1.31
5582.00,1.31
5581.00,1.31
5580.00,1.31
5579.00,1.31
5578.00,1.31
5577.00,1.31
5576.00,1.31
5575.00,1.32
5574.00,1.32
5573.00,1.32
5572.00,1.32
5571.00,1.32
5570.00,1.32
5569.00,1.32
5568.00,1.32
5567.00,1.33
5566.00,1.33
5565.00,1.33
5564.00,1.33
5563.00,1.33
5562.00,1.33
5561.00,1.33
5560.00,1.34
5559.00,1.34
5558.00,1.34
5557.00,1.34
5556.00,1.34
5555.00,1.34
5554.00,1.34
5553.00,1.34
5552.00,1.35
5551.00,1.35
5550.00,1.35
5549.00,1.35
5548.00,1.35
5547.00,1.35
5546.00,1.35
5545.00,1.35
5544.00,1.35
5543.00,1.36
5542.00,1.36
5541.00,1.36
5540.00,1.36
5539.00,1.36
5538.00,1.36
5537.00,1.36
5536.00,1.36
5535.00,1.36
5534.00,1.36
5533.00,1.36
5532.00,1.36
5531.00,1.36
5530.00,1.37
5529.00,1.37
5528.00,1.37
5527.00,1.37
5526.00,1.37
5525.00,1.37
5524.00,1.37
5523.00,1.37
5522.00,1.37
5521.00,1.37
5520.00,1.37
5519.00,1.37
5518.00,1.37
5517.00,1.37
5516.00,1.37
5515.00,1.37
5514.00,1.37
5513.00,1.37
5512.00,1.37
5511.00,1.38
5510.00,1.38
5509.00,1.38
5508.00,1.38
5507.00,1.38
5506.00,1.38
5505.00,1.38
5504.00,1.38
5503.00,1.38
5502.00,1.38
5501.00,1.38
5500.00,1.38
5499.00,1.38
5498.00,1.38
5497.00,1.38
5496.00,1.38
5495.00,1.38
5494.00,1.39
5493.00,1.39
5492.00,1.39
5491.00,1.39
5490.00,1.39
5489.00,1.39
5488.00,1.39
5487.00,1.39
5486.00,1.40
5485.00,1.40
5484.00,1.40
5483.00,1.40
5482.00,1.40
5481.00,1.40
5480.00,1.40
5479.00,1.40
5478.00,1.40
5477.00,1.40
5476.00,1.41
5475.00,1.41
5474.00,1.41
5473.00,1.41
5472.00,1.41
5471.00,1.41
5470.00,1.41
5469.00,1.41
5468.00,1.41
5467.00,1.41
5466.00,1.41
5465.00,1.41
5464.00,1.41
5463.00,1.42
5462.00,1.42
5461.00,1.42
5460.00,1.42
5459.00,1.42
5458.00,1.42
5457.00,1.42
5456.00,1.42
5455.00,1.42
5454.00,1.42
5453.00,1.42
5452.00,1.42
5451.00,1.42
5450.00,1.42
5449.00,1.42
5448.00,1.42
5447.00,1.42
5446.00,1.42
5445.00,1.42
5444.00,1.42
5443.00,1.42
5442.00,1.42
5441.00,1.42
5440.00,1.42
5439.00,1.42
5438.00,1.42
5437.00,1.42
5436.00,1.42
5435.00,1.42
5434.00,1.42
5433.00,1.42
5432.00,1.42
5431.00,1.42
5430.00,1.42
5429.00,1.42
5428.00,1.42
5427.00,1.42
5426.00,1.42
5425.00,1.42
5424.00,1.42
5423.00,1.42
5422.00,1.42
5421.00,1.42
5420.00,1.42
5419.00,1.42
5418.00,1.42
5417.00,1.42
5416.00,1.42
5415.00,1.42
5414.00,1.42
5413.00,1.42
5412.00,1.42
5411.00,1.41
5410.00,1.41
5409.00,1.41
5408.00,1.41
5407.00,1.41
5406.00,1.41
5405.00,1.41
5404.00,1.41
5403.00,1.41
5402.00,1.41
5401.00,1.41
5400.00,1.41
5399.00,1.40
5398.00,1.40
5397.00,1.40
5396.00,1.40
5395.00,1.40
5394.00,1.39
5393.00,1.39
5392.00,1.39
5391.00,1.39
5390.00,1.38
5389.00,1.38
5388.00,1.38
5387.00,1.37
5386.00,1.37
5385.00,1.37
5384.00,1.36
5383.00,1.36
5382.00,1.35
5381.00,1.35
5380.00,1.35
5379.00,1.34
5378.00,1.34
5377.00,1.34
5376.00,1.33
5375.00,1.33
5374.00,1.32
5373.00,1.32
5372.00,1.31
5371.00,1.31
5370.00,1.31
5369.00,1.30
5368.00,1.29
5367.00,1.29
5366.00,1.28
5365.00,1.28
5364.00,1.27
5363.00,1.27
5362.00,1.26
5361.00,1.25
5360.00,1.25
5359.00,1.24
5358.00,1.23
5357.00,1.22
5356.00,1.22
5355.00,1.21
5354.00,1.20
5353.00,1.19
5352.00,1.18
5351.00,1.17
5350.00,1.17
5349.00,1.16
5348.00,1.15
5347.00,1.14
5346.00,1.13
5345.00,1.12
5344.00,1.11
5343.00,1.10
5342.00,1.10
5341.00,1.09
5340.00,1.08
5339.00,1.07
5338.00,1.06
5337.00,1.05
5336.00,1.04
5335.00,1.04
5334.00,1.03
5333.00,1.02
5332.00,1.01
5331.00,1.00
5330.00,1.00
5329.00,0.99
5328.00,0.98
5327.00,0.98
5326.00,0.97
5325.00,0.96
5324.00,0.96
5323.00,0.95
5322.00,0.95
5321.00,0.94
5320.00,0.94
5319.00,0.93
5318.00,0.92
5317.00,0.92
5316.00,0.91
5315.00,0.91
5314.00,0.90
5313.00,0.90
5312.00,0.89
5311.00,0.89
5310.00,0.88
5309.00,0.88
5308.00,0.87
5307.00,0.87
5306.00,0.87
5305.00,0.86
5304.00,0.86
5303.00,0.86
5302.00,0.85
5301.00,0.85
5300.00,0.85
5299.00,0.85
5298.00,0.85
5297.00,0.85
5296.00,0.84
5295.00,0.84
5294.00,0.84
5293.00,0.84
5292.00,0.84
5291.00,0.84
5290.00,0.84
5289.00,0.84
5288.00,0.84
5287.00,0.83
5286.00,0.83
5285.00,0.83
5284.00,0.83
5283.00,0.83
5282.00,0.83
5281.00,0.83
5280.00,0.83
5279.00,0.83
5278.00,0.83
5277.00,0.83
5276.00,0.83
5275.00,0.83
5274.00,0.83
5273.00,0.83
5272.00,0.83
5271.00,0.83
5270.00,0.83
5269.00,0.83
5268.00,0.83
5267.00,0.83
5266.00,0.83
5265.00,0.83
5264.00,0.83
5263.00,0.83
5262.00,0.83
5261.00,0.83
5260.00,0.83
5259.00,0.83
5258.00,0.83
5257.00,0.83
5256.00,0.83
5255.00,0.83
5254.00,0.83
5253.00,0.83
5252.00,0.83
5251.00,0.83
5250.00,0.83
5249.00,0.83
5248.00,0.83
5247.00,0.83
5246.00,0.83
5245.00,0.83
5244.00,0.83
5243.00,0.83
5242.00,0.83
5241.00,0.83
5240.00,0.83
5239.00,0.83
5238.00,0.83
5237.00,0.83
5236.00,0.83
5235.00,0.83
5234.00,0.83
5233.00,0.83
5232.00,0.83
5231.00,0.83
5230.00,0.83
5229.00,0.83
5228.00,0.83
5227.00,0.83
5226.00,0.83
5225.00,0.83
5224.00,0.83
5223.00,0.83
5222.00,0.83
5221.00,0.83
5220.00,0.83
5219.00,0.83
5218.00,0.83
5217.00,0.83
5216.00,0.84
5215.00,0.84
5214.00,0.84
5213.00,0.84
5212.00,0.84
5211.00,0.84
5210.00,0.84
5209.00,0.84
5208.00,0.84
5207.00,0.84
5206.00,0.84
5205.00,0.84
5204.00,0.84
5203.00,0.84
5202.00,0.84
5201.00,0.84
5200.00,0.84
5199.00,0.84
5198.00,0.84
5197.00,0.85
5196.00,0.85
5195.00,0.85
5194.00,0.85
5193.00,0.85
5192.00,0.85
5191.00,0.85
5190.00,0.85
5189.00,0.85
5188.00,0.85
5187.00,0.85
5186.00,0.85
5185.00,0.85
5184.00,0.85
5183.00,0.85
5182.00,0.85
5181.00,0.85
5180.00,0.85
5179.00,0.85
5178.00,0.86
5177.00,0.86
5176.00,0.86
5175.00,0.86
5174.00,0.86
5173.00,0.86
5172.00,0.86
5171.00,0.86
5170.00,0.86
5169.00,0.86
5168.00,0.86
5167.00,0.86
5166.00,0.86
5165.00,0.86
5164.00,0.86
5163.00,0.86
5162.00,0.86
5161.00,0.86
5160.00,0.86
5159.00,0.86
5158.00,0.87
5157.00,0.87
5156.00,0.87
5155.00,0.87
5154.00,0.87
5153.00,0.87
5152.00,0.87
5151.00,0.87
5150.00,0.87
5149.00,0.87
5148.00,0.87
5147.00,0.87
5146.00,0.87
5145.00,0.87
5144.00,0.87
5143.00,0.87
5142.00,0.87
5141.00,0.87
5140.00,0.87
5139.00,0.87
5138.00,0.87
5137.00,0.87
5136.00,0.87
5135.00,0.87
5134.00,0.87
5133.00,0.88
5132.00,0.88
5131.00,0.88
5130.00,0.88
5129.00,0.88
5128.00,0.88
5127.00,0.88
5126.00,0.88
5125.00,0.88
5124.00,0.88
5123.00,0.88
5122.00,0.88
5121.00,0.88
5120.00,0.88
5119.00,0.88
5118.00,0.88
5117.00,0.88
5116.00,0.88
5115.00,0.88
5114.00,0.88
5113.00,0.88
5112.00,0.88
5111.00,0.88
5110.00,0.88
5109.00,0.88
5108.00,0.88
5107.00,0.88
5106.00,0.88
5105.00,0.88
5104.00,0.88
5103.00,0.88
5102.00,0.88
5101.00,0.88
5100.00,0.88
5099.00,0.89
5098.00,0.89
5097.00,0.89
5096.00,0.89
5095.00,0.89
5094.00,0.89
5093.00,0.89
5092.00,0.89
5091.00,0.89
5090.00,0.89
5089.00,0.89
5088.00,0.90
5087.00,0.90
5086.00,0.90
5085.00,0.90
5084.00,0.90
5083.00,0.90
5082.00,0.90
5081.00,0.90
5080.00,0.90
5079.00,0.90
5078.00,0.90
5077.00,0.90
5076.00,0.90
5075.00,0.90
5074.00,0.90
5073.00,0.90
5072.00,0.90
5071.00,0.90
5070.00,0.90
5069.00,0.90
5068.00,0.90
5067.00,0.91
5066.00,0.91
5065.00,0.91
5064.00,0.91
5063.00,0.91
5062.00,0.91
5061.00,0.91
5060.00,0.91
5059.00,0.91
5058.00,0.91
5057.00,0.91
5056.00,0.91
5055.00,0.91
5054.00,0.91
5053.00,0.91
5052.00,0.91
5051.00,0.91
5050.00,0.91
5049.00,0.91
5048.00,0.91
5047.00,0.91
5046.00,0.91
5045.00,0.91
5044.00,0.91
5043.00,0.91
5042.00,0.91
5041.00,0.91
5040.00,0.91
5039.00,0.91
5038.00,0.91
5037.00,0.91
5036.00,0.92
5035.00,0.92
5034.00,0.92
5033.00,0.92
5032.00,0.92
5031.00,0.92
5030.00,0.92
5029.00,0.92
5028.00,0.92
5027.00,0.92
5026.00,0.92
5025.00,0.92
5024.00,0.92
5023.00,0.93
5022.00,0.93
5021.00,0.93
5020.00,0.93
5019.00,0.93
5018.00,0.93
5017.00,0.93
5016.00,0.93
5015.00,0.93
5014.00,0.93
5013.00,0.93
5012.00,0.93
5011.00,0.93
5010.00,0.93
5009.00,0.93
5008.00,0.93
5007.00,0.93
5006.00,0.93
5005.00,0.93
5004.00,0.93
5003.00,0.93
5002.00,0.93
5001.00,0.93
5000.00,0.94
4999.00,0.94
4998.00,0.94
4997.00,0.94
4996.00,0.94
4995.00,0.94
4994.00,0.94
4993.00,0.94
4992.00,0.94
4991.00,0.94
4990.00,0.94
4989.00,0.94
4988.00,0.94
4987.00,0.94
4986.00,0.94
4985.00,0.94
4984.00,0.94
4983.00,0.94
4982.00,0.94
4981.00,0.94
4980.00,0.94
4979.00,0.94
4978.00,0.94
4977.00,0.94
4976.00,0.94
4975.00,0.95
4974.00,0.95
4973.00,0.95
4972.00,0.95
4971.00,0.95
4970.00,0.95
4969.00,0.95
4968.00,0.95
4967.00,0.95
4966.00,0.95
4965.00,0.95
4964.00,0.96
4963.00,0.96
4962.00,0.96
4961.00,0.96
4960.00,0.96
4959.00,0.96
4958.00,0.96
4957.00,0.96
4956.00,0.96
4955.00,0.96
4954.00,0.96
4953.00,0.96
4952.00,0.96
4951.00,0.97
4950.00,0.97
4949.00,0.97
4948.00,0.97
4947.00,0.97
4946.00,0.97
4945.00,0.97
4944.00,0.97
4943.00,0.97
4942.00,0.97
4941.00,0.97
4940.00,0.97
4939.00,0.97
4938.00,0.97
4937.00,0.97
4936.00,0.97
4935.00,0.97
4934.00,0.97
4933.00,0.97
4932.00,0.98
4931.00,0.98
4930.00,0.98
4929.00,0.98
4928.00,0.98
4927.00,0.98
4926.00,0.98
4925.00,0.98
4924.00,0.98
4923.00,0.98
4922.00,0.98
4921.00,0.98
4920.00,0.98
4919.00,0.98
4918.00,0.98
4917.00,0.98
4916.00,0.98
4915.00,0.98
4914.00,0.98
4913.00,0.99
4912.00,0.99
4911.00,0.99
4910.00,0.99
4909.00,0.99
4908.00,0.99
4907.00,0.99
4906.00,0.99
4905.00,0.99
4904.00,0.99
4903.00,0.99
4902.00,1.00
4901.00,1.00
4900.00,1.00
4899.00,1.00
4898.00,1.00
4897.00,1.00
4896.00,1.00
4895.00,1.00
4894.00,1.00
4893.00,1.00
4892.00,1.00
4891.00,1.00
4890.00,1.00
4889.00,1.00
4888.00,1.00
4887.00,1.00
4886.00,1.00
4885.00,1.01
4884.00,1.01
4883.00,1.01
4882.00,1.01
4881.00,1.01
4880.00,1.01
4879.00,1.01
4878.00,1.01
4877.00,1.01
4876.00,1.01
4875.00,1.01
4874.00,1.01
4873.00,1.01
4872.00,1.01
4871.00,1.01
4870.00,1.01
4869.00,1.01
4868.00,1.02
4867.00,1.02
4866.00,1.02
4865.00,1.02
4864.00,1.02
4863.00,1.02
4862.00,1.02
4861.00,1.02
4860.00,1.02
4859.00,1.02
4858.00,1.02
4857.00,1.02
4856.00,1.02
4855.00,1.02
4854.00,1.02
4853.00,1.02
4852.00,1.02
4851.00,1.02
4850.00,1.02
4849.00,1.02
4848.00,1.02
4847.00,1.02
4846.00,1.02
4845.00,1.02
4844.00,1.02
4843.00,1.02
4842.00,1.02
4841.00,1.02
4840.00,1.02
4839.00,1.02
4838.00,1.02
4837.00,1.02
4836.00,1.03
4835.00,1.03
4834.00,1.03
4833.00,1.03
4832.00,1.03
4831.00,1.03
4830.00,1.03
4829.00,1.03
4828.00,1.03
4827.00,1.03
4826.00,1.03
4825.00,1.03
4824.00,1.03
4823.00,1.04
4822.00,1.04
4821.00,1.04
4820.00,1.04
4819.00,1.04
4818.00,1.04
4817.00,1.04
4816.00,1.04
4815.00,1.04
4814.00,1.04
4813.00,1.04
4812.00,1.04
4811.00,1.04
4810.00,1.04
4809.00,1.05
4808.00,1.05
4807.00,1.05
4806.00,1.05
4805.00,1.05
4804.00,1.05
4803.00,1.05
4802.00,1.05
4801.00,1.05
4800.00,1.05
4799.00,1.05
4798.00,1.06
4797.00,1.06
4796.00,1.06
4795.00,1.06
4794.00,1.06
4793.00,1.06
4792.00,1.06
4791.00,1.06
4790.00,1.06
4789.00,1.06
4788.00,1.06
4787.00,1.06
4786.00,1.06
4785.00,1.06
4784.00,1.07
4783.00,1.07
4782.00,1.07
4781.00,1.07
4780.00,1.07
4779.00,1.07
4778.00,1.07
4777.00,1.08
4776.00,1.08
4775.00,1.08
4774.00,1.08
4773.00,1.08
4772.00,1.08
4771.00,1.08
4770.00,1.09
4769.00,1.09
4768.00,1.09
4767.00,1.09
4766.00,1.09
4765.00,1.09
4764.00,1.09
4763.00,1.09
4762.00,1.09
4761.00,1.09
4760.00,1.09
4759.00,1.09
4758.00,1.09
4757.00,1.09
4756.00,1.09
4755.00,1.09
4754.00,1.09
4753.00,1.10
4752.00,1.10
4751.00,1.10
4750.00,1.10
4749.00,1.10
4748.00,1.10
4747.00,1.10
4746.00,1.10
4745.00,1.10
4744.00,1.10
4743.00,1.10
4742.00,1.10
4741.00,1.11
4740.00,1.11
4739.00,1.11
4738.00,1.11
4737.00,1.11
4736.00,1.12
4735.00,1.12
4734.00,1.12
4733.00,1.12
4732.00,1.12
4731.00,1.12
4730.00,1.13
4729.00,1.13
4728.00,1.13
4727.00,1.13
4726.00,1.13
4725.00,1.13
4724.00,1.13
4723.00,1.13
4722.00,1.13
4721.00,1.13
4720.00,1.13
4719.00,1.14
4718.00,1.14
4717.00,1.14
4716.00,1.14
4715.00,1.14
4714.00,1.14
4713.00,1.14
4712.00,1.14
4711.00,1.14
4710.00,1.15
4709.00,1.15
4708.00,1.15
4707.00,1.15
4706.00,1.15
4705.00,1.15
4704.00,1.15
4703.00,1.15
4702.00,1.15
4701.00,1.15
4700.00,1.15
4699.00,1.15
4698.00,1.16
4697.00,1.16
4696.00,1.16
4695.00,1.16
4694.00,1.16
4693.00,1.16
4692.00,1.16
4691.00,1.16
4690.00,1.16
4689.00,1.16
4688.00,1.16
4687.00,1.16
4686.00,1.17
4685.00,1.17
4684.00,1.17
4683.00,1.17
4682.00,1.17
4681.00,1.17
4680.00,1.17
4679.00,1.18
4678.00,1.18
4677.00,1.18
4676.00,1.18
4675.00,1.18
4674.00,1.18
4673.00,1.18
4672.00,1.18
4671.00,1.18
4670.00,1.18
4669.00,1.18
4668.00,1.18
4667.00,1.18
4666.00,1.18
4665.00,1.19
4664.00,1.19
4663.00,1.19
4662.00,1.19
4661.00,1.19
4660.00,1.19
4659.00,1.19
4658.00,1.19
4657.00,1.19
4656.00,1.20
4655.00,1.20
4654.00,1.20
4653.00,1.20
4652.00,1.20
4651.00,1.20
4650.00,1.20
4649.00,1.20
4648.00,1.20
4647.00,1.20
4646.00,1.21
4645.00,1.21
4644.00,1.21
4643.00,1.21
4642.00,1.21
4641.00,1.21
4640.00,1.21
4639.00,1.21
4638.00,1.21
4637.00,1.21
4636.00,1.21
4635.00,1.21
4634.00,1.21
4633.00,1.22
4632.00,1.22
4631.00,1.22
4630.00,1.22
4629.00,1.22
4628.00,1.22
4627.00,1.22
4626.00,1.22
4625.00,1.23
4624.00,1.23
4623.00,1.23
4622.00,1.23
4621.00,1.23
4620.00,1.23
4619.00,1.23
4618.00,1.23
4617.00,1.24
4616.00,1.24
4615.00,1.24
4614.00,1.24
4613.00,1.24
4612.00,1.24
4611.00,1.24
4610.00,1.24
4609.00,1.24
4608.00,1.24
4607.00,1.24
4606.00,1.24
4605.00,1.24
4604.00,1.24
4603.00,1.24
4602.00,1.24
4601.00,1.24
4600.00,1.24
4599.00,1.25
4598.00,1.25
4597.00,1.25
4596.00,1.25
4595.00,1.25
4594.00,1.25
4593.00,1.25
4592.00,1.25
4591.00,1.25
4590.00,1.25
4589.00,1.25
4588.00,1.25
4587.00,1.25
4586.00,1.25
4585.00,1.25
4584.00,1.25
4583.00,1.25
4582.00,1.25
4581.00,1.25
4580.00,1.25
4579.00,1.25
4578.00,1.26
4577.00,1.26
4576.00,1.26
4575.00,1.26
4574.00,1.26
4573.00,1.26
4572.00,1.26
4571.00,1.26
4570.00,1.26
4569.00,1.26
4568.00,1.26
4567.00,1.26
4566.00,1.26
4565.00,1.26
4564.00,1.27
4563.00,1.27
4562.00,1.27
4561.00,1.27
4560.00,1.27
4559.00,1.27
4558.00,1.27
4557.00,1.27
4556.00,1.27
4555.00,1.27
4554.00,1.27
4553.00,1.27
4552.00,1.27
4551.00,1.27
4550.00,1.27
4549.00,1.27
4548.00,1.27
4547.00,1.27
4546.00,1.28
4545.00,1.28
4544.00,1.28
4543.00,1.28
4542.00,1.28
4541.00,1.28
4540.00,1.28
4539.00,1.28
4538.00,1.28
4537.00,1.28
4536.00,1.28
4535.00,1.28
4534.00,1.28
4533.00,1.28
4532.00,1.28
4531.00,1.28
4530.00,1.28
4529.00,1.28
4528.00,1.28
4527.00,1.28
4526.00,1.28
4525.00,1.28
4524.00,1.28
4523.00,1.28
4522.00,1.28
4521.00,1.28
4520.00,1.28
4519.00,1.29
4518.00,1.29
4517.00,1.29
4516.00,1.29
4515.00,1.29
4514.00,1.29
4513.00,1.29
4512.00,1.29
4511.00,1.29
4510.00,1.29
4509.00,1.29
4508.00,1.29
4507.00,1.29
4506.00,1.29
4505.00,1.29
4504.00,1.29
4503.00,1.29
4502.00,1.29
4501.00,1.29
4500.00,1.29
4499.00,1.29
4498.00,1.29
4497.00,1.29
4496.00,1.29
4495.00,1.29
4494.00,1.29
4493.00,1.29
4492.00,1.29
4491.00,1.29
4490.00,1.29
4489.00,1.29
4488.00,1.29
4487.00,1.29
4486.00,1.29
4485.00,1.29
4484.00,1.29
4483.00,1.29
4482.00,1.29
4481.00,1.29
4480.00,1.29
4479.00,1.29
4478.00,1.28
4477.00,1.28
4476.00,1.28
4475.00,1.28
4474.00,1.28
4473.00,1.28
4472.00,1.28
4471.00,1.28
4470.00,1.28
4469.00,1.27
4468.00,1.27
4467.00,1.27
4466.00,1.27
4465.00,1.27
4464.00,1.27
4463.00,1.27
4462.00,1.26
4461.00,1.26
4460.00,1.26
4459.00,1.26
4458.00,1.26
4457.00,1.25
4456.00,1.25
4455.00,1.25
4454.00,1.25
4453.00,1.25
4452.00,1.24
4451.00,1.24
4450.00,1.24
4449.00,1.24
4448.00,1.23
4447.00,1.23
4446.00,1.23
4445.00,1.23
4444.00,1.23
4443.00,1.22
4442.00,1.22
4441.00,1.22
4440.00,1.22
4439.00,1.22
4438.00,1.22
4437.00,1.22
4436.00,1.22
4435.00,1.21
4434.00,1.21
4433.00,1.21
4432.00,1.21
4431.00,1.21
4430.00,1.21
4429.00,1.21
4428.00,1.21
4427.00,1.21
4426.00,1.21
4425.00,1.21
4424.00,1.21
4423.00,1.21
4422.00,1.20
4421.00,1.20
4420.00,1.20
4419.00,1.20
4418.00,1.20
4417.00,1.20
4416.00,1.20
4415.00,1.20
4414.00,1.20
4413.00,1.20
4412.00,1.20
4411.00,1.20
4410.00,1.20
4409.00,1.20
4408.00,1.20
4407.00,1.20
4406.00,1.20
4405.00,1.20
4404.00,1.20
4403.00,1.20
4402.00,1.20
4401.00,1.20
4400.00,1.20
4399.00,1.20
4398.00,1.20
4397.00,1.21
4396.00,1.21
4395.00,1.21
4394.00,1.21
4393.00,1.21
4392.00,1.21
4391.00,1.21
4390.00,1.22
4389.00,1.22
4388.00,1.22
4387.00,1.22
4386.00,1.22
4385.00,1.22
4384.00,1.22
4383.00,1.22
4382.00,1.23
4381.00,1.23
4380.00,1.23
4379.00,1.23
4378.00,1.23
4377.00,1.23
4376.00,1.23
4375.00,1.23
4374.00,1.23
4373.00,1.23
4372.00,1.23
4371.00,1.23
4370.00,1.23
4369.00,1.23
4368.00,1.23
4367.00,1.23
4366.00,1.23
4365.00,1.23
4364.00,1.23
4363.00,1.23
4362.00,1.23
4361.00,1.23
4360.00,1.23
4359.00,1.23
4358.00,1.23
4357.00,1.23
4356.00,1.23
4355.00,1.23
4354.00,1.23
4353.00,1.23
4352.00,1.23
4351.00,1.23
4350.00,1.23
4349.00,1.23
4348.00,1.23
4347.00,1.23
4346.00,1.23
4345.00,1.23
4344.00,1.23
4343.00,1.23
4342.00,1.23
4341.00,1.23
4340.00,1.23
4339.00,1.23
4338.00,1.23
4337.00,1.23
4336.00,1.23
4335.00,1.23
4334.00,1.23
4333.00,1.23
4332.00,1.24
4331.00,1.24
4330.00,1.24
4329.00,1.24
4328.00,1.24
4327.00,1.24
4326.00,1.24
4325.00,1.24
4324.00,1.24
4323.00,1.24
4322.00,1.24
4321.00,1.25
4320.00,1.25
4319.00,1.25
4318.00,1.25
4317.00,1.25
4316.00,1.25
4315.00,1.25
4314.00,1.26
4313.00,1.26
4312.00,1.26
4311.00,1.26
4310.00,1.26
4309.00,1.26
4308.00,1.26
4307.00,1.27
4306.00,1.27
4305.00,1.27
4304.00,1.27
4303.00,1.27
4302.00,1.27
4301.00,1.27
4300.00,1.28
4299.00,1.28
4298.00,1.28
4297.00,1.28
4296.00,1.28
4295.00,1.28
4294.00,1.28
4293.00,1.28
4292.00,1.29
4291.00,1.29
4290.00,1.29
4289.00,1.29
4288.00,1.29
4287.00,1.29
4286.00,1.29
4285.00,1.29
4284.00,1.29
4283.00,1.29
4282.00,1.29
4281.00,1.29
4280.00,1.29
4279.00,1.29
4278.00,1.29
4277.00,1.29
4276.00,1.29
4275.00,1.29
4274.00,1.29
4273.00,1.29
4272.00,1.29
4271.00,1.29
4270.00,1.29
4269.00,1.29
4268.00,1.29
4267.00,1.29
4266.00,1.29
4265.00,1.29
4264.00,1.29
4263.00,1.29
4262.00,1.29
4261.00,1.29
4260.00,1.29
4259.00,1.29
4258.00,1.29
4257.00,1.29
4256.00,1.29
4255.00,1.29
4254.00,1.29
4253.00,1.29
4252.00,1.29
4251.00,1.29
4250.00,1.29
4249.00,1.29
4248.00,1.29
4247.00,1.30
4246.00,1.30
4245.00,1.30
4244.00,1.30
4243.00,1.30
4242.00,1.30
4241.00,1.30
4240.00,1.30
4239.00,1.30
4238.00,1.30
4237.00,1.30
4236.00,1.30
4235.00,1.30
4234.00,1.30
4233.00,1.30
4232.00,1.31
4231.00,1.31
4230.00,1.31
4229.00,1.31
4228.00,1.31
4227.00,1.31
4226.00,1.31
4225.00,1.31
4224.00,1.31
4223.00,1.31
4222.00,1.31
4221.00,1.31
4220.00,1.31
4219.00,1.31
4218.00,1.31
4217.00,1.31
4216.00,1.31
4215.00,1.31
4214.00,1.31
4213.00,1.31
4212.00,1.31
4211.00,1.31
4210.00,1.31
4209.00,1.31
4208.00,1.31
4207.00,1.31
4206.00,1.31
4205.00,1.31
4204.00,1.31
4203.00,1.32
4202.00,1.32
4201.00,1.32
4200.00,1.32
4199.00,1.32
4198.00,1.32
4197.00,1.32
4196.00,1.32
4195.00,1.32
4194.00,1.32
4193.00,1.32
4192.00,1.32
4191.00,1.32
4190.00,1.32
4189.00,1.32
4188.00,1.32
4187.00,1.32
4186.00,1.32
4185.00,1.32
4184.00,1.33
4183.00,1.33
4182.00,1.33
4181.00,1.33
4180.00,1.33
4179.00,1.33
4178.00,1.33
4177.00,1.33
4176.00,1.33
4175.00,1.33
4174.00,1.33
4173.00,1.33
4172.00,1.33
4171.00,1.33
4170.00,1.33
4169.00,1.33
4168.00,1.33
4167.00,1.33
4166.00,1.33
4165.00,1.33
4164.00,1.33
4163.00,1.33
4162.00,1.33
4161.00,1.34
4160.00,1.34
4159.00,1.34
4158.00,1.34
4157.00,1.34
4156.00,1.34
4155.00,1.34
4154.00,1.34
4153.00,1.35
4152.00,1.35
4151.00,1.35
4150.00,1.35
4149.00,1.35
4148.00,1.35
4147.00,1.35
4146.00,1.35
4145.00,1.35
4144.00,1.35
4143.00,1.35
4142.00,1.35
4141.00,1.35
4140.00,1.35
4139.00,1.35
4138.00,1.35
4137.00,1.36
4136.00,1.36
4135.00,1.36
4134.00,1.36
4133.00,1.36
4132.00,1.36
4131.00,1.36
4130.00,1.36
4129.00,1.36
4128.00,1.36
4127.00,1.36
4126.00,1.36
4125.00,1.37
4124.00,1.37
4123.00,1.37
4122.00,1.37
4121.00,1.37
4120.00,1.37
4119.00,1.37
4118.00,1.37
4117.00,1.37
4116.00,1.37
4115.00,1.37
4114.00,1.37
4113.00,1.37
4112.00,1.37
4111.00,1.37
4110.00,1.37
4109.00,1.37
4108.00,1.37
4107.00,1.37
4106.00,1.37
4105.00,1.37
4104.00,1.37
4103.00,1.37
4102.00,1.37
4101.00,1.37
4100.00,1.37
4099.00,1.37
4098.00,1.37
4097.00,1.37
4096.00,1.37
4095.00,1.37
4094.00,1.37
4093.00,1.37
4092.00,1.37
4091.00,1.37
4090.00,1.37
4089.00,1.38
4088.00,1.38
4087.00,1.38
4086.00,1.38
4085.00,1.38
4084.00,1.38
4083.00,1.38
4082.00,1.38
4081.00,1.38
4080.00,1.38
4079.00,1.38
4078.00,1.38
4077.00,1.38
4076.00,1.38
4075.00,1.38
4074.00,1.38
4073.00,1.38
4072.00,1.38
4071.00,1.38
4070.00,1.38
4069.00,1.38
4068.00,1.38
4067.00,1.38
4066.00,1.38
4065.00,1.38
4064.00,1.38
4063.00,1.38
4062.00,1.38
4061.00,1.38
4060.00,1.38
4059.00,1.38
4058.00,1.38
4057.00,1.38
4056.00,1.38
4055.00,1.38
4054.00,1.38
4053.00,1.38
4052.00,1.38
4051.00,1.38
4050.00,1.38
4049.00,1.38
4048.00,1.38
4047.00,1.39
4046.00,1.39
4045.00,1.39
4044.00,1.39
4043.00,1.39
4042.00,1.39
4041.00,1.40
4040.00,1.40
4039.00,1.40
4038.00,1.40
4037.00,1.40
4036.00,1.41
4035.00,1.41
4034.00,1.41
4033.00,1.41
4032.00,1.41
4031.00,1.41
4030.00,1.41
4029.00,1.41
4028.00,1.41
4027.00,1.41
4026.00,1.41
4025.00,1.41
4024.00,1.41
4023.00,1.41
4022.00,1.41
4021.00,1.41
4020.00,1.41
4019.00,1.41
4018.00,1.41
4017.00,1.41
4016.00,1.41
4015.00,1.41
4014.00,1.41
4013.00,1.41
4012.00,1.41
4011.00,1.41
4010.00,1.41
4009.00,1.41
4008.00,1.41
4007.00,1.42
4006.00,1.42
4005.00,1.42
4004.00,1.42
4003.00,1.42
4002.00,1.42
4001.00,1.42
4000.00,1.42
