创建为新数据集,样品 079 用户 Administrator 日期 星期六, 七月 21 2018
cm-1,%T
10000.00,1.27
9999.00,1.27
9998.00,1.27
9997.00,1.27
9996.00,1.27
9995.00,1.27
9994.00,1.27
9993.00,1.27
9992.00,1.27
9991.00,1.27
9990.00,1.27
9989.00,1.27
9988.00,1.26
9987.00,1.26
9986.00,1.26
9985.00,1.26
9984.00,1.25
9983.00,1.25
9982.00,1.25
9981.00,1.25
9980.00,1.24
9979.00,1.24
9978.00,1.24
9977.00,1.24
9976.00,1.24
9975.00,1.23
9974.00,1.23
9973.00,1.23
9972.00,1.23
9971.00,1.22
9970.00,1.22
9969.00,1.22
9968.00,1.22
9967.00,1.22
9966.00,1.22
9965.00,1.21
9964.00,1.21
9963.00,1.21
9962.00,1.21
9961.00,1.21
9960.00,1.21
9959.00,1.21
9958.00,1.22
9957.00,1.22
9956.00,1.22
9955.00,1.22
9954.00,1.23
9953.00,1.23
9952.00,1.23
9951.00,1.24
9950.00,1.24
9949.00,1.24
9948.00,1.24
9947.00,1.24
9946.00,1.25
9945.00,1.25
9944.00,1.25
9943.00,1.25
9942.00,1.25
9941.00,1.25
9940.00,1.25
9939.00,1.25
9938.00,1.25
9937.00,1.25
9936.00,1.25
9935.00,1.25
9934.00,1.25
9933.00,1.25
9932.00,1.25
9931.00,1.25
9930.00,1.25
9929.00,1.25
9928.00,1.25
9927.00,1.25
9926.00,1.25
9925.00,1.25
9924.00,1.25
9923.00,1.25
9922.00,1.24
9921.00,1.24
9920.00,1.24
9919.00,1.23
9918.00,1.23
9917.00,1.23
9916.00,1.22
9915.00,1.22
9914.00,1.22
9913.00,1.21
9912.00,1.21
9911.00,1.21
9910.00,1.21
9909.00,1.21
9908.00,1.21
9907.00,1.22
9906.00,1.22
9905.00,1.22
9904.00,1.22
9903.00,1.23
9902.00,1.23
9901.00,1.24
9900.00,1.24
9899.00,1.24
9898.00,1.25
9897.00,1.25
9896.00,1.25
9895.00,1.26
9894.00,1.26
9893.00,1.26
9892.00,1.26
9891.00,1.27
9890.00,1.27
9889.00,1.27
9888.00,1.27
9887.00,1.27
9886.00,1.27
9885.00,1.27
9884.00,1.27
9883.00,1.27
9882.00,1.27
9881.00,1.27
9880.00,1.27
9879.00,1.26
9878.00,1.26
9877.00,1.26
9876.00,1.26
9875.00,1.25
9874.00,1.25
9873.00,1.24
9872.00,1.24
9871.00,1.24
9870.00,1.24
9869.00,1.23
9868.00,1.23
9867.00,1.23
9866.00,1.23
9865.00,1.23
9864.00,1.23
9863.00,1.23
9862.00,1.23
9861.00,1.23
9860.00,1.23
9859.00,1.23
9858.00,1.23
9857.00,1.23
9856.00,1.23
9855.00,1.23
9854.00,1.23
9853.00,1.23
9852.00,1.23
9851.00,1.23
9850.00,1.23
9849.00,1.23
9848.00,1.23
9847.00,1.23
9846.00,1.22
9845.00,1.22
9844.00,1.22
9843.00,1.22
9842.00,1.22
9841.00,1.22
9840.00,1.22
9839.00,1.21
9838.00,1.21
9837.00,1.21
9836.00,1.21
9835.00,1.21
9834.00,1.21
9833.00,1.21
9832.00,1.21
9831.00,1.21
9830.00,1.21
9829.00,1.21
9828.00,1.21
9827.00,1.21
9826.00,1.21
9825.00,1.21
9824.00,1.21
9823.00,1.21
9822.00,1.21
9821.00,1.22
9820.00,1.22
9819.00,1.22
9818.00,1.22
9817.00,1.22
9816.00,1.22
9815.00,1.23
9814.00,1.23
9813.00,1.23
9812.00,1.23
9811.00,1.23
9810.00,1.23
9809.00,1.23
9808.00,1.23
9807.00,1.23
9806.00,1.23
9805.00,1.23
9804.00,1.23
9803.00,1.23
9802.00,1.23
9801.00,1.23
9800.00,1.23
9799.00,1.23
9798.00,1.23
9797.00,1.24
9796.00,1.24
9795.00,1.24
9794.00,1.24
9793.00,1.24
9792.00,1.25
9791.00,1.25
9790.00,1.25
9789.00,1.25
9788.00,1.25
9787.00,1.25
9786.00,1.25
9785.00,1.25
9784.00,1.25
9783.00,1.25
9782.00,1.25
9781.00,1.26
9780.00,1.26
9779.00,1.26
9778.00,1.26
9777.00,1.26
9776.00,1.26
9775.00,1.26
9774.00,1.26
9773.00,1.26
9772.00,1.26
9771.00,1.26
9770.00,1.26
9769.00,1.26
9768.00,1.26
9767.00,1.26
9766.00,1.26
9765.00,1.26
9764.00,1.26
9763.00,1.26
9762.00,1.26
9761.00,1.26
9760.00,1.26
9759.00,1.26
9758.00,1.25
9757.00,1.25
9756.00,1.25
9755.00,1.25
9754.00,1.25
9753.00,1.24
9752.00,1.24
9751.00,1.24
9750.00,1.24
9749.00,1.24
9748.00,1.24
9747.00,1.24
9746.00,1.24
9745.00,1.24
9744.00,1.24
9743.00,1.24
9742.00,1.24
9741.00,1.24
9740.00,1.25
9739.00,1.25
9738.00,1.25
9737.00,1.25
9736.00,1.25
9735.00,1.26
9734.00,1.26
9733.00,1.26
9732.00,1.26
9731.00,1.26
9730.00,1.26
9729.00,1.26
9728.00,1.26
9727.00,1.26
9726.00,1.25
9725.00,1.25
9724.00,1.25
9723.00,1.25
9722.00,1.25
9721.00,1.25
9720.00,1.25
9719.00,1.25
9718.00,1.25
9717.00,1.25
9716.00,1.25
9715.00,1.25
9714.00,1.25
9713.00,1.25
9712.00,1.25
9711.00,1.25
9710.00,1.25
9709.00,1.25
9708.00,1.25
9707.00,1.25
9706.00,1.25
9705.00,1.25
9704.00,1.25
9703.00,1.25
9702.00,1.26
9701.00,1.26
9700.00,1.26
9699.00,1.26
9698.00,1.26
9697.00,1.26
9696.00,1.26
9695.00,1.26
9694.00,1.26
9693.00,1.26
9692.00,1.26
9691.00,1.26
9690.00,1.26
9689.00,1.26
9688.00,1.25
9687.00,1.25
9686.00,1.25
9685.00,1.25
9684.00,1.25
9683.00,1.25
9682.00,1.25
9681.00,1.25
9680.00,1.24
9679.00,1.24
9678.00,1.24
9677.00,1.24
9676.00,1.24
9675.00,1.23
9674.00,1.23
9673.00,1.23
9672.00,1.23
9671.00,1.22
9670.00,1.22
9669.00,1.22
9668.00,1.22
9667.00,1.22
9666.00,1.22
9665.00,1.22
9664.00,1.22
9663.00,1.22
9662.00,1.22
9661.00,1.22
9660.00,1.23
9659.00,1.23
9658.00,1.23
9657.00,1.24
9656.00,1.24
9655.00,1.24
9654.00,1.25
9653.00,1.25
9652.00,1.25
9651.00,1.25
9650.00,1.25
9649.00,1.26
9648.00,1.26
9647.00,1.26
9646.00,1.26
9645.00,1.26
9644.00,1.26
9643.00,1.26
9642.00,1.26
9641.00,1.26
9640.00,1.26
9639.00,1.27
9638.00,1.27
9637.00,1.27
9636.00,1.27
9635.00,1.27
9634.00,1.27
9633.00,1.27
9632.00,1.26
9631.00,1.26
9630.00,1.26
9629.00,1.26
9628.00,1.26
9627.00,1.25
9626.00,1.25
9625.00,1.25
9624.00,1.25
9623.00,1.25
9622.00,1.25
9621.00,1.24
9620.00,1.24
9619.00,1.24
9618.00,1.24
9617.00,1.25
9616.00,1.25
9615.00,1.25
9614.00,1.25
9613.00,1.25
9612.00,1.25
9611.00,1.25
9610.00,1.26
9609.00,1.26
9608.00,1.26
9607.00,1.26
9606.00,1.26
9605.00,1.26
9604.00,1.26
9603.00,1.26
9602.00,1.26
9601.00,1.26
9600.00,1.26
9599.00,1.25
9598.00,1.25
9597.00,1.25
9596.00,1.25
9595.00,1.25
9594.00,1.25
9593.00,1.25
9592.00,1.25
9591.00,1.25
9590.00,1.25
9589.00,1.25
9588.00,1.25
9587.00,1.25
9586.00,1.25
9585.00,1.25
9584.00,1.25
9583.00,1.25
9582.00,1.25
9581.00,1.25
9580.00,1.25
9579.00,1.25
9578.00,1.25
9577.00,1.25
9576.00,1.25
9575.00,1.25
9574.00,1.25
9573.00,1.25
9572.00,1.25
9571.00,1.25
9570.00,1.25
9569.00,1.25
9568.00,1.25
9567.00,1.25
9566.00,1.26
9565.00,1.26
9564.00,1.26
9563.00,1.26
9562.00,1.26
9561.00,1.26
9560.00,1.26
9559.00,1.26
9558.00,1.26
9557.00,1.26
9556.00,1.26
9555.00,1.26
9554.00,1.26
9553.00,1.26
9552.00,1.26
9551.00,1.26
9550.00,1.26
9549.00,1.26
9548.00,1.26
9547.00,1.25
9546.00,1.25
9545.00,1.25
9544.00,1.25
9543.00,1.25
9542.00,1.25
9541.00,1.24
9540.00,1.24
9539.00,1.24
9538.00,1.24
9537.00,1.24
9536.00,1.24
9535.00,1.24
9534.00,1.24
9533.00,1.24
9532.00,1.24
9531.00,1.24
9530.00,1.24
9529.00,1.24
9528.00,1.24
9527.00,1.24
9526.00,1.24
9525.00,1.24
9524.00,1.24
9523.00,1.24
9522.00,1.25
9521.00,1.25
9520.00,1.25
9519.00,1.25
9518.00,1.26
9517.00,1.26
9516.00,1.26
9515.00,1.26
9514.00,1.26
9513.00,1.26
9512.00,1.26
9511.00,1.26
9510.00,1.26
9509.00,1.26
9508.00,1.26
9507.00,1.26
9506.00,1.26
9505.00,1.26
9504.00,1.26
9503.00,1.26
9502.00,1.26
9501.00,1.26
9500.00,1.26
9499.00,1.26
9498.00,1.26
9497.00,1.26
9496.00,1.26
9495.00,1.26
9494.00,1.26
9493.00,1.26
9492.00,1.26
9491.00,1.26
9490.00,1.27
9489.00,1.27
9488.00,1.27
9487.00,1.27
9486.00,1.27
9485.00,1.27
9484.00,1.26
9483.00,1.26
9482.00,1.26
9481.00,1.26
9480.00,1.26
9479.00,1.25
9478.00,1.25
9477.00,1.25
9476.00,1.24
9475.00,1.24
9474.00,1.24
9473.00,1.23
9472.00,1.23
9471.00,1.22
9470.00,1.22
9469.00,1.22
9468.00,1.21
9467.00,1.21
9466.00,1.21
9465.00,1.21
9464.00,1.21
9463.00,1.21
9462.00,1.21
9461.00,1.21
9460.00,1.22
9459.00,1.22
9458.00,1.22
9457.00,1.23
9456.00,1.23
9455.00,1.23
9454.00,1.24
9453.00,1.24
9452.00,1.24
9451.00,1.25
9450.00,1.25
9449.00,1.25
9448.00,1.25
9447.00,1.25
9446.00,1.25
9445.00,1.25
9444.00,1.25
9443.00,1.25
9442.00,1.25
9441.00,1.25
9440.00,1.24
9439.00,1.24
9438.00,1.24
9437.00,1.24
9436.00,1.24
9435.00,1.23
9434.00,1.23
9433.00,1.23
9432.00,1.23
9431.00,1.23
9430.00,1.23
9429.00,1.23
9428.00,1.23
9427.00,1.23
9426.00,1.23
9425.00,1.23
9424.00,1.24
9423.00,1.24
9422.00,1.24
9421.00,1.24
9420.00,1.25
9419.00,1.25
9418.00,1.25
9417.00,1.26
9416.00,1.26
9415.00,1.26
9414.00,1.26
9413.00,1.27
9412.00,1.27
9411.00,1.27
9410.00,1.27
9409.00,1.27
9408.00,1.27
9407.00,1.27
9406.00,1.27
9405.00,1.27
9404.00,1.27
9403.00,1.27
9402.00,1.27
9401.00,1.27
9400.00,1.27
9399.00,1.27
9398.00,1.27
9397.00,1.27
9396.00,1.27
9395.00,1.27
9394.00,1.27
9393.00,1.27
9392.00,1.27
9391.00,1.27
9390.00,1.27
9389.00,1.27
9388.00,1.27
9387.00,1.27
9386.00,1.27
9385.00,1.27
9384.00,1.27
9383.00,1.27
9382.00,1.27
9381.00,1.27
9380.00,1.27
9379.00,1.27
9378.00,1.27
9377.00,1.26
9376.00,1.26
9375.00,1.26
9374.00,1.26
9373.00,1.26
9372.00,1.26
9371.00,1.26
9370.00,1.26
9369.00,1.26
9368.00,1.25
9367.00,1.25
9366.00,1.25
9365.00,1.25
9364.00,1.25
9363.00,1.25
9362.00,1.25
9361.00,1.25
9360.00,1.25
9359.00,1.25
9358.00,1.24
9357.00,1.24
9356.00,1.24
9355.00,1.24
9354.00,1.24
9353.00,1.24
9352.00,1.24
9351.00,1.24
9350.00,1.24
9349.00,1.24
9348.00,1.24
9347.00,1.24
9346.00,1.24
9345.00,1.24
9344.00,1.24
9343.00,1.24
9342.00,1.24
9341.00,1.24
9340.00,1.24
9339.00,1.24
9338.00,1.24
9337.00,1.24
9336.00,1.24
9335.00,1.24
9334.00,1.24
9333.00,1.24
9332.00,1.25
9331.00,1.25
9330.00,1.25
9329.00,1.25
9328.00,1.25
9327.00,1.25
9326.00,1.25
9325.00,1.25
9324.00,1.25
9323.00,1.25
9322.00,1.26
9321.00,1.26
9320.00,1.26
9319.00,1.26
9318.00,1.26
9317.00,1.26
9316.00,1.26
9315.00,1.26
9314.00,1.26
9313.00,1.26
9312.00,1.26
9311.00,1.26
9310.00,1.26
9309.00,1.26
9308.00,1.26
9307.00,1.26
9306.00,1.25
9305.00,1.25
9304.00,1.25
9303.00,1.25
9302.00,1.25
9301.00,1.25
9300.00,1.25
9299.00,1.25
9298.00,1.25
9297.00,1.25
9296.00,1.25
9295.00,1.25
9294.00,1.25
9293.00,1.25
9292.00,1.25
9291.00,1.25
9290.00,1.25
9289.00,1.25
9288.00,1.25
9287.00,1.25
9286.00,1.25
9285.00,1.25
9284.00,1.25
9283.00,1.25
9282.00,1.25
9281.00,1.25
9280.00,1.25
9279.00,1.25
9278.00,1.26
9277.00,1.26
9276.00,1.26
9275.00,1.26
9274.00,1.26
9273.00,1.26
9272.00,1.26
9271.00,1.26
9270.00,1.26
9269.00,1.26
9268.00,1.26
9267.00,1.27
9266.00,1.27
9265.00,1.27
9264.00,1.27
9263.00,1.27
9262.00,1.27
9261.00,1.27
9260.00,1.27
9259.00,1.27
9258.00,1.27
9257.00,1.27
9256.00,1.27
9255.00,1.27
9254.00,1.27
9253.00,1.27
9252.00,1.27
9251.00,1.27
9250.00,1.27
9249.00,1.27
9248.00,1.27
9247.00,1.27
9246.00,1.27
9245.00,1.27
9244.00,1.26
9243.00,1.26
9242.00,1.26
9241.00,1.26
9240.00,1.26
9239.00,1.26
9238.00,1.26
9237.00,1.26
9236.00,1.26
9235.00,1.26
9234.00,1.26
9233.00,1.26
9232.00,1.26
9231.00,1.26
9230.00,1.27
9229.00,1.27
9228.00,1.27
9227.00,1.27
9226.00,1.27
9225.00,1.27
9224.00,1.27
9223.00,1.27
9222.00,1.27
9221.00,1.27
9220.00,1.27
9219.00,1.27
9218.00,1.27
9217.00,1.27
9216.00,1.27
9215.00,1.27
9214.00,1.27
9213.00,1.27
9212.00,1.27
9211.00,1.27
9210.00,1.27
9209.00,1.27
9208.00,1.26
9207.00,1.26
9206.00,1.26
9205.00,1.26
9204.00,1.26
9203.00,1.26
9202.00,1.26
9201.00,1.26
9200.00,1.26
9199.00,1.26
9198.00,1.26
9197.00,1.26
9196.00,1.26
9195.00,1.26
9194.00,1.26
9193.00,1.25
9192.00,1.25
9191.00,1.25
9190.00,1.25
9189.00,1.25
9188.00,1.25
9187.00,1.25
9186.00,1.25
9185.00,1.25
9184.00,1.25
9183.00,1.24
9182.00,1.24
9181.00,1.24
9180.00,1.24
9179.00,1.24
9178.00,1.24
9177.00,1.24
9176.00,1.24
9175.00,1.24
9174.00,1.24
9173.00,1.24
9172.00,1.24
9171.00,1.24
9170.00,1.24
9169.00,1.24
9168.00,1.24
9167.00,1.24
9166.00,1.25
9165.00,1.25
9164.00,1.25
9163.00,1.25
9162.00,1.25
9161.00,1.25
9160.00,1.25
9159.00,1.26
9158.00,1.26
9157.00,1.26
9156.00,1.26
9155.00,1.26
9154.00,1.26
9153.00,1.26
9152.00,1.26
9151.00,1.26
9150.00,1.26
9149.00,1.26
9148.00,1.26
9147.00,1.26
9146.00,1.26
9145.00,1.26
9144.00,1.26
9143.00,1.26
9142.00,1.26
9141.00,1.26
9140.00,1.26
9139.00,1.26
9138.00,1.26
9137.00,1.26
9136.00,1.26
9135.00,1.26
9134.00,1.26
9133.00,1.26
9132.00,1.26
9131.00,1.26
9130.00,1.26
9129.00,1.26
9128.00,1.26
9127.00,1.25
9126.00,1.25
9125.00,1.25
9124.00,1.25
9123.00,1.25
9122.00,1.25
9121.00,1.25
9120.00,1.25
9119.00,1.25
9118.00,1.25
9117.00,1.24
9116.00,1.24
9115.00,1.24
9114.00,1.24
9113.00,1.24
9112.00,1.24
9111.00,1.24
9110.00,1.24
9109.00,1.24
9108.00,1.24
9107.00,1.24
9106.00,1.24
9105.00,1.24
9104.00,1.24
9103.00,1.24
9102.00,1.24
9101.00,1.24
9100.00,1.25
9099.00,1.25
9098.00,1.25
9097.00,1.25
9096.00,1.25
9095.00,1.25
9094.00,1.25
9093.00,1.25
9092.00,1.25
9091.00,1.25
9090.00,1.25
9089.00,1.25
9088.00,1.25
9087.00,1.25
9086.00,1.25
9085.00,1.25
9084.00,1.25
9083.00,1.25
9082.00,1.25
9081.00,1.25
9080.00,1.26
9079.00,1.26
9078.00,1.26
9077.00,1.26
9076.00,1.26
9075.00,1.26
9074.00,1.26
9073.00,1.27
9072.00,1.27
9071.00,1.27
9070.00,1.27
9069.00,1.27
9068.00,1.27
9067.00,1.27
9066.00,1.27
9065.00,1.26
9064.00,1.26
9063.00,1.26
9062.00,1.26
9061.00,1.26
9060.00,1.26
9059.00,1.25
9058.00,1.25
9057.00,1.25
9056.00,1.25
9055.00,1.25
9054.00,1.24
9053.00,1.24
9052.00,1.24
9051.00,1.24
9050.00,1.24
9049.00,1.24
9048.00,1.24
9047.00,1.24
9046.00,1.24
9045.00,1.24
9044.00,1.24
9043.00,1.24
9042.00,1.24
9041.00,1.24
9040.00,1.24
9039.00,1.24
9038.00,1.24
9037.00,1.24
9036.00,1.24
9035.00,1.24
9034.00,1.24
9033.00,1.24
9032.00,1.25
9031.00,1.25
9030.00,1.25
9029.00,1.25
9028.00,1.25
9027.00,1.26
9026.00,1.26
9025.00,1.26
9024.00,1.26
9023.00,1.26
9022.00,1.26
9021.00,1.26
9020.00,1.26
9019.00,1.26
9018.00,1.26
9017.00,1.26
9016.00,1.26
9015.00,1.26
9014.00,1.26
9013.00,1.26
9012.00,1.26
9011.00,1.26
9010.00,1.26
9009.00,1.26
9008.00,1.26
9007.00,1.26
9006.00,1.26
9005.00,1.26
9004.00,1.26
9003.00,1.26
9002.00,1.26
9001.00,1.26
9000.00,1.26
8999.00,1.26
8998.00,1.26
8997.00,1.26
8996.00,1.26
8995.00,1.27
8994.00,1.27
8993.00,1.27
8992.00,1.27
8991.00,1.27
8990.00,1.27
8989.00,1.27
8988.00,1.27
8987.00,1.27
8986.00,1.27
8985.00,1.27
8984.00,1.27
8983.00,1.27
8982.00,1.27
8981.00,1.26
8980.00,1.26
8979.00,1.26
8978.00,1.26
8977.00,1.25
8976.00,1.25
8975.00,1.25
8974.00,1.25
8973.00,1.24
8972.00,1.24
8971.00,1.24
8970.00,1.24
8969.00,1.24
8968.00,1.24
8967.00,1.24
8966.00,1.24
8965.00,1.24
8964.00,1.24
8963.00,1.24
8962.00,1.25
8961.00,1.25
8960.00,1.25
8959.00,1.25
8958.00,1.25
8957.00,1.26
8956.00,1.26
8955.00,1.26
8954.00,1.26
8953.00,1.26
8952.00,1.26
8951.00,1.26
8950.00,1.25
8949.00,1.25
8948.00,1.25
8947.00,1.25
8946.00,1.25
8945.00,1.24
8944.00,1.24
8943.00,1.24
8942.00,1.24
8941.00,1.23
8940.00,1.23
8939.00,1.23
8938.00,1.23
8937.00,1.23
8936.00,1.23
8935.00,1.23
8934.00,1.23
8933.00,1.23
8932.00,1.23
8931.00,1.23
8930.00,1.23
8929.00,1.23
8928.00,1.23
8927.00,1.23
8926.00,1.23
8925.00,1.24
8924.00,1.24
8923.00,1.24
8922.00,1.24
8921.00,1.24
8920.00,1.24
8919.00,1.24
8918.00,1.25
8917.00,1.25
8916.00,1.25
8915.00,1.25
8914.00,1.25
8913.00,1.25
8912.00,1.25
8911.00,1.25
8910.00,1.25
8909.00,1.26
8908.00,1.26
8907.00,1.26
8906.00,1.26
8905.00,1.26
8904.00,1.26
8903.00,1.26
8902.00,1.27
8901.00,1.27
8900.00,1.27
8899.00,1.27
8898.00,1.27
8897.00,1.27
8896.00,1.27
8895.00,1.27
8894.00,1.27
8893.00,1.27
8892.00,1.27
8891.00,1.27
8890.00,1.26
8889.00,1.26
8888.00,1.26
8887.00,1.26
8886.00,1.26
8885.00,1.26
8884.00,1.26
8883.00,1.26
8882.00,1.26
8881.00,1.26
8880.00,1.26
8879.00,1.26
8878.00,1.26
8877.00,1.26
8876.00,1.26
8875.00,1.26
8874.00,1.26
8873.00,1.26
8872.00,1.26
8871.00,1.26
8870.00,1.26
8869.00,1.25
8868.00,1.25
8867.00,1.25
8866.00,1.25
8865.00,1.25
8864.00,1.25
8863.00,1.25
8862.00,1.25
8861.00,1.25
8860.00,1.24
8859.00,1.24
8858.00,1.24
8857.00,1.24
8856.00,1.24
8855.00,1.24
8854.00,1.24
8853.00,1.25
8852.00,1.25
8851.00,1.25
8850.00,1.25
8849.00,1.25
8848.00,1.25
8847.00,1.25
8846.00,1.25
8845.00,1.25
8844.00,1.25
8843.00,1.25
8842.00,1.25
8841.00,1.25
8840.00,1.25
8839.00,1.25
8838.00,1.25
8837.00,1.25
8836.00,1.25
8835.00,1.25
8834.00,1.25
8833.00,1.25
8832.00,1.25
8831.00,1.24
8830.00,1.24
8829.00,1.24
8828.00,1.24
8827.00,1.24
8826.00,1.24
8825.00,1.24
8824.00,1.24
8823.00,1.23
8822.00,1.23
8821.00,1.23
8820.00,1.23
8819.00,1.23
8818.00,1.23
8817.00,1.23
8816.00,1.23
8815.00,1.23
8814.00,1.22
8813.00,1.22
8812.00,1.22
8811.00,1.22
8810.00,1.22
8809.00,1.22
8808.00,1.22
8807.00,1.22
8806.00,1.22
8805.00,1.22
8804.00,1.22
8803.00,1.22
8802.00,1.22
8801.00,1.22
8800.00,1.22
8799.00,1.22
8798.00,1.22
8797.00,1.22
8796.00,1.22
8795.00,1.22
8794.00,1.22
8793.00,1.22
8792.00,1.22
8791.00,1.22
8790.00,1.22
8789.00,1.21
8788.00,1.21
8787.00,1.21
8786.00,1.21
8785.00,1.21
8784.00,1.21
8783.00,1.21
8782.00,1.21
8781.00,1.21
8780.00,1.21
8779.00,1.21
8778.00,1.21
8777.00,1.21
8776.00,1.21
8775.00,1.21
8774.00,1.21
8773.00,1.22
8772.00,1.22
8771.00,1.22
8770.00,1.22
8769.00,1.22
8768.00,1.22
8767.00,1.22
8766.00,1.22
8765.00,1.22
8764.00,1.22
8763.00,1.22
8762.00,1.22
8761.00,1.22
8760.00,1.22
8759.00,1.22
8758.00,1.22
8757.00,1.22
8756.00,1.21
8755.00,1.21
8754.00,1.21
8753.00,1.21
8752.00,1.21
8751.00,1.21
8750.00,1.21
8749.00,1.21
8748.00,1.21
8747.00,1.21
8746.00,1.21
8745.00,1.21
8744.00,1.21
8743.00,1.21
8742.00,1.21
8741.00,1.21
8740.00,1.21
8739.00,1.21
8738.00,1.21
8737.00,1.21
8736.00,1.21
8735.00,1.21
8734.00,1.21
8733.00,1.21
8732.00,1.21
8731.00,1.21
8730.00,1.21
8729.00,1.21
8728.00,1.21
8727.00,1.20
8726.00,1.20
8725.00,1.20
8724.00,1.20
8723.00,1.20
8722.00,1.20
8721.00,1.20
8720.00,1.20
8719.00,1.19
8718.00,1.19
8717.00,1.19
8716.00,1.19
8715.00,1.19
8714.00,1.19
8713.00,1.19
8712.00,1.18
8711.00,1.18
8710.00,1.18
8709.00,1.18
8708.00,1.18
8707.00,1.18
8706.00,1.18
8705.00,1.18
8704.00,1.18
8703.00,1.18
8702.00,1.18
8701.00,1.18
8700.00,1.18
8699.00,1.18
8698.00,1.18
8697.00,1.19
8696.00,1.19
8695.00,1.19
8694.00,1.19
8693.00,1.19
8692.00,1.19
8691.00,1.19
8690.00,1.19
8689.00,1.20
8688.00,1.20
8687.00,1.20
8686.00,1.20
8685.00,1.20
8684.00,1.20
8683.00,1.20
8682.00,1.20
8681.00,1.20
8680.00,1.20
8679.00,1.20
8678.00,1.20
8677.00,1.20
8676.00,1.20
8675.00,1.20
8674.00,1.20
8673.00,1.20
8672.00,1.19
8671.00,1.19
8670.00,1.19
8669.00,1.19
8668.00,1.19
8667.00,1.19
8666.00,1.19
8665.00,1.19
8664.00,1.18
8663.00,1.18
8662.00,1.18
8661.00,1.18
8660.00,1.18
8659.00,1.18
8658.00,1.18
8657.00,1.18
8656.00,1.18
8655.00,1.18
8654.00,1.18
8653.00,1.18
8652.00,1.18
8651.00,1.18
8650.00,1.18
8649.00,1.18
8648.00,1.18
8647.00,1.18
8646.00,1.18
8645.00,1.17
8644.00,1.17
8643.00,1.17
8642.00,1.17
8641.00,1.17
8640.00,1.17
8639.00,1.17
8638.00,1.17
8637.00,1.17
8636.00,1.17
8635.00,1.17
8634.00,1.17
8633.00,1.17
8632.00,1.17
8631.00,1.17
8630.00,1.17
8629.00,1.17
8628.00,1.17
8627.00,1.18
8626.00,1.18
8625.00,1.18
8624.00,1.18
8623.00,1.18
8622.00,1.18
8621.00,1.18
8620.00,1.18
8619.00,1.18
8618.00,1.18
8617.00,1.18
8616.00,1.18
8615.00,1.18
8614.00,1.18
8613.00,1.18
8612.00,1.18
8611.00,1.18
8610.00,1.18
8609.00,1.17
8608.00,1.17
8607.00,1.17
8606.00,1.17
8605.00,1.17
8604.00,1.17
8603.00,1.17
8602.00,1.17
8601.00,1.17
8600.00,1.16
8599.00,1.16
8598.00,1.16
8597.00,1.16
8596.00,1.16
8595.00,1.16
8594.00,1.16
8593.00,1.16
8592.00,1.16
8591.00,1.16
8590.00,1.16
8589.00,1.16
8588.00,1.16
8587.00,1.16
8586.00,1.16
8585.00,1.16
8584.00,1.16
8583.00,1.16
8582.00,1.16
8581.00,1.16
8580.00,1.16
8579.00,1.16
8578.00,1.16
8577.00,1.16
8576.00,1.17
8575.00,1.17
8574.00,1.17
8573.00,1.17
8572.00,1.17
8571.00,1.17
8570.00,1.16
8569.00,1.16
8568.00,1.16
8567.00,1.16
8566.00,1.16
8565.00,1.16
8564.00,1.16
8563.00,1.16
8562.00,1.16
8561.00,1.16
8560.00,1.16
8559.00,1.15
8558.00,1.15
8557.00,1.15
8556.00,1.15
8555.00,1.15
8554.00,1.15
8553.00,1.15
8552.00,1.14
8551.00,1.14
8550.00,1.14
8549.00,1.14
8548.00,1.14
8547.00,1.14
8546.00,1.14
8545.00,1.14
8544.00,1.14
8543.00,1.13
8542.00,1.13
8541.00,1.13
8540.00,1.13
8539.00,1.13
8538.00,1.13
8537.00,1.13
8536.00,1.13
8535.00,1.13
8534.00,1.13
8533.00,1.13
8532.00,1.13
8531.00,1.12
8530.00,1.12
8529.00,1.12
8528.00,1.12
8527.00,1.12
8526.00,1.12
8525.00,1.12
8524.00,1.12
8523.00,1.12
8522.00,1.12
8521.00,1.12
8520.00,1.12
8519.00,1.12
8518.00,1.12
8517.00,1.12
8516.00,1.12
8515.00,1.12
8514.00,1.12
8513.00,1.12
8512.00,1.13
8511.00,1.13
8510.00,1.13
8509.00,1.13
8508.00,1.13
8507.00,1.13
8506.00,1.13
8505.00,1.13
8504.00,1.13
8503.00,1.13
8502.00,1.13
8501.00,1.13
8500.00,1.13
8499.00,1.13
8498.00,1.13
8497.00,1.13
8496.00,1.13
8495.00,1.13
8494.00,1.13
8493.00,1.13
8492.00,1.12
8491.00,1.12
8490.00,1.12
8489.00,1.12
8488.00,1.12
8487.00,1.12
8486.00,1.12
8485.00,1.12
8484.00,1.12
8483.00,1.12
8482.00,1.12
8481.00,1.12
8480.00,1.11
8479.00,1.11
8478.00,1.11
8477.00,1.11
8476.00,1.11
8475.00,1.11
8474.00,1.10
8473.00,1.10
8472.00,1.10
8471.00,1.10
8470.00,1.10
8469.00,1.10
8468.00,1.10
8467.00,1.09
8466.00,1.09
8465.00,1.09
8464.00,1.09
8463.00,1.09
8462.00,1.09
8461.00,1.09
8460.00,1.09
8459.00,1.09
8458.00,1.08
8457.00,1.08
8456.00,1.08
8455.00,1.08
8454.00,1.08
8453.00,1.08
8452.00,1.08
8451.00,1.08
8450.00,1.08
8449.00,1.08
8448.00,1.08
8447.00,1.08
8446.00,1.08
8445.00,1.08
8444.00,1.08
8443.00,1.09
8442.00,1.09
8441.00,1.09
8440.00,1.09
8439.00,1.09
8438.00,1.09
8437.00,1.10
8436.00,1.10
8435.00,1.10
8434.00,1.10
8433.00,1.10
8432.00,1.10
8431.00,1.11
8430.00,1.11
8429.00,1.11
8428.00,1.11
8427.00,1.11
8426.00,1.11
8425.00,1.11
8424.00,1.11
8423.00,1.11
8422.00,1.11
8421.00,1.11
8420.00,1.11
8419.00,1.11
8418.00,1.11
8417.00,1.11
8416.00,1.11
8415.00,1.11
8414.00,1.11
8413.00,1.11
8412.00,1.11
8411.00,1.11
8410.00,1.12
8409.00,1.12
8408.00,1.12
8407.00,1.12
8406.00,1.12
8405.00,1.12
8404.00,1.12
8403.00,1.12
8402.00,1.12
8401.00,1.12
8400.00,1.12
8399.00,1.12
8398.00,1.12
8397.00,1.12
8396.00,1.12
8395.00,1.12
8394.00,1.12
8393.00,1.12
8392.00,1.12
8391.00,1.12
8390.00,1.12
8389.00,1.12
8388.00,1.12
8387.00,1.12
8386.00,1.12
8385.00,1.12
8384.00,1.12
8383.00,1.12
8382.00,1.12
8381.00,1.12
8380.00,1.12
8379.00,1.12
8378.00,1.12
8377.00,1.12
8376.00,1.12
8375.00,1.13
8374.00,1.13
8373.00,1.13
8372.00,1.13
8371.00,1.14
8370.00,1.14
8369.00,1.14
8368.00,1.14
8367.00,1.14
8366.00,1.15
8365.00,1.15
8364.00,1.15
8363.00,1.15
8362.00,1.15
8361.00,1.15
8360.00,1.15
8359.00,1.15
8358.00,1.15
8357.00,1.15
8356.00,1.15
8355.00,1.15
8354.00,1.15
8353.00,1.15
8352.00,1.14
8351.00,1.14
8350.00,1.14
8349.00,1.14
8348.00,1.14
8347.00,1.14
8346.00,1.14
8345.00,1.15
8344.00,1.15
8343.00,1.15
8342.00,1.15
8341.00,1.15
8340.00,1.15
8339.00,1.15
8338.00,1.15
8337.00,1.15
8336.00,1.15
8335.00,1.15
8334.00,1.15
8333.00,1.15
8332.00,1.15
8331.00,1.15
8330.00,1.15
8329.00,1.14
8328.00,1.14
8327.00,1.14
8326.00,1.14
8325.00,1.14
8324.00,1.14
8323.00,1.14
8322.00,1.14
8321.00,1.14
8320.00,1.14
8319.00,1.13
8318.00,1.13
8317.00,1.13
8316.00,1.13
8315.00,1.13
8314.00,1.13
8313.00,1.13
8312.00,1.13
8311.00,1.13
8310.00,1.13
8309.00,1.13
8308.00,1.13
8307.00,1.13
8306.00,1.13
8305.00,1.13
8304.00,1.13
8303.00,1.13
8302.00,1.13
8301.00,1.13
8300.00,1.13
8299.00,1.13
8298.00,1.13
8297.00,1.13
8296.00,1.13
8295.00,1.13
8294.00,1.13
8293.00,1.13
8292.00,1.13
8291.00,1.13
8290.00,1.13
8289.00,1.13
8288.00,1.14
8287.00,1.14
8286.00,1.14
8285.00,1.14
8284.00,1.14
8283.00,1.15
8282.00,1.15
8281.00,1.15
8280.00,1.15
8279.00,1.15
8278.00,1.16
8277.00,1.16
8276.00,1.16
8275.00,1.16
8274.00,1.16
8273.00,1.16
8272.00,1.16
8271.00,1.16
8270.00,1.16
8269.00,1.16
8268.00,1.16
8267.00,1.16
8266.00,1.16
8265.00,1.16
8264.00,1.16
8263.00,1.16
8262.00,1.16
8261.00,1.16
8260.00,1.15
8259.00,1.15
8258.00,1.15
8257.00,1.15
8256.00,1.15
8255.00,1.15
8254.00,1.15
8253.00,1.15
8252.00,1.16
8251.00,1.16
8250.00,1.16
8249.00,1.16
8248.00,1.16
8247.00,1.16
8246.00,1.16
8245.00,1.16
8244.00,1.16
8243.00,1.16
8242.00,1.16
8241.00,1.16
8240.00,1.16
8239.00,1.16
8238.00,1.16
8237.00,1.16
8236.00,1.16
8235.00,1.16
8234.00,1.16
8233.00,1.16
8232.00,1.16
8231.00,1.16
8230.00,1.16
8229.00,1.16
8228.00,1.16
8227.00,1.16
8226.00,1.16
8225.00,1.16
8224.00,1.15
8223.00,1.15
8222.00,1.16
8221.00,1.16
8220.00,1.16
8219.00,1.16
8218.00,1.16
8217.00,1.16
8216.00,1.16
8215.00,1.16
8214.00,1.16
8213.00,1.16
8212.00,1.16
8211.00,1.16
8210.00,1.16
8209.00,1.16
8208.00,1.16
8207.00,1.17
8206.00,1.17
8205.00,1.17
8204.00,1.17
8203.00,1.17
8202.00,1.17
8201.00,1.17
8200.00,1.17
8199.00,1.17
8198.00,1.17
8197.00,1.17
8196.00,1.17
8195.00,1.17
8194.00,1.17
8193.00,1.17
8192.00,1.17
8191.00,1.17
8190.00,1.17
8189.00,1.17
8188.00,1.17
8187.00,1.17
8186.00,1.17
8185.00,1.18
8184.00,1.18
8183.00,1.18
8182.00,1.18
8181.00,1.18
8180.00,1.18
8179.00,1.19
8178.00,1.19
8177.00,1.19
8176.00,1.19
8175.00,1.19
8174.00,1.19
8173.00,1.20
8172.00,1.20
8171.00,1.20
8170.00,1.20
8169.00,1.20
8168.00,1.20
8167.00,1.20
8166.00,1.20
8165.00,1.20
8164.00,1.19
8163.00,1.19
8162.00,1.19
8161.00,1.19
8160.00,1.19
8159.00,1.19
8158.00,1.19
8157.00,1.19
8156.00,1.19
8155.00,1.19
8154.00,1.19
8153.00,1.19
8152.00,1.19
8151.00,1.19
8150.00,1.19
8149.00,1.19
8148.00,1.19
8147.00,1.19
8146.00,1.19
8145.00,1.19
8144.00,1.19
8143.00,1.19
8142.00,1.20
8141.00,1.20
8140.00,1.20
8139.00,1.20
8138.00,1.20
8137.00,1.20
8136.00,1.20
8135.00,1.21
8134.00,1.21
8133.00,1.21
8132.00,1.21
8131.00,1.21
8130.00,1.21
8129.00,1.21
8128.00,1.21
8127.00,1.21
8126.00,1.21
8125.00,1.21
8124.00,1.21
8123.00,1.21
8122.00,1.21
8121.00,1.21
8120.00,1.21
8119.00,1.21
8118.00,1.21
8117.00,1.21
8116.00,1.21
8115.00,1.21
8114.00,1.21
8113.00,1.21
8112.00,1.21
8111.00,1.21
8110.00,1.21
8109.00,1.21
8108.00,1.21
8107.00,1.21
8106.00,1.21
8105.00,1.21
8104.00,1.21
8103.00,1.21
8102.00,1.21
8101.00,1.21
8100.00,1.21
8099.00,1.22
8098.00,1.22
8097.00,1.22
8096.00,1.22
8095.00,1.22
8094.00,1.22
8093.00,1.22
8092.00,1.22
8091.00,1.22
8090.00,1.22
8089.00,1.22
8088.00,1.22
8087.00,1.22
8086.00,1.22
8085.00,1.22
8084.00,1.22
8083.00,1.22
8082.00,1.22
8081.00,1.22
8080.00,1.22
8079.00,1.22
8078.00,1.22
8077.00,1.22
8076.00,1.22
8075.00,1.22
8074.00,1.22
8073.00,1.22
8072.00,1.22
8071.00,1.22
8070.00,1.22
8069.00,1.22
8068.00,1.22
8067.00,1.21
8066.00,1.21
8065.00,1.21
8064.00,1.21
8063.00,1.21
8062.00,1.21
8061.00,1.21
8060.00,1.21
8059.00,1.21
8058.00,1.21
8057.00,1.20
8056.00,1.20
8055.00,1.20
8054.00,1.20
8053.00,1.20
8052.00,1.20
8051.00,1.20
8050.00,1.20
8049.00,1.20
8048.00,1.20
8047.00,1.20
8046.00,1.20
8045.00,1.20
8044.00,1.20
8043.00,1.20
8042.00,1.20
8041.00,1.20
8040.00,1.21
8039.00,1.21
8038.00,1.21
8037.00,1.21
8036.00,1.21
8035.00,1.21
8034.00,1.21
8033.00,1.21
8032.00,1.22
8031.00,1.22
8030.00,1.22
8029.00,1.22
8028.00,1.22
8027.00,1.22
8026.00,1.22
8025.00,1.22
8024.00,1.22
8023.00,1.22
8022.00,1.22
8021.00,1.22
8020.00,1.22
8019.00,1.22
8018.00,1.22
8017.00,1.22
8016.00,1.22
8015.00,1.22
8014.00,1.22
8013.00,1.22
8012.00,1.22
8011.00,1.22
8010.00,1.22
8009.00,1.22
8008.00,1.22
8007.00,1.22
8006.00,1.22
8005.00,1.22
8004.00,1.22
8003.00,1.22
8002.00,1.22
8001.00,1.22
8000.00,1.22
7999.00,1.22
7998.00,1.22
7997.00,1.22
7996.00,1.22
7995.00,1.22
7994.00,1.22
7993.00,1.22
7992.00,1.22
7991.00,1.22
7990.00,1.22
7989.00,1.22
7988.00,1.22
7987.00,1.22
7986.00,1.22
7985.00,1.22
7984.00,1.22
7983.00,1.22
7982.00,1.22
7981.00,1.22
7980.00,1.22
7979.00,1.22
7978.00,1.22
7977.00,1.22
7976.00,1.22
7975.00,1.22
7974.00,1.22
7973.00,1.22
7972.00,1.22
7971.00,1.22
7970.00,1.22
7969.00,1.22
7968.00,1.22
7967.00,1.22
7966.00,1.22
7965.00,1.22
7964.00,1.22
7963.00,1.22
7962.00,1.22
7961.00,1.22
7960.00,1.22
7959.00,1.22
7958.00,1.22
7957.00,1.22
7956.00,1.22
7955.00,1.22
7954.00,1.22
7953.00,1.22
7952.00,1.22
7951.00,1.22
7950.00,1.22
7949.00,1.22
7948.00,1.22
7947.00,1.22
7946.00,1.22
7945.00,1.23
7944.00,1.23
7943.00,1.23
7942.00,1.23
7941.00,1.23
7940.00,1.23
7939.00,1.23
7938.00,1.23
7937.00,1.23
7936.00,1.24
7935.00,1.24
7934.00,1.24
7933.00,1.24
7932.00,1.24
7931.00,1.24
7930.00,1.24
7929.00,1.24
7928.00,1.24
7927.00,1.24
7926.00,1.24
7925.00,1.23
7924.00,1.23
7923.00,1.23
7922.00,1.23
7921.00,1.23
7920.00,1.23
7919.00,1.23
7918.00,1.23
7917.00,1.23
7916.00,1.23
7915.00,1.23
7914.00,1.23
7913.00,1.23
7912.00,1.23
7911.00,1.23
7910.00,1.23
7909.00,1.23
7908.00,1.23
7907.00,1.23
7906.00,1.23
7905.00,1.23
7904.00,1.24
7903.00,1.24
7902.00,1.24
7901.00,1.24
7900.00,1.24
7899.00,1.24
7898.00,1.24
7897.00,1.25
7896.00,1.25
7895.00,1.25
7894.00,1.25
7893.00,1.25
7892.00,1.26
7891.00,1.26
7890.00,1.26
7889.00,1.26
7888.00,1.26
7887.00,1.26
7886.00,1.26
7885.00,1.26
7884.00,1.26
7883.00,1.26
7882.00,1.26
7881.00,1.26
7880.00,1.26
7879.00,1.26
7878.00,1.26
7877.00,1.26
7876.00,1.26
7875.00,1.26
7874.00,1.26
7873.00,1.26
7872.00,1.26
7871.00,1.26
7870.00,1.25
7869.00,1.25
7868.00,1.25
7867.00,1.25
7866.00,1.25
7865.00,1.25
7864.00,1.25
7863.00,1.25
7862.00,1.25
7861.00,1.25
7860.00,1.25
7859.00,1.25
7858.00,1.25
7857.00,1.25
7856.00,1.25
7855.00,1.25
7854.00,1.25
7853.00,1.25
7852.00,1.25
7851.00,1.25
7850.00,1.25
7849.00,1.25
7848.00,1.25
7847.00,1.25
7846.00,1.25
7845.00,1.25
7844.00,1.25
7843.00,1.25
7842.00,1.25
7841.00,1.25
7840.00,1.25
7839.00,1.25
7838.00,1.25
7837.00,1.25
7836.00,1.25
7835.00,1.25
7834.00,1.25
7833.00,1.25
7832.00,1.25
7831.00,1.25
7830.00,1.26
7829.00,1.26
7828.00,1.26
7827.00,1.26
7826.00,1.26
7825.00,1.26
7824.00,1.26
7823.00,1.25
7822.00,1.25
7821.00,1.25
7820.00,1.25
7819.00,1.25
7818.00,1.25
7817.00,1.25
7816.00,1.25
7815.00,1.25
7814.00,1.25
7813.00,1.25
7812.00,1.25
7811.00,1.25
7810.00,1.25
7809.00,1.25
7808.00,1.25
7807.00,1.25
7806.00,1.25
7805.00,1.25
7804.00,1.25
7803.00,1.25
7802.00,1.25
7801.00,1.25
7800.00,1.25
7799.00,1.25
7798.00,1.25
7797.00,1.25
7796.00,1.25
7795.00,1.25
7794.00,1.25
7793.00,1.25
7792.00,1.25
7791.00,1.25
7790.00,1.25
7789.00,1.25
7788.00,1.26
7787.00,1.26
7786.00,1.26
7785.00,1.26
7784.00,1.26
7783.00,1.26
7782.00,1.26
7781.00,1.26
7780.00,1.26
7779.00,1.26
7778.00,1.26
7777.00,1.26
7776.00,1.27
7775.00,1.27
7774.00,1.27
7773.00,1.27
7772.00,1.27
7771.00,1.27
7770.00,1.27
7769.00,1.27
7768.00,1.27
7767.00,1.27
7766.00,1.27
7765.00,1.27
7764.00,1.27
7763.00,1.27
7762.00,1.27
7761.00,1.27
7760.00,1.27
7759.00,1.27
7758.00,1.27
7757.00,1.27
7756.00,1.27
7755.00,1.27
7754.00,1.27
7753.00,1.27
7752.00,1.27
7751.00,1.26
7750.00,1.26
7749.00,1.26
7748.00,1.26
7747.00,1.26
7746.00,1.26
7745.00,1.26
7744.00,1.26
7743.00,1.26
7742.00,1.26
7741.00,1.26
7740.00,1.26
7739.00,1.26
7738.00,1.26
7737.00,1.26
7736.00,1.26
7735.00,1.26
7734.00,1.26
7733.00,1.26
7732.00,1.26
7731.00,1.26
7730.00,1.26
7729.00,1.26
7728.00,1.26
7727.00,1.26
7726.00,1.26
7725.00,1.26
7724.00,1.26
7723.00,1.26
7722.00,1.26
7721.00,1.26
7720.00,1.26
7719.00,1.26
7718.00,1.26
7717.00,1.26
7716.00,1.26
7715.00,1.26
7714.00,1.26
7713.00,1.26
7712.00,1.26
7711.00,1.26
7710.00,1.26
7709.00,1.26
7708.00,1.26
7707.00,1.26
7706.00,1.26
7705.00,1.26
7704.00,1.26
7703.00,1.26
7702.00,1.26
7701.00,1.26
7700.00,1.26
7699.00,1.26
7698.00,1.26
7697.00,1.26
7696.00,1.26
7695.00,1.26
7694.00,1.26
7693.00,1.26
7692.00,1.26
7691.00,1.26
7690.00,1.26
7689.00,1.26
7688.00,1.26
7687.00,1.27
7686.00,1.27
7685.00,1.27
7684.00,1.27
7683.00,1.27
7682.00,1.27
7681.00,1.27
7680.00,1.27
7679.00,1.27
7678.00,1.27
7677.00,1.27
7676.00,1.27
7675.00,1.27
7674.00,1.27
7673.00,1.27
7672.00,1.27
7671.00,1.27
7670.00,1.27
7669.00,1.27
7668.00,1.27
7667.00,1.27
7666.00,1.27
7665.00,1.27
7664.00,1.27
7663.00,1.27
7662.00,1.27
7661.00,1.27
7660.00,1.27
7659.00,1.27
7658.00,1.27
7657.00,1.27
7656.00,1.27
7655.00,1.27
7654.00,1.27
7653.00,1.27
7652.00,1.27
7651.00,1.27
7650.00,1.27
7649.00,1.27
7648.00,1.27
7647.00,1.27
7646.00,1.27
7645.00,1.27
7644.00,1.27
7643.00,1.27
7642.00,1.27
7641.00,1.27
7640.00,1.27
7639.00,1.27
7638.00,1.27
7637.00,1.27
7636.00,1.26
7635.00,1.26
7634.00,1.26
7633.00,1.26
7632.00,1.26
7631.00,1.26
7630.00,1.26
7629.00,1.26
7628.00,1.26
7627.00,1.26
7626.00,1.26
7625.00,1.26
7624.00,1.26
7623.00,1.26
7622.00,1.26
7621.00,1.26
7620.00,1.26
7619.00,1.26
7618.00,1.26
7617.00,1.26
7616.00,1.26
7615.00,1.26
7614.00,1.26
7613.00,1.26
7612.00,1.26
7611.00,1.26
7610.00,1.26
7609.00,1.26
7608.00,1.26
7607.00,1.26
7606.00,1.26
7605.00,1.26
7604.00,1.26
7603.00,1.26
7602.00,1.26
7601.00,1.26
7600.00,1.26
7599.00,1.26
7598.00,1.26
7597.00,1.26
7596.00,1.26
7595.00,1.26
7594.00,1.26
7593.00,1.26
7592.00,1.27
7591.00,1.27
7590.00,1.27
7589.00,1.27
7588.00,1.27
7587.00,1.26
7586.00,1.26
7585.00,1.26
7584.00,1.26
7583.00,1.26
7582.00,1.26
7581.00,1.26
7580.00,1.26
7579.00,1.26
7578.00,1.26
7577.00,1.26
7576.00,1.26
7575.00,1.26
7574.00,1.25
7573.00,1.25
7572.00,1.25
7571.00,1.25
7570.00,1.25
7569.00,1.25
7568.00,1.25
7567.00,1.25
7566.00,1.25
7565.00,1.25
7564.00,1.25
7563.00,1.25
7562.00,1.25
7561.00,1.25
7560.00,1.25
7559.00,1.25
7558.00,1.25
7557.00,1.25
7556.00,1.25
7555.00,1.25
7554.00,1.25
7553.00,1.25
7552.00,1.25
7551.00,1.25
7550.00,1.25
7549.00,1.25
7548.00,1.24
7547.00,1.24
7546.00,1.24
7545.00,1.24
7544.00,1.24
7543.00,1.24
7542.00,1.24
7541.00,1.24
7540.00,1.24
7539.00,1.24
7538.00,1.24
7537.00,1.24
7536.00,1.24
7535.00,1.24
7534.00,1.24
7533.00,1.24
7532.00,1.24
7531.00,1.24
7530.00,1.24
7529.00,1.24
7528.00,1.24
7527.00,1.24
7526.00,1.24
7525.00,1.24
7524.00,1.24
7523.00,1.24
7522.00,1.24
7521.00,1.23
7520.00,1.23
7519.00,1.23
7518.00,1.23
7517.00,1.23
7516.00,1.23
7515.00,1.23
7514.00,1.23
7513.00,1.23
7512.00,1.22
7511.00,1.22
7510.00,1.22
7509.00,1.22
7508.00,1.22
7507.00,1.22
7506.00,1.22
7505.00,1.22
7504.00,1.22
7503.00,1.23
7502.00,1.23
7501.00,1.23
7500.00,1.23
7499.00,1.23
7498.00,1.23
7497.00,1.23
7496.00,1.23
7495.00,1.23
7494.00,1.23
7493.00,1.23
7492.00,1.22
7491.00,1.22
7490.00,1.22
7489.00,1.22
7488.00,1.22
7487.00,1.22
7486.00,1.22
7485.00,1.22
7484.00,1.22
7483.00,1.22
7482.00,1.22
7481.00,1.22
7480.00,1.22
7479.00,1.22
7478.00,1.21
7477.00,1.21
7476.00,1.21
7475.00,1.21
7474.00,1.21
7473.00,1.21
7472.00,1.21
7471.00,1.21
7470.00,1.21
7469.00,1.21
7468.00,1.21
7467.00,1.21
7466.00,1.21
7465.00,1.21
7464.00,1.21
7463.00,1.20
7462.00,1.20
7461.00,1.20
7460.00,1.20
7459.00,1.20
7458.00,1.20
7457.00,1.20
7456.00,1.20
7455.00,1.20
7454.00,1.20
7453.00,1.20
7452.00,1.20
7451.00,1.20
7450.00,1.20
7449.00,1.20
7448.00,1.19
7447.00,1.19
7446.00,1.19
7445.00,1.19
7444.00,1.19
7443.00,1.19
7442.00,1.19
7441.00,1.19
7440.00,1.19
7439.00,1.19
7438.00,1.19
7437.00,1.19
7436.00,1.19
7435.00,1.18
7434.00,1.18
7433.00,1.18
7432.00,1.18
7431.00,1.18
7430.00,1.18
7429.00,1.18
7428.00,1.17
7427.00,1.17
7426.00,1.17
7425.00,1.17
7424.00,1.17
7423.00,1.17
7422.00,1.17
7421.00,1.17
7420.00,1.17
7419.00,1.17
7418.00,1.17
7417.00,1.17
7416.00,1.16
7415.00,1.16
7414.00,1.16
7413.00,1.16
7412.00,1.16
7411.00,1.16
7410.00,1.16
7409.00,1.16
7408.00,1.16
7407.00,1.16
7406.00,1.16
7405.00,1.16
7404.00,1.16
7403.00,1.16
7402.00,1.16
7401.00,1.16
7400.00,1.16
7399.00,1.15
7398.00,1.15
7397.00,1.15
7396.00,1.15
7395.00,1.15
7394.00,1.15
7393.00,1.15
7392.00,1.15
7391.00,1.15
7390.00,1.15
7389.00,1.15
7388.00,1.15
7387.00,1.15
7386.00,1.15
7385.00,1.15
7384.00,1.14
7383.00,1.14
7382.00,1.14
7381.00,1.14
7380.00,1.14
7379.00,1.14
7378.00,1.14
7377.00,1.13
7376.00,1.13
7375.00,1.13
7374.00,1.13
7373.00,1.13
7372.00,1.13
7371.00,1.13
7370.00,1.13
7369.00,1.13
7368.00,1.12
7367.00,1.12
7366.00,1.12
7365.00,1.12
7364.00,1.12
7363.00,1.12
7362.00,1.12
7361.00,1.12
7360.00,1.12
7359.00,1.12
7358.00,1.12
7357.00,1.12
7356.00,1.12
7355.00,1.13
7354.00,1.13
7353.00,1.13
7352.00,1.13
7351.00,1.13
7350.00,1.13
7349.00,1.13
7348.00,1.13
7347.00,1.13
7346.00,1.13
7345.00,1.13
7344.00,1.13
7343.00,1.13
7342.00,1.13
7341.00,1.13
7340.00,1.13
7339.00,1.13
7338.00,1.13
7337.00,1.13
7336.00,1.13
7335.00,1.13
7334.00,1.13
7333.00,1.12
7332.00,1.12
7331.00,1.12
7330.00,1.12
7329.00,1.12
7328.00,1.12
7327.00,1.12
7326.00,1.12
7325.00,1.12
7324.00,1.12
7323.00,1.12
7322.00,1.12
7321.00,1.12
7320.00,1.12
7319.00,1.12
7318.00,1.12
7317.00,1.12
7316.00,1.12
7315.00,1.12
7314.00,1.12
7313.00,1.12
7312.00,1.12
7311.00,1.12
7310.00,1.12
7309.00,1.12
7308.00,1.12
7307.00,1.11
7306.00,1.11
7305.00,1.11
7304.00,1.11
7303.00,1.11
7302.00,1.11
7301.00,1.11
7300.00,1.11
7299.00,1.11
7298.00,1.11
7297.00,1.11
7296.00,1.10
7295.00,1.10
7294.00,1.10
7293.00,1.10
7292.00,1.10
7291.00,1.10
7290.00,1.10
7289.00,1.10
7288.00,1.10
7287.00,1.10
7286.00,1.10
7285.00,1.09
7284.00,1.09
7283.00,1.09
7282.00,1.09
7281.00,1.09
7280.00,1.09
7279.00,1.09
7278.00,1.08
7277.00,1.08
7276.00,1.08
7275.00,1.08
7274.00,1.08
7273.00,1.08
7272.00,1.07
7271.00,1.07
7270.00,1.07
7269.00,1.07
7268.00,1.06
7267.00,1.06
7266.00,1.06
7265.00,1.06
7264.00,1.06
7263.00,1.06
7262.00,1.05
7261.00,1.05
7260.00,1.05
7259.00,1.05
7258.00,1.05
7257.00,1.05
7256.00,1.05
7255.00,1.04
7254.00,1.04
7253.00,1.04
7252.00,1.04
7251.00,1.04
7250.00,1.03
7249.00,1.03
7248.00,1.03
7247.00,1.03
7246.00,1.02
7245.00,1.02
7244.00,1.02
7243.00,1.01
7242.00,1.01
7241.00,1.01
7240.00,1.00
7239.00,1.00
7238.00,1.00
7237.00,1.00
7236.00,0.99
7235.00,0.99
7234.00,0.98
7233.00,0.98
7232.00,0.98
7231.00,0.97
7230.00,0.97
7229.00,0.97
7228.00,0.96
7227.00,0.96
7226.00,0.95
7225.00,0.95
7224.00,0.95
7223.00,0.94
7222.00,0.94
7221.00,0.93
7220.00,0.93
7219.00,0.92
7218.00,0.92
7217.00,0.91
7216.00,0.91
7215.00,0.90
7214.00,0.90
7213.00,0.89
7212.00,0.89
7211.00,0.89
7210.00,0.88
7209.00,0.88
7208.00,0.87
7207.00,0.87
7206.00,0.87
7205.00,0.86
7204.00,0.86
7203.00,0.86
7202.00,0.85
7201.00,0.85
7200.00,0.85
7199.00,0.85
7198.00,0.84
7197.00,0.84
7196.00,0.84
7195.00,0.83
7194.00,0.83
7193.00,0.83
7192.00,0.83
7191.00,0.82
7190.00,0.82
7189.00,0.82
7188.00,0.81
7187.00,0.81
7186.00,0.80
7185.00,0.80
7184.00,0.80
7183.00,0.79
7182.00,0.79
7181.00,0.78
7180.00,0.78
7179.00,0.77
7178.00,0.77
7177.00,0.77
7176.00,0.76
7175.00,0.76
7174.00,0.75
7173.00,0.75
7172.00,0.75
7171.00,0.74
7170.00,0.74
7169.00,0.74
7168.00,0.73
7167.00,0.73
7166.00,0.73
7165.00,0.72
7164.00,0.72
7163.00,0.72
7162.00,0.72
7161.00,0.71
7160.00,0.71
7159.00,0.71
7158.00,0.71
7157.00,0.70
7156.00,0.70
7155.00,0.70
7154.00,0.70
7153.00,0.69
7152.00,0.69
7151.00,0.69
7150.00,0.69
7149.00,0.68
7148.00,0.68
7147.00,0.68
7146.00,0.68
7145.00,0.67
7144.00,0.67
7143.00,0.67
7142.00,0.67
7141.00,0.66
7140.00,0.66
7139.00,0.66
7138.00,0.66
7137.00,0.65
7136.00,0.65
7135.00,0.65
7134.00,0.65
7133.00,0.65
7132.00,0.64
7131.00,0.64
7130.00,0.64
7129.00,0.64
7128.00,0.63
7127.00,0.63
7126.00,0.63
7125.00,0.63
7124.00,0.62
7123.00,0.62
7122.00,0.62
7121.00,0.62
7120.00,0.61
7119.00,0.61
7118.00,0.61
7117.00,0.60
7116.00,0.60
7115.00,0.60
7114.00,0.60
7113.00,0.59
7112.00,0.59
7111.00,0.59
7110.00,0.59
7109.00,0.58
7108.00,0.58
7107.00,0.58
7106.00,0.58
7105.00,0.58
7104.00,0.57
7103.00,0.57
7102.00,0.57
7101.00,0.57
7100.00,0.57
7099.00,0.57
7098.00,0.56
7097.00,0.56
7096.00,0.56
7095.00,0.56
7094.00,0.56
7093.00,0.56
7092.00,0.56
7091.00,0.55
7090.00,0.55
7089.00,0.55
7088.00,0.55
7087.00,0.55
7086.00,0.55
7085.00,0.55
7084.00,0.55
7083.00,0.54
7082.00,0.54
7081.00,0.54
7080.00,0.54
7079.00,0.54
7078.00,0.54
7077.00,0.54
7076.00,0.54
7075.00,0.54
7074.00,0.54
7073.00,0.54
7072.00,0.53
7071.00,0.53
7070.00,0.53
7069.00,0.53
7068.00,0.53
7067.00,0.53
7066.00,0.53
7065.00,0.53
7064.00,0.53
7063.00,0.53
7062.00,0.53
7061.00,0.53
7060.00,0.52
7059.00,0.52
7058.00,0.52
7057.00,0.52
7056.00,0.52
7055.00,0.52
7054.00,0.51
7053.00,0.51
7052.00,0.51
7051.00,0.51
7050.00,0.51
7049.00,0.51
7048.00,0.51
7047.00,0.51
7046.00,0.51
7045.00,0.51
7044.00,0.51
7043.00,0.51
7042.00,0.51
7041.00,0.51
7040.00,0.51
7039.00,0.51
7038.00,0.51
7037.00,0.51
7036.00,0.51
7035.00,0.51
7034.00,0.51
7033.00,0.50
7032.00,0.50
7031.00,0.50
7030.00,0.50
7029.00,0.50
7028.00,0.50
7027.00,0.50
7026.00,0.50
7025.00,0.50
7024.00,0.50
7023.00,0.50
7022.00,0.50
7021.00,0.50
7020.00,0.50
7019.00,0.50
7018.00,0.50
7017.00,0.50
7016.00,0.50
7015.00,0.50
7014.00,0.50
7013.00,0.50
7012.00,0.50
7011.00,0.50
7010.00,0.50
7009.00,0.50
7008.00,0.50
7007.00,0.50
7006.00,0.50
7005.00,0.50
7004.00,0.50
7003.00,0.50
7002.00,0.50
7001.00,0.50
7000.00,0.50
6999.00,0.50
6998.00,0.50
6997.00,0.50
6996.00,0.50
6995.00,0.50
6994.00,0.50
6993.00,0.50
6992.00,0.50
6991.00,0.50
6990.00,0.50
6989.00,0.50
6988.00,0.50
6987.00,0.50
6986.00,0.50
6985.00,0.49
6984.00,0.49
6983.00,0.49
6982.00,0.49
6981.00,0.49
6980.00,0.49
6979.00,0.49
6978.00,0.49
6977.00,0.49
6976.00,0.49
6975.00,0.49
6974.00,0.49
6973.00,0.49
6972.00,0.49
6971.00,0.49
6970.00,0.48
6969.00,0.48
6968.00,0.48
6967.00,0.48
6966.00,0.48
6965.00,0.48
6964.00,0.48
6963.00,0.48
6962.00,0.48
6961.00,0.48
6960.00,0.48
6959.00,0.48
6958.00,0.48
6957.00,0.48
6956.00,0.48
6955.00,0.48
6954.00,0.48
6953.00,0.48
6952.00,0.48
6951.00,0.48
6950.00,0.48
6949.00,0.48
6948.00,0.48
6947.00,0.48
6946.00,0.48
6945.00,0.48
6944.00,0.48
6943.00,0.48
6942.00,0.48
6941.00,0.48
6940.00,0.48
6939.00,0.47
6938.00,0.47
6937.00,0.47
6936.00,0.47
6935.00,0.47
6934.00,0.47
6933.00,0.47
6932.00,0.47
6931.00,0.47
6930.00,0.47
6929.00,0.47
6928.00,0.47
6927.00,0.47
6926.00,0.47
6925.00,0.47
6924.00,0.48
6923.00,0.48
6922.00,0.48
6921.00,0.48
6920.00,0.48
6919.00,0.48
6918.00,0.48
6917.00,0.48
6916.00,0.48
6915.00,0.48
6914.00,0.48
6913.00,0.48
6912.00,0.48
6911.00,0.48
6910.00,0.48
6909.00,0.48
6908.00,0.48
6907.00,0.48
6906.00,0.48
6905.00,0.48
6904.00,0.48
6903.00,0.48
6902.00,0.48
6901.00,0.48
6900.00,0.48
6899.00,0.48
6898.00,0.48
6897.00,0.48
6896.00,0.48
6895.00,0.48
6894.00,0.48
6893.00,0.48
6892.00,0.48
6891.00,0.48
6890.00,0.48
6889.00,0.48
6888.00,0.48
6887.00,0.48
6886.00,0.48
6885.00,0.48
6884.00,0.48
6883.00,0.48
6882.00,0.48
6881.00,0.48
6880.00,0.48
6879.00,0.48
6878.00,0.48
6877.00,0.48
6876.00,0.48
6875.00,0.48
6874.00,0.48
6873.00,0.48
6872.00,0.48
6871.00,0.48
6870.00,0.48
6869.00,0.48
6868.00,0.48
6867.00,0.48
6866.00,0.48
6865.00,0.48
6864.00,0.48
6863.00,0.48
6862.00,0.48
6861.00,0.48
6860.00,0.48
6859.00,0.48
6858.00,0.48
6857.00,0.48
6856.00,0.48
6855.00,0.48
6854.00,0.48
6853.00,0.48
6852.00,0.48
6851.00,0.48
6850.00,0.48
6849.00,0.48
6848.00,0.48
6847.00,0.48
6846.00,0.48
6845.00,0.48
6844.00,0.48
6843.00,0.48
6842.00,0.48
6841.00,0.48
6840.00,0.48
6839.00,0.48
6838.00,0.48
6837.00,0.48
6836.00,0.48
6835.00,0.48
6834.00,0.48
6833.00,0.48
6832.00,0.48
6831.00,0.48
6830.00,0.49
6829.00,0.49
6828.00,0.49
6827.00,0.49
6826.00,0.49
6825.00,0.49
6824.00,0.49
6823.00,0.49
6822.00,0.49
6821.00,0.49
6820.00,0.49
6819.00,0.49
6818.00,0.48
6817.00,0.48
6816.00,0.48
6815.00,0.48
6814.00,0.48
6813.00,0.48
6812.00,0.48
6811.00,0.48
6810.00,0.48
6809.00,0.48
6808.00,0.48
6807.00,0.48
6806.00,0.48
6805.00,0.48
6804.00,0.48
6803.00,0.48
6802.00,0.48
6801.00,0.48
6800.00,0.48
6799.00,0.49
6798.00,0.49
6797.00,0.49
6796.00,0.49
6795.00,0.49
6794.00,0.49
6793.00,0.49
6792.00,0.49
6791.00,0.49
6790.00,0.49
6789.00,0.49
6788.00,0.49
6787.00,0.49
6786.00,0.49
6785.00,0.49
6784.00,0.49
6783.00,0.49
6782.00,0.49
6781.00,0.49
6780.00,0.49
6779.00,0.49
6778.00,0.49
6777.00,0.50
6776.00,0.50
6775.00,0.50
6774.00,0.50
6773.00,0.50
6772.00,0.50
6771.00,0.50
6770.00,0.50
6769.00,0.50
6768.00,0.50
6767.00,0.50
6766.00,0.50
6765.00,0.50
6764.00,0.50
6763.00,0.50
6762.00,0.50
6761.00,0.50
6760.00,0.50
6759.00,0.50
6758.00,0.51
6757.00,0.51
6756.00,0.51
6755.00,0.51
6754.00,0.51
6753.00,0.51
6752.00,0.51
6751.00,0.51
6750.00,0.51
6749.00,0.51
6748.00,0.51
6747.00,0.51
6746.00,0.51
6745.00,0.51
6744.00,0.51
6743.00,0.51
6742.00,0.51
6741.00,0.51
6740.00,0.51
6739.00,0.51
6738.00,0.51
6737.00,0.51
6736.00,0.51
6735.00,0.51
6734.00,0.51
6733.00,0.51
6732.00,0.52
6731.00,0.52
6730.00,0.52
6729.00,0.52
6728.00,0.52
6727.00,0.52
6726.00,0.52
6725.00,0.52
6724.00,0.52
6723.00,0.52
6722.00,0.52
6721.00,0.53
6720.00,0.53
6719.00,0.53
6718.00,0.53
6717.00,0.53
6716.00,0.53
6715.00,0.53
6714.00,0.53
6713.00,0.53
6712.00,0.53
6711.00,0.53
6710.00,0.53
6709.00,0.53
6708.00,0.53
6707.00,0.53
6706.00,0.54
6705.00,0.54
6704.00,0.54
6703.00,0.54
6702.00,0.54
6701.00,0.54
6700.00,0.54
6699.00,0.54
6698.00,0.54
6697.00,0.54
6696.00,0.54
6695.00,0.54
6694.00,0.54
6693.00,0.54
6692.00,0.54
6691.00,0.54
6690.00,0.54
6689.00,0.54
6688.00,0.54
6687.00,0.54
6686.00,0.54
6685.00,0.54
6684.00,0.55
6683.00,0.55
6682.00,0.55
6681.00,0.55
6680.00,0.55
6679.00,0.55
6678.00,0.55
6677.00,0.56
6676.00,0.56
6675.00,0.56
6674.00,0.56
6673.00,0.56
6672.00,0.56
6671.00,0.56
6670.00,0.57
6669.00,0.57
6668.00,0.57
6667.00,0.57
6666.00,0.57
6665.00,0.57
6664.00,0.57
6663.00,0.57
6662.00,0.57
6661.00,0.57
6660.00,0.57
6659.00,0.57
6658.00,0.57
6657.00,0.57
6656.00,0.58
6655.00,0.58
6654.00,0.58
6653.00,0.58
6652.00,0.58
6651.00,0.58
6650.00,0.58
6649.00,0.58
6648.00,0.58
6647.00,0.58
6646.00,0.58
6645.00,0.58
6644.00,0.58
6643.00,0.58
6642.00,0.58
6641.00,0.58
6640.00,0.58
6639.00,0.58
6638.00,0.58
6637.00,0.58
6636.00,0.58
6635.00,0.58
6634.00,0.58
6633.00,0.58
6632.00,0.59
6631.00,0.59
6630.00,0.59
6629.00,0.59
6628.00,0.59
6627.00,0.59
6626.00,0.60
6625.00,0.60
6624.00,0.60
6623.00,0.60
6622.00,0.60
6621.00,0.60
6620.00,0.60
6619.00,0.61
6618.00,0.61
6617.00,0.61
6616.00,0.61
6615.00,0.61
6614.00,0.61
6613.00,0.61
6612.00,0.61
6611.00,0.61
6610.00,0.61
6609.00,0.61
6608.00,0.61
6607.00,0.61
6606.00,0.61
6605.00,0.61
6604.00,0.61
6603.00,0.62
6602.00,0.62
6601.00,0.62
6600.00,0.62
6599.00,0.62
6598.00,0.62
6597.00,0.62
6596.00,0.62
6595.00,0.62
6594.00,0.62
6593.00,0.62
6592.00,0.62
6591.00,0.62
6590.00,0.63
6589.00,0.63
6588.00,0.63
6587.00,0.63
6586.00,0.63
6585.00,0.63
6584.00,0.63
6583.00,0.63
6582.00,0.63
6581.00,0.63
6580.00,0.63
6579.00,0.64
6578.00,0.64
6577.00,0.64
6576.00,0.64
6575.00,0.64
6574.00,0.64
6573.00,0.64
6572.00,0.64
6571.00,0.64
6570.00,0.64
6569.00,0.64
6568.00,0.64
6567.00,0.65
6566.00,0.65
6565.00,0.65
6564.00,0.65
6563.00,0.65
6562.00,0.65
6561.00,0.65
6560.00,0.65
6559.00,0.65
6558.00,0.65
6557.00,0.65
6556.00,0.65
6555.00,0.66
6554.00,0.66
6553.00,0.66
6552.00,0.66
6551.00,0.66
6550.00,0.66
6549.00,0.66
6548.00,0.66
6547.00,0.66
6546.00,0.66
6545.00,0.66
6544.00,0.67
6543.00,0.67
6542.00,0.67
6541.00,0.67
6540.00,0.67
6539.00,0.67
6538.00,0.67
6537.00,0.67
6536.00,0.67
6535.00,0.67
6534.00,0.68
6533.00,0.68
6532.00,0.68
6531.00,0.68
6530.00,0.68
6529.00,0.68
6528.00,0.68
6527.00,0.68
6526.00,0.68
6525.00,0.69
6524.00,0.69
6523.00,0.69
6522.00,0.69
6521.00,0.69
6520.00,0.69
6519.00,0.69
6518.00,0.69
6517.00,0.69
6516.00,0.70
6515.00,0.70
6514.00,0.70
6513.00,0.70
6512.00,0.70
6511.00,0.70
6510.00,0.70
6509.00,0.70
6508.00,0.70
6507.00,0.70
6506.00,0.70
6505.00,0.70
6504.00,0.70
6503.00,0.70
6502.00,0.70
6501.00,0.70
6500.00,0.70
6499.00,0.70
6498.00,0.70
6497.00,0.71
6496.00,0.71
6495.00,0.71
6494.00,0.71
6493.00,0.71
6492.00,0.71
6491.00,0.71
6490.00,0.71
6489.00,0.72
6488.00,0.72
6487.00,0.72
6486.00,0.72
6485.00,0.72
6484.00,0.72
6483.00,0.72
6482.00,0.72
6481.00,0.72
6480.00,0.72
6479.00,0.72
6478.00,0.72
6477.00,0.72
6476.00,0.72
6475.00,0.72
6474.00,0.72
6473.00,0.72
6472.00,0.72
6471.00,0.72
6470.00,0.72
6469.00,0.72
6468.00,0.73
6467.00,0.73
6466.00,0.73
6465.00,0.73
6464.00,0.73
6463.00,0.73
6462.00,0.73
6461.00,0.73
6460.00,0.73
6459.00,0.73
6458.00,0.73
6457.00,0.73
6456.00,0.73
6455.00,0.74
6454.00,0.74
6453.00,0.74
6452.00,0.74
6451.00,0.74
6450.00,0.74
6449.00,0.74
6448.00,0.74
6447.00,0.74
6446.00,0.75
6445.00,0.75
6444.00,0.75
6443.00,0.75
6442.00,0.75
6441.00,0.75
6440.00,0.75
6439.00,0.75
6438.00,0.76
6437.00,0.76
6436.00,0.76
6435.00,0.76
6434.00,0.76
6433.00,0.76
6432.00,0.76
6431.00,0.76
6430.00,0.76
6429.00,0.76
6428.00,0.77
6427.00,0.77
6426.00,0.77
6425.00,0.77
6424.00,0.77
6423.00,0.77
6422.00,0.77
6421.00,0.77
6420.00,0.78
6419.00,0.78
6418.00,0.78
6417.00,0.78
6416.00,0.78
6415.00,0.78
6414.00,0.78
6413.00,0.78
6412.00,0.78
6411.00,0.78
6410.00,0.78
6409.00,0.78
6408.00,0.78
6407.00,0.78
6406.00,0.78
6405.00,0.79
6404.00,0.79
6403.00,0.79
6402.00,0.79
6401.00,0.79
6400.00,0.79
6399.00,0.79
6398.00,0.79
6397.00,0.79
6396.00,0.79
6395.00,0.79
6394.00,0.79
6393.00,0.79
6392.00,0.79
6391.00,0.79
6390.00,0.79
6389.00,0.79
6388.00,0.79
6387.00,0.79
6386.00,0.80
6385.00,0.80
6384.00,0.80
6383.00,0.80
6382.00,0.80
6381.00,0.80
6380.00,0.80
6379.00,0.80
6378.00,0.80
6377.00,0.81
6376.00,0.81
6375.00,0.81
6374.00,0.81
6373.00,0.81
6372.00,0.81
6371.00,0.81
6370.00,0.82
6369.00,0.82
6368.00,0.82
6367.00,0.82
6366.00,0.82
6365.00,0.82
6364.00,0.82
6363.00,0.82
6362.00,0.82
6361.00,0.82
6360.00,0.82
6359.00,0.83
6358.00,0.83
6357.00,0.83
6356.00,0.83
6355.00,0.83
6354.00,0.83
6353.00,0.83
6352.00,0.83
6351.00,0.83
6350.00,0.83
6349.00,0.83
6348.00,0.84
6347.00,0.84
6346.00,0.84
6345.00,0.84
6344.00,0.84
6343.00,0.84
6342.00,0.84
6341.00,0.85
6340.00,0.85
6339.00,0.85
6338.00,0.85
6337.00,0.85
6336.00,0.85
6335.00,0.85
6334.00,0.86
6333.00,0.86
6332.00,0.86
6331.00,0.86
6330.00,0.86
6329.00,0.86
6328.00,0.86
6327.00,0.86
6326.00,0.86
6325.00,0.86
6324.00,0.86
6323.00,0.86
6322.00,0.87
6321.00,0.87
6320.00,0.87
6319.00,0.87
6318.00,0.87
6317.00,0.87
6316.00,0.87
6315.00,0.87
6314.00,0.87
6313.00,0.87
6312.00,0.87
6311.00,0.87
6310.00,0.88
6309.00,0.88
6308.00,0.88
6307.00,0.88
6306.00,0.88
6305.00,0.88
6304.00,0.88
6303.00,0.88
6302.00,0.88
6301.00,0.88
6300.00,0.88
6299.00,0.88
6298.00,0.89
6297.00,0.89
6296.00,0.89
6295.00,0.89
6294.00,0.89
6293.00,0.89
6292.00,0.89
6291.00,0.89
6290.00,0.90
6289.00,0.90
6288.00,0.90
6287.00,0.90
6286.00,0.90
6285.00,0.91
6284.00,0.91
6283.00,0.91
6282.00,0.91
6281.00,0.91
6280.00,0.92
6279.00,0.92
6278.00,0.92
6277.00,0.92
6276.00,0.92
6275.00,0.93
6274.00,0.93
6273.00,0.93
6272.00,0.93
6271.00,0.93
6270.00,0.93
6269.00,0.93
6268.00,0.93
6267.00,0.93
6266.00,0.93
6265.00,0.94
6264.00,0.94
6263.00,0.94
6262.00,0.94
6261.00,0.94
6260.00,0.94
6259.00,0.94
6258.00,0.94
6257.00,0.94
6256.00,0.94
6255.00,0.94
6254.00,0.94
6253.00,0.95
6252.00,0.95
6251.00,0.95
6250.00,0.95
6249.00,0.95
6248.00,0.95
6247.00,0.95
6246.00,0.95
6245.00,0.96
6244.00,0.96
6243.00,0.96
6242.00,0.96
6241.00,0.96
6240.00,0.96
6239.00,0.96
6238.00,0.96
6237.00,0.96
6236.00,0.96
6235.00,0.96
6234.00,0.97
6233.00,0.97
6232.00,0.97
6231.00,0.97
6230.00,0.97
6229.00,0.97
6228.00,0.97
6227.00,0.97
6226.00,0.97
6225.00,0.98
6224.00,0.98
6223.00,0.98
6222.00,0.98
6221.00,0.98
6220.00,0.98
6219.00,0.99
6218.00,0.99
6217.00,0.99
6216.00,0.99
6215.00,0.99
6214.00,0.99
6213.00,1.00
6212.00,1.00
6211.00,1.00
6210.00,1.00
6209.00,1.00
6208.00,1.00
6207.00,1.00
6206.00,1.00
6205.00,1.01
6204.00,1.01
6203.00,1.01
6202.00,1.01
6201.00,1.01
6200.00,1.01
6199.00,1.01
6198.00,1.01
6197.00,1.02
6196.00,1.02
6195.00,1.02
6194.00,1.02
6193.00,1.02
6192.00,1.02
6191.00,1.02
6190.00,1.02
6189.00,1.03
6188.00,1.03
6187.00,1.03
6186.00,1.03
6185.00,1.03
6184.00,1.03
6183.00,1.03
6182.00,1.04
6181.00,1.04
6180.00,1.04
6179.00,1.04
6178.00,1.04
6177.00,1.04
6176.00,1.04
6175.00,1.05
6174.00,1.05
6173.00,1.05
6172.00,1.05
6171.00,1.05
6170.00,1.05
6169.00,1.05
6168.00,1.06
6167.00,1.06
6166.00,1.06
6165.00,1.06
6164.00,1.06
6163.00,1.06
6162.00,1.06
6161.00,1.06
6160.00,1.07
6159.00,1.07
6158.00,1.07
6157.00,1.07
6156.00,1.07
6155.00,1.07
6154.00,1.07
6153.00,1.07
6152.00,1.07
6151.00,1.07
6150.00,1.07
6149.00,1.08
6148.00,1.08
6147.00,1.08
6146.00,1.08
6145.00,1.08
6144.00,1.08
6143.00,1.08
6142.00,1.08
6141.00,1.09
6140.00,1.09
6139.00,1.09
6138.00,1.09
6137.00,1.09
6136.00,1.09
6135.00,1.10
6134.00,1.10
6133.00,1.10
6132.00,1.10
6131.00,1.10
6130.00,1.10
6129.00,1.11
6128.00,1.11
6127.00,1.11
6126.00,1.11
6125.00,1.11
6124.00,1.11
6123.00,1.11
6122.00,1.12
6121.00,1.12
6120.00,1.12
6119.00,1.12
6118.00,1.12
6117.00,1.12
6116.00,1.12
6115.00,1.13
6114.00,1.13
6113.00,1.13
6112.00,1.13
6111.00,1.13
6110.00,1.13
6109.00,1.13
6108.00,1.13
6107.00,1.14
6106.00,1.14
6105.00,1.14
6104.00,1.14
6103.00,1.14
6102.00,1.14
6101.00,1.14
6100.00,1.14
6099.00,1.14
6098.00,1.15
6097.00,1.15
6096.00,1.15
6095.00,1.15
6094.00,1.15
6093.00,1.15
6092.00,1.15
6091.00,1.16
6090.00,1.16
6089.00,1.16
6088.00,1.16
6087.00,1.16
6086.00,1.17
6085.00,1.17
6084.00,1.17
6083.00,1.17
6082.00,1.17
6081.00,1.17
6080.00,1.18
6079.00,1.18
6078.00,1.18
6077.00,1.18
6076.00,1.18
6075.00,1.18
6074.00,1.18
6073.00,1.19
6072.00,1.19
6071.00,1.19
6070.00,1.19
6069.00,1.19
6068.00,1.19
6067.00,1.19
6066.00,1.19
6065.00,1.19
6064.00,1.19
6063.00,1.19
6062.00,1.20
6061.00,1.20
6060.00,1.20
6059.00,1.20
6058.00,1.20
6057.00,1.20
6056.00,1.20
6055.00,1.20
6054.00,1.20
6053.00,1.20
6052.00,1.20
6051.00,1.21
6050.00,1.21
6049.00,1.21
6048.00,1.21
6047.00,1.21
6046.00,1.21
6045.00,1.21
6044.00,1.21
6043.00,1.21
6042.00,1.21
6041.00,1.21
6040.00,1.21
6039.00,1.21
6038.00,1.21
6037.00,1.21
6036.00,1.21
6035.00,1.22
6034.00,1.22
6033.00,1.22
6032.00,1.22
6031.00,1.22
6030.00,1.22
6029.00,1.22
6028.00,1.22
6027.00,1.22
6026.00,1.22
6025.00,1.22
6024.00,1.22
6023.00,1.22
6022.00,1.22
6021.00,1.22
6020.00,1.22
6019.00,1.22
6018.00,1.22
6017.00,1.22
6016.00,1.22
6015.00,1.22
6014.00,1.22
6013.00,1.22
6012.00,1.22
6011.00,1.22
6010.00,1.22
6009.00,1.22
6008.00,1.22
6007.00,1.22
6006.00,1.22
6005.00,1.22
6004.00,1.22
6003.00,1.22
6002.00,1.22
6001.00,1.22
6000.00,1.22
5999.00,1.22
5998.00,1.22
5997.00,1.22
5996.00,1.22
5995.00,1.22
5994.00,1.22
5993.00,1.22
5992.00,1.21
5991.00,1.21
5990.00,1.21
5989.00,1.21
5988.00,1.21
5987.00,1.21
5986.00,1.21
5985.00,1.20
5984.00,1.20
5983.00,1.20
5982.00,1.20
5981.00,1.20
5980.00,1.19
5979.00,1.19
5978.00,1.19
5977.00,1.18
5976.00,1.18
5975.00,1.18
5974.00,1.17
5973.00,1.17
5972.00,1.17
5971.00,1.16
5970.00,1.16
5969.00,1.15
5968.00,1.15
5967.00,1.14
5966.00,1.14
5965.00,1.13
5964.00,1.13
5963.00,1.12
5962.00,1.12
5961.00,1.11
5960.00,1.11
5959.00,1.10
5958.00,1.10
5957.00,1.09
5956.00,1.08
5955.00,1.08
5954.00,1.08
5953.00,1.07
5952.00,1.07
5951.00,1.06
5950.00,1.06
5949.00,1.06
5948.00,1.05
5947.00,1.05
5946.00,1.05
5945.00,1.05
5944.00,1.04
5943.00,1.04
5942.00,1.04
5941.00,1.04
5940.00,1.04
5939.00,1.04
5938.00,1.04
5937.00,1.03
5936.00,1.03
5935.00,1.03
5934.00,1.03
5933.00,1.03
5932.00,1.03
5931.00,1.03
5930.00,1.03
5929.00,1.03
5928.00,1.03
5927.00,1.02
5926.00,1.02
5925.00,1.02
5924.00,1.02
5923.00,1.02
5922.00,1.02
5921.00,1.02
5920.00,1.01
5919.00,1.01
5918.00,1.01
5917.00,1.01
5916.00,1.01
5915.00,1.00
5914.00,1.00
5913.00,1.00
5912.00,1.00
5911.00,1.00
5910.00,1.00
5909.00,0.99
5908.00,0.99
5907.00,0.99
5906.00,0.99
5905.00,0.99
5904.00,0.99
5903.00,0.99
5902.00,0.99
5901.00,0.99
5900.00,0.99
5899.00,1.00
5898.00,1.00
5897.00,1.00
5896.00,1.00
5895.00,1.00
5894.00,1.00
5893.00,1.00
5892.00,1.01
5891.00,1.01
5890.00,1.01
5889.00,1.01
5888.00,1.02
5887.00,1.02
5886.00,1.02
5885.00,1.02
5884.00,1.03
5883.00,1.03
5882.00,1.03
5881.00,1.03
5880.00,1.04
5879.00,1.04
5878.00,1.04
5877.00,1.04
5876.00,1.04
5875.00,1.05
5874.00,1.05
5873.00,1.05
5872.00,1.05
5871.00,1.05
5870.00,1.05
5869.00,1.06
5868.00,1.06
5867.00,1.06
5866.00,1.06
5865.00,1.06
5864.00,1.06
5863.00,1.06
5862.00,1.06
5861.00,1.07
5860.00,1.07
5859.00,1.07
5858.00,1.07
5857.00,1.07
5856.00,1.07
5855.00,1.07
5854.00,1.07
5853.00,1.08
5852.00,1.08
5851.00,1.08
5850.00,1.08
5849.00,1.08
5848.00,1.08
5847.00,1.08
5846.00,1.08
5845.00,1.08
5844.00,1.08
5843.00,1.08
5842.00,1.08
5841.00,1.08
5840.00,1.08
5839.00,1.08
5838.00,1.08
5837.00,1.08
5836.00,1.08
5835.00,1.08
5834.00,1.08
5833.00,1.08
5832.00,1.08
5831.00,1.08
5830.00,1.08
5829.00,1.08
5828.00,1.08
5827.00,1.08
5826.00,1.08
5825.00,1.08
5824.00,1.08
5823.00,1.08
5822.00,1.08
5821.00,1.08
5820.00,1.08
5819.00,1.08
5818.00,1.08
5817.00,1.08
5816.00,1.08
5815.00,1.08
5814.00,1.08
5813.00,1.08
5812.00,1.08
5811.00,1.08
5810.00,1.08
5809.00,1.08
5808.00,1.08
5807.00,1.08
5806.00,1.08
5805.00,1.08
5804.00,1.07
5803.00,1.07
5802.00,1.07
5801.00,1.07
5800.00,1.07
5799.00,1.07
5798.00,1.07
5797.00,1.06
5796.00,1.06
5795.00,1.06
5794.00,1.06
5793.00,1.06
5792.00,1.05
5791.00,1.05
5790.00,1.05
5789.00,1.05
5788.00,1.05
5787.00,1.04
5786.00,1.04
5785.00,1.04
5784.00,1.04
5783.00,1.04
5782.00,1.04
5781.00,1.04
5780.00,1.03
5779.00,1.03
5778.00,1.03
5777.00,1.03
5776.00,1.03
5775.00,1.03
5774.00,1.03
5773.00,1.04
5772.00,1.04
5771.00,1.04
5770.00,1.04
5769.00,1.04
5768.00,1.04
5767.00,1.04
5766.00,1.04
5765.00,1.05
5764.00,1.05
5763.00,1.05
5762.00,1.05
5761.00,1.06
5760.00,1.06
5759.00,1.06
5758.00,1.06
5757.00,1.06
5756.00,1.07
5755.00,1.07
5754.00,1.07
5753.00,1.07
5752.00,1.08
5751.00,1.08
5750.00,1.08
5749.00,1.08
5748.00,1.08
5747.00,1.09
5746.00,1.09
5745.00,1.09
5744.00,1.09
5743.00,1.09
5742.00,1.09
5741.00,1.10
5740.00,1.10
5739.00,1.10
5738.00,1.10
5737.00,1.10
5736.00,1.10
5735.00,1.10
5734.00,1.11
5733.00,1.11
5732.00,1.11
5731.00,1.11
5730.00,1.11
5729.00,1.11
5728.00,1.11
5727.00,1.11
5726.00,1.11
5725.00,1.11
5724.00,1.11
5723.00,1.11
5722.00,1.11
5721.00,1.11
5720.00,1.11
5719.00,1.10
5718.00,1.10
5717.00,1.10
5716.00,1.10
5715.00,1.10
5714.00,1.10
5713.00,1.10
5712.00,1.10
5711.00,1.09
5710.00,1.09
5709.00,1.09
5708.00,1.09
5707.00,1.09
5706.00,1.09
5705.00,1.09
5704.00,1.09
5703.00,1.08
5702.00,1.08
5701.00,1.08
5700.00,1.08
5699.00,1.08
5698.00,1.08
5697.00,1.08
5696.00,1.07
5695.00,1.07
5694.00,1.07
5693.00,1.07
5692.00,1.07
5691.00,1.07
5690.00,1.07
5689.00,1.06
5688.00,1.06
5687.00,1.06
5686.00,1.06
5685.00,1.06
5684.00,1.06
5683.00,1.06
5682.00,1.06
5681.00,1.06
5680.00,1.06
5679.00,1.06
5678.00,1.06
5677.00,1.06
5676.00,1.06
5675.00,1.06
5674.00,1.06
5673.00,1.06
5672.00,1.06
5671.00,1.06
5670.00,1.06
5669.00,1.06
5668.00,1.06
5667.00,1.06
5666.00,1.06
5665.00,1.06
5664.00,1.06
5663.00,1.06
5662.00,1.06
5661.00,1.06
5660.00,1.06
5659.00,1.07
5658.00,1.07
5657.00,1.07
5656.00,1.07
5655.00,1.07
5654.00,1.07
5653.00,1.07
5652.00,1.07
5651.00,1.07
5650.00,1.07
5649.00,1.08
5648.00,1.08
5647.00,1.08
5646.00,1.08
5645.00,1.08
5644.00,1.08
5643.00,1.08
5642.00,1.08
5641.00,1.08
5640.00,1.08
5639.00,1.09
5638.00,1.09
5637.00,1.09
5636.00,1.09
5635.00,1.09
5634.00,1.09
5633.00,1.09
5632.00,1.09
5631.00,1.09
5630.00,1.10
5629.00,1.10
5628.00,1.10
5627.00,1.10
5626.00,1.10
5625.00,1.10
5624.00,1.10
5623.00,1.10
5622.00,1.10
5621.00,1.11
5620.00,1.11
5619.00,1.11
5618.00,1.11
5617.00,1.11
5616.00,1.11
5615.00,1.11
5614.00,1.11
5613.00,1.12
5612.00,1.12
5611.00,1.12
5610.00,1.12
5609.00,1.12
5608.00,1.12
5607.00,1.13
5606.00,1.13
5605.00,1.13
5604.00,1.13
5603.00,1.13
5602.00,1.13
5601.00,1.13
5600.00,1.14
5599.00,1.14
5598.00,1.14
5597.00,1.14
5596.00,1.14
5595.00,1.14
5594.00,1.14
5593.00,1.14
5592.00,1.14
5591.00,1.14
5590.00,1.15
5589.00,1.15
5588.00,1.15
5587.00,1.15
5586.00,1.15
5585.00,1.15
5584.00,1.15
5583.00,1.15
5582.00,1.15
5581.00,1.16
5580.00,1.16
5579.00,1.16
5578.00,1.16
5577.00,1.16
5576.00,1.16
5575.00,1.16
5574.00,1.16
5573.00,1.16
5572.00,1.17
5571.00,1.17
5570.00,1.17
5569.00,1.17
5568.00,1.17
5567.00,1.17
5566.00,1.17
5565.00,1.17
5564.00,1.17
5563.00,1.18
5562.00,1.18
5561.00,1.18
5560.00,1.18
5559.00,1.18
5558.00,1.18
5557.00,1.18
5556.00,1.19
5555.00,1.19
5554.00,1.19
5553.00,1.19
5552.00,1.19
5551.00,1.19
5550.00,1.19
5549.00,1.19
5548.00,1.20
5547.00,1.20
5546.00,1.20
5545.00,1.20
5544.00,1.20
5543.00,1.20
5542.00,1.20
5541.00,1.20
5540.00,1.21
5539.00,1.21
5538.00,1.21
5537.00,1.21
5536.00,1.21
5535.00,1.21
5534.00,1.21
5533.00,1.21
5532.00,1.21
5531.00,1.21
5530.00,1.21
5529.00,1.21
5528.00,1.22
5527.00,1.22
5526.00,1.22
5525.00,1.22
5524.00,1.22
5523.00,1.22
5522.00,1.22
5521.00,1.22
5520.00,1.22
5519.00,1.22
5518.00,1.22
5517.00,1.22
5516.00,1.22
5515.00,1.22
5514.00,1.22
5513.00,1.22
5512.00,1.22
5511.00,1.23
5510.00,1.23
5509.00,1.23
5508.00,1.23
5507.00,1.23
5506.00,1.23
5505.00,1.23
5504.00,1.23
5503.00,1.23
5502.00,1.23
5501.00,1.23
5500.00,1.23
5499.00,1.23
5498.00,1.23
5497.00,1.23
5496.00,1.23
5495.00,1.23
5494.00,1.23
5493.00,1.23
5492.00,1.24
5491.00,1.24
5490.00,1.24
5489.00,1.24
5488.00,1.24
5487.00,1.24
5486.00,1.24
5485.00,1.24
5484.00,1.25
5483.00,1.25
5482.00,1.25
5481.00,1.25
5480.00,1.25
5479.00,1.25
5478.00,1.25
5477.00,1.25
5476.00,1.25
5475.00,1.26
5474.00,1.26
5473.00,1.26
5472.00,1.26
5471.00,1.26
5470.00,1.26
5469.00,1.26
5468.00,1.26
5467.00,1.26
5466.00,1.26
5465.00,1.26
5464.00,1.26
5463.00,1.26
5462.00,1.27
5461.00,1.27
5460.00,1.27
5459.00,1.27
5458.00,1.27
5457.00,1.27
5456.00,1.27
5455.00,1.27
5454.00,1.27
5453.00,1.27
5452.00,1.27
5451.00,1.27
5450.00,1.27
5449.00,1.27
5448.00,1.27
5447.00,1.27
5446.00,1.27
5445.00,1.27
5444.00,1.27
5443.00,1.27
5442.00,1.27
5441.00,1.27
5440.00,1.27
5439.00,1.27
5438.00,1.27
5437.00,1.27
5436.00,1.27
5435.00,1.28
5434.00,1.28
5433.00,1.28
5432.00,1.28
5431.00,1.28
5430.00,1.28
5429.00,1.27
5428.00,1.27
5427.00,1.27
5426.00,1.27
5425.00,1.27
5424.00,1.27
5423.00,1.27
5422.00,1.27
5421.00,1.27
5420.00,1.27
5419.00,1.27
5418.00,1.27
5417.00,1.27
5416.00,1.27
5415.00,1.27
5414.00,1.27
5413.00,1.27
5412.00,1.26
5411.00,1.26
5410.00,1.26
5409.00,1.26
5408.00,1.26
5407.00,1.26
5406.00,1.26
5405.00,1.26
5404.00,1.25
5403.00,1.25
5402.00,1.25
5401.00,1.25
5400.00,1.25
5399.00,1.24
5398.00,1.24
5397.00,1.24
5396.00,1.24
5395.00,1.23
5394.00,1.23
5393.00,1.23
5392.00,1.22
5391.00,1.22
5390.00,1.22
5389.00,1.21
5388.00,1.21
5387.00,1.21
5386.00,1.20
5385.00,1.20
5384.00,1.20
5383.00,1.19
5382.00,1.19
5381.00,1.18
5380.00,1.18
5379.00,1.18
5378.00,1.17
5377.00,1.17
5376.00,1.16
5375.00,1.16
5374.00,1.15
5373.00,1.15
5372.00,1.14
5371.00,1.14
5370.00,1.13
5369.00,1.13
5368.00,1.12
5367.00,1.12
5366.00,1.11
5365.00,1.10
5364.00,1.10
5363.00,1.09
5362.00,1.09
5361.00,1.08
5360.00,1.07
5359.00,1.07
5358.00,1.06
5357.00,1.05
5356.00,1.04
5355.00,1.04
5354.00,1.03
5353.00,1.02
5352.00,1.01
5351.00,1.00
5350.00,1.00
5349.00,0.99
5348.00,0.98
5347.00,0.97
5346.00,0.96
5345.00,0.95
5344.00,0.94
5343.00,0.94
5342.00,0.93
5341.00,0.92
5340.00,0.91
5339.00,0.90
5338.00,0.89
5337.00,0.88
5336.00,0.88
5335.00,0.87
5334.00,0.86
5333.00,0.85
5332.00,0.85
5331.00,0.84
5330.00,0.83
5329.00,0.82
5328.00,0.82
5327.00,0.81
5326.00,0.80
5325.00,0.80
5324.00,0.79
5323.00,0.78
5322.00,0.78
5321.00,0.77
5320.00,0.77
5319.00,0.76
5318.00,0.76
5317.00,0.75
5316.00,0.75
5315.00,0.74
5314.00,0.74
5313.00,0.73
5312.00,0.73
5311.00,0.72
5310.00,0.72
5309.00,0.72
5308.00,0.71
5307.00,0.71
5306.00,0.71
5305.00,0.70
5304.00,0.70
5303.00,0.70
5302.00,0.69
5301.00,0.69
5300.00,0.69
5299.00,0.68
5298.00,0.68
5297.00,0.68
5296.00,0.68
5295.00,0.68
5294.00,0.67
5293.00,0.67
5292.00,0.67
5291.00,0.67
5290.00,0.67
5289.00,0.67
5288.00,0.67
5287.00,0.67
5286.00,0.66
5285.00,0.66
5284.00,0.66
5283.00,0.66
5282.00,0.66
5281.00,0.66
5280.00,0.66
5279.00,0.66
5278.00,0.66
5277.00,0.66
5276.00,0.66
5275.00,0.66
5274.00,0.66
5273.00,0.66
5272.00,0.66
5271.00,0.66
5270.00,0.66
5269.00,0.66
5268.00,0.66
5267.00,0.66
5266.00,0.66
5265.00,0.66
5264.00,0.66
5263.00,0.66
5262.00,0.66
5261.00,0.66
5260.00,0.66
5259.00,0.66
5258.00,0.66
5257.00,0.66
5256.00,0.66
5255.00,0.66
5254.00,0.66
5253.00,0.67
5252.00,0.67
5251.00,0.67
5250.00,0.67
5249.00,0.67
5248.00,0.67
5247.00,0.67
5246.00,0.67
5245.00,0.67
5244.00,0.67
5243.00,0.67
5242.00,0.67
5241.00,0.67
5240.00,0.67
5239.00,0.67
5238.00,0.67
5237.00,0.67
5236.00,0.67
5235.00,0.67
5234.00,0.67
5233.00,0.67
5232.00,0.67
5231.00,0.67
5230.00,0.67
5229.00,0.67
5228.00,0.67
5227.00,0.67
5226.00,0.67
5225.00,0.68
5224.00,0.68
5223.00,0.68
5222.00,0.68
5221.00,0.68
5220.00,0.68
5219.00,0.68
5218.00,0.68
5217.00,0.68
5216.00,0.68
5215.00,0.68
5214.00,0.68
5213.00,0.68
5212.00,0.68
5211.00,0.68
5210.00,0.68
5209.00,0.68
5208.00,0.68
5207.00,0.68
5206.00,0.68
5205.00,0.68
5204.00,0.68
5203.00,0.68
5202.00,0.68
5201.00,0.68
5200.00,0.68
5199.00,0.68
5198.00,0.68
5197.00,0.68
5196.00,0.68
5195.00,0.68
5194.00,0.68
5193.00,0.68
5192.00,0.68
5191.00,0.68
5190.00,0.68
5189.00,0.68
5188.00,0.68
5187.00,0.69
5186.00,0.69
5185.00,0.69
5184.00,0.69
5183.00,0.69
5182.00,0.69
5181.00,0.69
5180.00,0.69
5179.00,0.69
5178.00,0.69
5177.00,0.69
5176.00,0.69
5175.00,0.69
5174.00,0.69
5173.00,0.69
5172.00,0.69
5171.00,0.69
5170.00,0.69
5169.00,0.69
5168.00,0.69
5167.00,0.69
5166.00,0.69
5165.00,0.70
5164.00,0.70
5163.00,0.70
5162.00,0.70
5161.00,0.70
5160.00,0.70
5159.00,0.70
5158.00,0.70
5157.00,0.70
5156.00,0.70
5155.00,0.70
5154.00,0.70
5153.00,0.70
5152.00,0.70
5151.00,0.70
5150.00,0.70
5149.00,0.70
5148.00,0.70
5147.00,0.70
5146.00,0.71
5145.00,0.71
5144.00,0.71
5143.00,0.71
5142.00,0.71
5141.00,0.71
5140.00,0.71
5139.00,0.71
5138.00,0.71
5137.00,0.71
5136.00,0.71
5135.00,0.71
5134.00,0.71
5133.00,0.71
5132.00,0.71
5131.00,0.71
5130.00,0.71
5129.00,0.71
5128.00,0.71
5127.00,0.71
5126.00,0.71
5125.00,0.71
5124.00,0.71
5123.00,0.71
5122.00,0.71
5121.00,0.71
5120.00,0.71
5119.00,0.71
5118.00,0.71
5117.00,0.71
5116.00,0.71
5115.00,0.71
5114.00,0.71
5113.00,0.71
5112.00,0.71
5111.00,0.71
5110.00,0.71
5109.00,0.71
5108.00,0.71
5107.00,0.71
5106.00,0.72
5105.00,0.72
5104.00,0.72
5103.00,0.72
5102.00,0.72
5101.00,0.72
5100.00,0.72
5099.00,0.72
5098.00,0.72
5097.00,0.73
5096.00,0.73
5095.00,0.73
5094.00,0.73
5093.00,0.73
5092.00,0.73
5091.00,0.73
5090.00,0.73
5089.00,0.73
5088.00,0.73
5087.00,0.73
5086.00,0.73
5085.00,0.73
5084.00,0.73
5083.00,0.73
5082.00,0.73
5081.00,0.73
5080.00,0.73
5079.00,0.73
5078.00,0.73
5077.00,0.73
5076.00,0.73
5075.00,0.73
5074.00,0.73
5073.00,0.73
5072.00,0.73
5071.00,0.73
5070.00,0.73
5069.00,0.74
5068.00,0.74
5067.00,0.74
5066.00,0.74
5065.00,0.74
5064.00,0.74
5063.00,0.74
5062.00,0.74
5061.00,0.74
5060.00,0.75
5059.00,0.75
5058.00,0.75
5057.00,0.75
5056.00,0.75
5055.00,0.75
5054.00,0.75
5053.00,0.75
5052.00,0.75
5051.00,0.75
5050.00,0.75
5049.00,0.75
5048.00,0.75
5047.00,0.75
5046.00,0.75
5045.00,0.75
5044.00,0.75
5043.00,0.75
5042.00,0.75
5041.00,0.75
5040.00,0.75
5039.00,0.75
5038.00,0.75
5037.00,0.75
5036.00,0.75
5035.00,0.75
5034.00,0.75
5033.00,0.75
5032.00,0.75
5031.00,0.75
5030.00,0.75
5029.00,0.75
5028.00,0.75
5027.00,0.76
5026.00,0.76
5025.00,0.76
5024.00,0.76
5023.00,0.76
5022.00,0.76
5021.00,0.76
5020.00,0.76
5019.00,0.76
5018.00,0.76
5017.00,0.76
5016.00,0.76
5015.00,0.76
5014.00,0.76
5013.00,0.76
5012.00,0.76
5011.00,0.76
5010.00,0.76
5009.00,0.76
5008.00,0.76
5007.00,0.77
5006.00,0.77
5005.00,0.77
5004.00,0.77
5003.00,0.77
5002.00,0.77
5001.00,0.77
5000.00,0.77
4999.00,0.77
4998.00,0.77
4997.00,0.77
4996.00,0.77
4995.00,0.77
4994.00,0.77
4993.00,0.77
4992.00,0.77
4991.00,0.77
4990.00,0.77
4989.00,0.77
4988.00,0.77
4987.00,0.77
4986.00,0.77
4985.00,0.77
4984.00,0.78
4983.00,0.78
4982.00,0.78
4981.00,0.78
4980.00,0.78
4979.00,0.78
4978.00,0.78
4977.00,0.78
4976.00,0.78
4975.00,0.78
4974.00,0.78
4973.00,0.78
4972.00,0.79
4971.00,0.79
4970.00,0.79
4969.00,0.79
4968.00,0.79
4967.00,0.79
4966.00,0.79
4965.00,0.79
4964.00,0.79
4963.00,0.80
4962.00,0.80
4961.00,0.80
4960.00,0.80
4959.00,0.80
4958.00,0.80
4957.00,0.80
4956.00,0.80
4955.00,0.80
4954.00,0.80
4953.00,0.80
4952.00,0.80
4951.00,0.80
4950.00,0.80
4949.00,0.80
4948.00,0.81
4947.00,0.81
4946.00,0.81
4945.00,0.81
4944.00,0.81
4943.00,0.81
4942.00,0.81
4941.00,0.81
4940.00,0.81
4939.00,0.81
4938.00,0.81
4937.00,0.81
4936.00,0.81
4935.00,0.81
4934.00,0.81
4933.00,0.81
4932.00,0.81
4931.00,0.81
4930.00,0.81
4929.00,0.81
4928.00,0.81
4927.00,0.81
4926.00,0.81
4925.00,0.81
4924.00,0.81
4923.00,0.81
4922.00,0.81
4921.00,0.81
4920.00,0.81
4919.00,0.81
4918.00,0.81
4917.00,0.82
4916.00,0.82
4915.00,0.82
4914.00,0.82
4913.00,0.82
4912.00,0.82
4911.00,0.82
4910.00,0.82
4909.00,0.82
4908.00,0.82
4907.00,0.82
4906.00,0.82
4905.00,0.83
4904.00,0.83
4903.00,0.83
4902.00,0.83
4901.00,0.83
4900.00,0.83
4899.00,0.83
4898.00,0.83
4897.00,0.83
4896.00,0.83
4895.00,0.83
4894.00,0.83
4893.00,0.83
4892.00,0.84
4891.00,0.84
4890.00,0.84
4889.00,0.84
4888.00,0.84
4887.00,0.84
4886.00,0.84
4885.00,0.84
4884.00,0.84
4883.00,0.84
4882.00,0.84
4881.00,0.84
4880.00,0.84
4879.00,0.85
4878.00,0.85
4877.00,0.85
4876.00,0.85
4875.00,0.85
4874.00,0.85
4873.00,0.85
4872.00,0.85
4871.00,0.85
4870.00,0.85
4869.00,0.85
4868.00,0.85
4867.00,0.85
4866.00,0.85
4865.00,0.85
4864.00,0.85
4863.00,0.85
4862.00,0.85
4861.00,0.85
4860.00,0.85
4859.00,0.85
4858.00,0.85
4857.00,0.85
4856.00,0.85
4855.00,0.85
4854.00,0.86
4853.00,0.86
4852.00,0.86
4851.00,0.86
4850.00,0.86
4849.00,0.86
4848.00,0.86
4847.00,0.86
4846.00,0.86
4845.00,0.86
4844.00,0.86
4843.00,0.86
4842.00,0.86
4841.00,0.86
4840.00,0.86
4839.00,0.86
4838.00,0.86
4837.00,0.86
4836.00,0.87
4835.00,0.87
4834.00,0.87
4833.00,0.87
4832.00,0.87
4831.00,0.87
4830.00,0.87
4829.00,0.88
4828.00,0.88
4827.00,0.88
4826.00,0.88
4825.00,0.88
4824.00,0.88
4823.00,0.88
4822.00,0.88
4821.00,0.88
4820.00,0.89
4819.00,0.89
4818.00,0.89
4817.00,0.89
4816.00,0.89
4815.00,0.89
4814.00,0.89
4813.00,0.89
4812.00,0.89
4811.00,0.89
4810.00,0.89
4809.00,0.89
4808.00,0.89
4807.00,0.89
4806.00,0.89
4805.00,0.89
4804.00,0.89
4803.00,0.89
4802.00,0.89
4801.00,0.89
4800.00,0.89
4799.00,0.89
4798.00,0.89
4797.00,0.89
4796.00,0.89
4795.00,0.90
4794.00,0.90
4793.00,0.90
4792.00,0.90
4791.00,0.90
4790.00,0.90
4789.00,0.90
4788.00,0.91
4787.00,0.91
4786.00,0.91
4785.00,0.91
4784.00,0.91
4783.00,0.91
4782.00,0.91
4781.00,0.91
4780.00,0.91
4779.00,0.91
4778.00,0.91
4777.00,0.91
4776.00,0.91
4775.00,0.91
4774.00,0.91
4773.00,0.91
4772.00,0.91
4771.00,0.92
4770.00,0.92
4769.00,0.92
4768.00,0.92
4767.00,0.92
4766.00,0.92
4765.00,0.92
4764.00,0.92
4763.00,0.92
4762.00,0.92
4761.00,0.92
4760.00,0.92
4759.00,0.93
4758.00,0.93
4757.00,0.93
4756.00,0.93
4755.00,0.93
4754.00,0.93
4753.00,0.93
4752.00,0.93
4751.00,0.94
4750.00,0.94
4749.00,0.94
4748.00,0.94
4747.00,0.94
4746.00,0.94
4745.00,0.94
4744.00,0.94
4743.00,0.94
4742.00,0.94
4741.00,0.94
4740.00,0.94
4739.00,0.94
4738.00,0.94
4737.00,0.94
4736.00,0.95
4735.00,0.95
4734.00,0.95
4733.00,0.95
4732.00,0.95
4731.00,0.95
4730.00,0.96
4729.00,0.96
4728.00,0.96
4727.00,0.96
4726.00,0.96
4725.00,0.97
4724.00,0.97
4723.00,0.97
4722.00,0.97
4721.00,0.97
4720.00,0.98
4719.00,0.98
4718.00,0.98
4717.00,0.98
4716.00,0.98
4715.00,0.98
4714.00,0.98
4713.00,0.98
4712.00,0.99
4711.00,0.99
4710.00,0.99
4709.00,0.99
4708.00,0.99
4707.00,0.99
4706.00,0.99
4705.00,0.99
4704.00,0.99
4703.00,0.99
4702.00,0.99
4701.00,0.99
4700.00,0.99
4699.00,0.99
4698.00,0.99
4697.00,0.99
4696.00,0.99
4695.00,0.99
4694.00,0.99
4693.00,1.00
4692.00,1.00
4691.00,1.00
4690.00,1.00
4689.00,1.00
4688.00,1.00
4687.00,1.00
4686.00,1.01
4685.00,1.01
4684.00,1.01
4683.00,1.01
4682.00,1.01
4681.00,1.01
4680.00,1.01
4679.00,1.01
4678.00,1.01
4677.00,1.01
4676.00,1.02
4675.00,1.02
4674.00,1.02
4673.00,1.02
4672.00,1.02
4671.00,1.02
4670.00,1.02
4669.00,1.03
4668.00,1.03
4667.00,1.03
4666.00,1.03
4665.00,1.03
4664.00,1.03
4663.00,1.04
4662.00,1.04
4661.00,1.04
4660.00,1.04
4659.00,1.04
4658.00,1.04
4657.00,1.04
4656.00,1.04
4655.00,1.04
4654.00,1.04
4653.00,1.04
4652.00,1.04
4651.00,1.05
4650.00,1.05
4649.00,1.05
4648.00,1.05
4647.00,1.05
4646.00,1.05
4645.00,1.05
4644.00,1.05
4643.00,1.05
4642.00,1.05
4641.00,1.06
4640.00,1.06
4639.00,1.06
4638.00,1.06
4637.00,1.06
4636.00,1.06
4635.00,1.07
4634.00,1.07
4633.00,1.07
4632.00,1.07
4631.00,1.07
4630.00,1.07
4629.00,1.08
4628.00,1.08
4627.00,1.08
4626.00,1.08
4625.00,1.08
4624.00,1.08
4623.00,1.08
4622.00,1.08
4621.00,1.08
4620.00,1.08
4619.00,1.08
4618.00,1.08
4617.00,1.08
4616.00,1.08
4615.00,1.08
4614.00,1.08
4613.00,1.08
4612.00,1.08
4611.00,1.08
4610.00,1.08
4609.00,1.08
4608.00,1.08
4607.00,1.08
4606.00,1.08
4605.00,1.08
4604.00,1.08
4603.00,1.08
4602.00,1.08
4601.00,1.08
4600.00,1.08
4599.00,1.09
4598.00,1.09
4597.00,1.09
4596.00,1.09
4595.00,1.09
4594.00,1.09
4593.00,1.09
4592.00,1.09
4591.00,1.09
4590.00,1.09
4589.00,1.09
4588.00,1.09
4587.00,1.10
4586.00,1.10
4585.00,1.10
4584.00,1.10
4583.00,1.10
4582.00,1.10
4581.00,1.10
4580.00,1.10
4579.00,1.10
4578.00,1.10
4577.00,1.10
4576.00,1.10
4575.00,1.10
4574.00,1.10
4573.00,1.10
4572.00,1.11
4571.00,1.11
4570.00,1.11
4569.00,1.11
4568.00,1.11
4567.00,1.11
4566.00,1.11
4565.00,1.11
4564.00,1.11
4563.00,1.11
4562.00,1.11
4561.00,1.11
4560.00,1.11
4559.00,1.11
4558.00,1.11
4557.00,1.11
4556.00,1.12
4555.00,1.12
4554.00,1.12
4553.00,1.12
4552.00,1.12
4551.00,1.12
4550.00,1.12
4549.00,1.12
4548.00,1.12
4547.00,1.12
4546.00,1.12
4545.00,1.12
4544.00,1.12
4543.00,1.12
4542.00,1.12
4541.00,1.12
4540.00,1.12
4539.00,1.12
4538.00,1.12
4537.00,1.12
4536.00,1.13
4535.00,1.13
4534.00,1.13
4533.00,1.13
4532.00,1.13
4531.00,1.13
4530.00,1.13
4529.00,1.13
4528.00,1.13
4527.00,1.13
4526.00,1.13
4525.00,1.13
4524.00,1.13
4523.00,1.14
4522.00,1.14
4521.00,1.14
4520.00,1.14
4519.00,1.14
4518.00,1.14
4517.00,1.14
4516.00,1.14
4515.00,1.14
4514.00,1.14
4513.00,1.14
4512.00,1.14
4511.00,1.14
4510.00,1.14
4509.00,1.14
4508.00,1.14
4507.00,1.14
4506.00,1.14
4505.00,1.14
4504.00,1.14
4503.00,1.14
4502.00,1.14
4501.00,1.14
4500.00,1.14
4499.00,1.14
4498.00,1.14
4497.00,1.14
4496.00,1.14
4495.00,1.14
4494.00,1.14
4493.00,1.14
4492.00,1.14
4491.00,1.14
4490.00,1.14
4489.00,1.14
4488.00,1.14
4487.00,1.14
4486.00,1.14
4485.00,1.14
4484.00,1.14
4483.00,1.14
4482.00,1.14
4481.00,1.14
4480.00,1.14
4479.00,1.14
4478.00,1.14
4477.00,1.14
4476.00,1.14
4475.00,1.13
4474.00,1.13
4473.00,1.13
4472.00,1.13
4471.00,1.13
4470.00,1.13
4469.00,1.13
4468.00,1.13
4467.00,1.13
4466.00,1.13
4465.00,1.12
4464.00,1.12
4463.00,1.12
4462.00,1.12
4461.00,1.12
4460.00,1.12
4459.00,1.12
4458.00,1.11
4457.00,1.11
4456.00,1.11
4455.00,1.11
4454.00,1.11
4453.00,1.10
4452.00,1.10
4451.00,1.10
4450.00,1.10
4449.00,1.09
4448.00,1.09
4447.00,1.09
4446.00,1.08
4445.00,1.08
4444.00,1.08
4443.00,1.08
4442.00,1.07
4441.00,1.07
4440.00,1.07
4439.00,1.07
4438.00,1.06
4437.00,1.06
4436.00,1.06
4435.00,1.06
4434.00,1.06
4433.00,1.06
4432.00,1.06
4431.00,1.06
4430.00,1.06
4429.00,1.06
4428.00,1.06
4427.00,1.06
4426.00,1.05
4425.00,1.05
4424.00,1.05
4423.00,1.05
4422.00,1.05
4421.00,1.05
4420.00,1.05
4419.00,1.05
4418.00,1.05
4417.00,1.05
4416.00,1.05
4415.00,1.05
4414.00,1.05
4413.00,1.05
4412.00,1.05
4411.00,1.05
4410.00,1.05
4409.00,1.05
4408.00,1.05
4407.00,1.06
4406.00,1.06
4405.00,1.06
4404.00,1.06
4403.00,1.06
4402.00,1.06
4401.00,1.06
4400.00,1.06
4399.00,1.06
4398.00,1.07
4397.00,1.07
4396.00,1.07
4395.00,1.07
4394.00,1.07
4393.00,1.07
4392.00,1.07
4391.00,1.07
4390.00,1.07
4389.00,1.07
4388.00,1.07
4387.00,1.07
4386.00,1.08
4385.00,1.08
4384.00,1.08
4383.00,1.08
4382.00,1.08
4381.00,1.08
4380.00,1.08
4379.00,1.08
4378.00,1.08
4377.00,1.08
4376.00,1.09
4375.00,1.09
4374.00,1.09
4373.00,1.09
4372.00,1.09
4371.00,1.09
4370.00,1.09
4369.00,1.09
4368.00,1.09
4367.00,1.09
4366.00,1.09
4365.00,1.09
4364.00,1.09
4363.00,1.09
4362.00,1.09
4361.00,1.09
4360.00,1.09
4359.00,1.08
4358.00,1.08
4357.00,1.08
4356.00,1.08
4355.00,1.08
4354.00,1.08
4353.00,1.08
4352.00,1.07
4351.00,1.07
4350.00,1.07
4349.00,1.07
4348.00,1.07
4347.00,1.07
4346.00,1.07
4345.00,1.07
4344.00,1.07
4343.00,1.08
4342.00,1.08
4341.00,1.08
4340.00,1.08
4339.00,1.08
4338.00,1.08
4337.00,1.08
4336.00,1.09
4335.00,1.09
4334.00,1.09
4333.00,1.09
4332.00,1.09
4331.00,1.09
4330.00,1.09
4329.00,1.09
4328.00,1.09
4327.00,1.09
4326.00,1.09
4325.00,1.09
4324.00,1.09
4323.00,1.09
4322.00,1.09
4321.00,1.09
4320.00,1.09
4319.00,1.09
4318.00,1.09
4317.00,1.09
4316.00,1.09
4315.00,1.10
4314.00,1.10
4313.00,1.10
4312.00,1.10
4311.00,1.11
4310.00,1.11
4309.00,1.11
4308.00,1.11
4307.00,1.11
4306.00,1.12
4305.00,1.12
4304.00,1.12
4303.00,1.12
4302.00,1.12
4301.00,1.13
4300.00,1.13
4299.00,1.13
4298.00,1.13
4297.00,1.13
4296.00,1.13
4295.00,1.13
4294.00,1.13
4293.00,1.13
4292.00,1.13
4291.00,1.14
4290.00,1.14
4289.00,1.14
4288.00,1.14
4287.00,1.14
4286.00,1.14
4285.00,1.14
4284.00,1.14
4283.00,1.14
4282.00,1.14
4281.00,1.14
4280.00,1.14
4279.00,1.14
4278.00,1.14
4277.00,1.14
4276.00,1.14
4275.00,1.14
4274.00,1.14
4273.00,1.14
4272.00,1.14
4271.00,1.14
4270.00,1.13
4269.00,1.13
4268.00,1.13
4267.00,1.13
4266.00,1.13
4265.00,1.13
4264.00,1.13
4263.00,1.13
4262.00,1.13
4261.00,1.13
4260.00,1.13
4259.00,1.13
4258.00,1.13
4257.00,1.13
4256.00,1.13
4255.00,1.13
4254.00,1.13
4253.00,1.13
4252.00,1.13
4251.00,1.13
4250.00,1.13
4249.00,1.13
4248.00,1.13
4247.00,1.13
4246.00,1.14
4245.00,1.14
4244.00,1.14
4243.00,1.14
4242.00,1.14
4241.00,1.15
4240.00,1.15
4239.00,1.15
4238.00,1.15
4237.00,1.16
4236.00,1.16
4235.00,1.16
4234.00,1.16
4233.00,1.16
4232.00,1.16
4231.00,1.16
4230.00,1.16
4229.00,1.16
4228.00,1.16
4227.00,1.16
4226.00,1.16
4225.00,1.16
4224.00,1.16
4223.00,1.16
4222.00,1.16
4221.00,1.16
4220.00,1.16
4219.00,1.16
4218.00,1.16
4217.00,1.16
4216.00,1.16
4215.00,1.16
4214.00,1.16
4213.00,1.16
4212.00,1.16
4211.00,1.16
4210.00,1.16
4209.00,1.16
4208.00,1.16
4207.00,1.16
4206.00,1.17
4205.00,1.17
4204.00,1.17
4203.00,1.17
4202.00,1.17
4201.00,1.17
4200.00,1.18
4199.00,1.18
4198.00,1.18
4197.00,1.18
4196.00,1.18
4195.00,1.18
4194.00,1.18
4193.00,1.18
4192.00,1.18
4191.00,1.18
4190.00,1.18
4189.00,1.19
4188.00,1.19
4187.00,1.19
4186.00,1.19
4185.00,1.19
4184.00,1.19
4183.00,1.19
4182.00,1.19
4181.00,1.19
4180.00,1.19
4179.00,1.19
4178.00,1.20
4177.00,1.20
4176.00,1.20
4175.00,1.20
4174.00,1.20
4173.00,1.20
4172.00,1.20
4171.00,1.20
4170.00,1.20
4169.00,1.19
4168.00,1.19
4167.00,1.19
4166.00,1.19
4165.00,1.19
4164.00,1.19
4163.00,1.19
4162.00,1.18
4161.00,1.18
4160.00,1.18
4159.00,1.18
4158.00,1.18
4157.00,1.18
4156.00,1.18
4155.00,1.18
4154.00,1.18
4153.00,1.18
4152.00,1.18
4151.00,1.18
4150.00,1.18
4149.00,1.18
4148.00,1.18
4147.00,1.18
4146.00,1.18
4145.00,1.19
4144.00,1.19
4143.00,1.19
4142.00,1.19
4141.00,1.19
4140.00,1.19
4139.00,1.20
4138.00,1.20
4137.00,1.20
4136.00,1.20
4135.00,1.20
4134.00,1.20
4133.00,1.20
4132.00,1.20
4131.00,1.21
4130.00,1.21
4129.00,1.21
4128.00,1.21
4127.00,1.21
4126.00,1.21
4125.00,1.21
4124.00,1.21
4123.00,1.21
4122.00,1.21
4121.00,1.21
4120.00,1.21
4119.00,1.21
4118.00,1.21
4117.00,1.22
4116.00,1.22
4115.00,1.22
4114.00,1.22
4113.00,1.22
4112.00,1.22
4111.00,1.22
4110.00,1.22
4109.00,1.22
4108.00,1.22
4107.00,1.22
4106.00,1.22
4105.00,1.22
4104.00,1.22
4103.00,1.22
4102.00,1.22
4101.00,1.22
4100.00,1.22
4099.00,1.22
4098.00,1.22
4097.00,1.22
4096.00,1.22
4095.00,1.22
4094.00,1.22
4093.00,1.22
4092.00,1.22
4091.00,1.22
4090.00,1.22
4089.00,1.22
4088.00,1.22
4087.00,1.22
4086.00,1.22
4085.00,1.23
4084.00,1.23
4083.00,1.23
4082.00,1.23
4081.00,1.23
4080.00,1.23
4079.00,1.23
4078.00,1.23
4077.00,1.23
4076.00,1.23
4075.00,1.23
4074.00,1.23
4073.00,1.23
4072.00,1.24
4071.00,1.24
4070.00,1.24
4069.00,1.24
4068.00,1.24
4067.00,1.24
4066.00,1.24
4065.00,1.24
4064.00,1.25
4063.00,1.25
4062.00,1.25
4061.00,1.25
4060.00,1.25
4059.00,1.25
4058.00,1.25
4057.00,1.25
4056.00,1.25
4055.00,1.25
4054.00,1.25
4053.00,1.25
4052.00,1.25
4051.00,1.25
4050.00,1.25
4049.00,1.25
4048.00,1.25
4047.00,1.25
4046.00,1.25
4045.00,1.26
4044.00,1.26
4043.00,1.26
4042.00,1.26
4041.00,1.26
4040.00,1.26
4039.00,1.26
4038.00,1.27
4037.00,1.27
4036.00,1.27
4035.00,1.27
4034.00,1.27
4033.00,1.27
4032.00,1.27
4031.00,1.27
4030.00,1.27
4029.00,1.27
4028.00,1.27
4027.00,1.27
4026.00,1.27
4025.00,1.27
4024.00,1.27
4023.00,1.27
4022.00,1.27
4021.00,1.27
4020.00,1.27
4019.00,1.27
4018.00,1.27
4017.00,1.26
4016.00,1.26
4015.00,1.26
4014.00,1.26
4013.00,1.26
4012.00,1.26
4011.00,1.26
4010.00,1.26
4009.00,1.27
4008.00,1.27
4007.00,1.27
4006.00,1.27
4005.00,1.27
4004.00,1.27
4003.00,1.27
4002.00,1.27
4001.00,1.27
4000.00,1.28
