创建为新数据集,样品 085 用户 Administrator 日期 星期六, 七月 21 2018
cm-1,%T
10000.00,1.37
9999.00,1.37
9998.00,1.37
9997.00,1.37
9996.00,1.37
9995.00,1.37
9994.00,1.37
9993.00,1.37
9992.00,1.37
9991.00,1.37
9990.00,1.37
9989.00,1.37
9988.00,1.37
9987.00,1.37
9986.00,1.37
9985.00,1.37
9984.00,1.36
9983.00,1.36
9982.00,1.36
9981.00,1.36
9980.00,1.36
9979.00,1.36
9978.00,1.36
9977.00,1.36
9976.00,1.36
9975.00,1.36
9974.00,1.36
9973.00,1.36
9972.00,1.36
9971.00,1.36
9970.00,1.35
9969.00,1.35
9968.00,1.35
9967.00,1.35
9966.00,1.35
9965.00,1.35
9964.00,1.35
9963.00,1.35
9962.00,1.35
9961.00,1.35
9960.00,1.35
9959.00,1.35
9958.00,1.35
9957.00,1.34
9956.00,1.34
9955.00,1.34
9954.00,1.34
9953.00,1.34
9952.00,1.34
9951.00,1.34
9950.00,1.34
9949.00,1.34
9948.00,1.34
9947.00,1.35
9946.00,1.35
9945.00,1.35
9944.00,1.35
9943.00,1.35
9942.00,1.35
9941.00,1.35
9940.00,1.35
9939.00,1.35
9938.00,1.35
9937.00,1.36
9936.00,1.36
9935.00,1.36
9934.00,1.36
9933.00,1.36
9932.00,1.36
9931.00,1.37
9930.00,1.37
9929.00,1.37
9928.00,1.37
9927.00,1.37
9926.00,1.37
9925.00,1.37
9924.00,1.37
9923.00,1.37
9922.00,1.36
9921.00,1.36
9920.00,1.36
9919.00,1.35
9918.00,1.35
9917.00,1.35
9916.00,1.34
9915.00,1.34
9914.00,1.33
9913.00,1.33
9912.00,1.32
9911.00,1.32
9910.00,1.32
9909.00,1.31
9908.00,1.31
9907.00,1.31
9906.00,1.31
9905.00,1.31
9904.00,1.30
9903.00,1.30
9902.00,1.30
9901.00,1.30
9900.00,1.30
9899.00,1.30
9898.00,1.30
9897.00,1.30
9896.00,1.30
9895.00,1.30
9894.00,1.29
9893.00,1.29
9892.00,1.29
9891.00,1.29
9890.00,1.28
9889.00,1.28
9888.00,1.28
9887.00,1.28
9886.00,1.27
9885.00,1.27
9884.00,1.27
9883.00,1.27
9882.00,1.27
9881.00,1.27
9880.00,1.27
9879.00,1.27
9878.00,1.27
9877.00,1.27
9876.00,1.28
9875.00,1.28
9874.00,1.28
9873.00,1.29
9872.00,1.29
9871.00,1.30
9870.00,1.30
9869.00,1.31
9868.00,1.31
9867.00,1.31
9866.00,1.32
9865.00,1.32
9864.00,1.32
9863.00,1.33
9862.00,1.33
9861.00,1.33
9860.00,1.33
9859.00,1.33
9858.00,1.33
9857.00,1.33
9856.00,1.33
9855.00,1.33
9854.00,1.33
9853.00,1.33
9852.00,1.33
9851.00,1.33
9850.00,1.33
9849.00,1.32
9848.00,1.32
9847.00,1.32
9846.00,1.32
9845.00,1.32
9844.00,1.32
9843.00,1.32
9842.00,1.32
9841.00,1.31
9840.00,1.31
9839.00,1.31
9838.00,1.31
9837.00,1.31
9836.00,1.31
9835.00,1.31
9834.00,1.31
9833.00,1.31
9832.00,1.31
9831.00,1.31
9830.00,1.31
9829.00,1.31
9828.00,1.30
9827.00,1.30
9826.00,1.30
9825.00,1.30
9824.00,1.30
9823.00,1.30
9822.00,1.30
9821.00,1.30
9820.00,1.30
9819.00,1.30
9818.00,1.30
9817.00,1.30
9816.00,1.30
9815.00,1.30
9814.00,1.31
9813.00,1.31
9812.00,1.31
9811.00,1.31
9810.00,1.31
9809.00,1.31
9808.00,1.32
9807.00,1.32
9806.00,1.32
9805.00,1.32
9804.00,1.32
9803.00,1.32
9802.00,1.32
9801.00,1.32
9800.00,1.32
9799.00,1.32
9798.00,1.32
9797.00,1.32
9796.00,1.32
9795.00,1.32
9794.00,1.31
9793.00,1.31
9792.00,1.31
9791.00,1.31
9790.00,1.31
9789.00,1.30
9788.00,1.30
9787.00,1.30
9786.00,1.29
9785.00,1.29
9784.00,1.29
9783.00,1.28
9782.00,1.28
9781.00,1.28
9780.00,1.27
9779.00,1.27
9778.00,1.27
9777.00,1.27
9776.00,1.27
9775.00,1.26
9774.00,1.26
9773.00,1.26
9772.00,1.27
9771.00,1.27
9770.00,1.27
9769.00,1.27
9768.00,1.27
9767.00,1.27
9766.00,1.28
9765.00,1.28
9764.00,1.28
9763.00,1.28
9762.00,1.29
9761.00,1.29
9760.00,1.30
9759.00,1.30
9758.00,1.30
9757.00,1.31
9756.00,1.31
9755.00,1.31
9754.00,1.32
9753.00,1.32
9752.00,1.32
9751.00,1.33
9750.00,1.33
9749.00,1.33
9748.00,1.33
9747.00,1.33
9746.00,1.33
9745.00,1.33
9744.00,1.33
9743.00,1.33
9742.00,1.33
9741.00,1.33
9740.00,1.33
9739.00,1.33
9738.00,1.33
9737.00,1.33
9736.00,1.32
9735.00,1.32
9734.00,1.32
9733.00,1.32
9732.00,1.32
9731.00,1.31
9730.00,1.31
9729.00,1.31
9728.00,1.31
9727.00,1.31
9726.00,1.31
9725.00,1.31
9724.00,1.31
9723.00,1.31
9722.00,1.31
9721.00,1.31
9720.00,1.31
9719.00,1.31
9718.00,1.31
9717.00,1.31
9716.00,1.31
9715.00,1.31
9714.00,1.31
9713.00,1.31
9712.00,1.31
9711.00,1.31
9710.00,1.31
9709.00,1.31
9708.00,1.31
9707.00,1.30
9706.00,1.30
9705.00,1.30
9704.00,1.30
9703.00,1.30
9702.00,1.30
9701.00,1.30
9700.00,1.30
9699.00,1.30
9698.00,1.30
9697.00,1.30
9696.00,1.30
9695.00,1.30
9694.00,1.30
9693.00,1.30
9692.00,1.30
9691.00,1.30
9690.00,1.31
9689.00,1.31
9688.00,1.31
9687.00,1.32
9686.00,1.32
9685.00,1.32
9684.00,1.33
9683.00,1.33
9682.00,1.33
9681.00,1.34
9680.00,1.34
9679.00,1.34
9678.00,1.35
9677.00,1.35
9676.00,1.35
9675.00,1.35
9674.00,1.36
9673.00,1.36
9672.00,1.36
9671.00,1.36
9670.00,1.36
9669.00,1.36
9668.00,1.36
9667.00,1.35
9666.00,1.35
9665.00,1.35
9664.00,1.35
9663.00,1.35
9662.00,1.35
9661.00,1.34
9660.00,1.34
9659.00,1.34
9658.00,1.34
9657.00,1.34
9656.00,1.33
9655.00,1.33
9654.00,1.33
9653.00,1.33
9652.00,1.33
9651.00,1.32
9650.00,1.32
9649.00,1.32
9648.00,1.32
9647.00,1.32
9646.00,1.31
9645.00,1.31
9644.00,1.31
9643.00,1.31
9642.00,1.31
9641.00,1.31
9640.00,1.31
9639.00,1.30
9638.00,1.30
9637.00,1.30
9636.00,1.30
9635.00,1.30
9634.00,1.30
9633.00,1.30
9632.00,1.30
9631.00,1.30
9630.00,1.31
9629.00,1.31
9628.00,1.31
9627.00,1.31
9626.00,1.31
9625.00,1.31
9624.00,1.31
9623.00,1.32
9622.00,1.32
9621.00,1.32
9620.00,1.32
9619.00,1.32
9618.00,1.33
9617.00,1.33
9616.00,1.33
9615.00,1.33
9614.00,1.34
9613.00,1.34
9612.00,1.34
9611.00,1.34
9610.00,1.35
9609.00,1.35
9608.00,1.35
9607.00,1.35
9606.00,1.36
9605.00,1.36
9604.00,1.36
9603.00,1.36
9602.00,1.36
9601.00,1.36
9600.00,1.36
9599.00,1.36
9598.00,1.36
9597.00,1.36
9596.00,1.35
9595.00,1.35
9594.00,1.35
9593.00,1.35
9592.00,1.34
9591.00,1.34
9590.00,1.33
9589.00,1.33
9588.00,1.32
9587.00,1.32
9586.00,1.32
9585.00,1.31
9584.00,1.31
9583.00,1.30
9582.00,1.30
9581.00,1.30
9580.00,1.30
9579.00,1.30
9578.00,1.30
9577.00,1.30
9576.00,1.30
9575.00,1.30
9574.00,1.30
9573.00,1.30
9572.00,1.31
9571.00,1.31
9570.00,1.31
9569.00,1.31
9568.00,1.32
9567.00,1.32
9566.00,1.32
9565.00,1.32
9564.00,1.33
9563.00,1.33
9562.00,1.33
9561.00,1.33
9560.00,1.33
9559.00,1.33
9558.00,1.33
9557.00,1.33
9556.00,1.33
9555.00,1.33
9554.00,1.33
9553.00,1.33
9552.00,1.32
9551.00,1.32
9550.00,1.32
9549.00,1.32
9548.00,1.32
9547.00,1.32
9546.00,1.32
9545.00,1.32
9544.00,1.32
9543.00,1.32
9542.00,1.32
9541.00,1.32
9540.00,1.32
9539.00,1.32
9538.00,1.33
9537.00,1.33
9536.00,1.33
9535.00,1.33
9534.00,1.33
9533.00,1.33
9532.00,1.33
9531.00,1.34
9530.00,1.34
9529.00,1.34
9528.00,1.34
9527.00,1.34
9526.00,1.34
9525.00,1.34
9524.00,1.34
9523.00,1.34
9522.00,1.34
9521.00,1.33
9520.00,1.33
9519.00,1.33
9518.00,1.33
9517.00,1.33
9516.00,1.33
9515.00,1.33
9514.00,1.32
9513.00,1.32
9512.00,1.32
9511.00,1.32
9510.00,1.32
9509.00,1.32
9508.00,1.32
9507.00,1.32
9506.00,1.32
9505.00,1.32
9504.00,1.32
9503.00,1.32
9502.00,1.32
9501.00,1.32
9500.00,1.32
9499.00,1.32
9498.00,1.32
9497.00,1.32
9496.00,1.32
9495.00,1.33
9494.00,1.33
9493.00,1.33
9492.00,1.33
9491.00,1.34
9490.00,1.34
9489.00,1.34
9488.00,1.34
9487.00,1.35
9486.00,1.35
9485.00,1.35
9484.00,1.36
9483.00,1.36
9482.00,1.36
9481.00,1.36
9480.00,1.36
9479.00,1.37
9478.00,1.37
9477.00,1.37
9476.00,1.37
9475.00,1.37
9474.00,1.37
9473.00,1.36
9472.00,1.36
9471.00,1.36
9470.00,1.36
9469.00,1.35
9468.00,1.35
9467.00,1.35
9466.00,1.35
9465.00,1.34
9464.00,1.34
9463.00,1.34
9462.00,1.34
9461.00,1.33
9460.00,1.33
9459.00,1.33
9458.00,1.33
9457.00,1.33
9456.00,1.33
9455.00,1.33
9454.00,1.33
9453.00,1.33
9452.00,1.33
9451.00,1.33
9450.00,1.33
9449.00,1.33
9448.00,1.33
9447.00,1.33
9446.00,1.33
9445.00,1.33
9444.00,1.33
9443.00,1.33
9442.00,1.33
9441.00,1.33
9440.00,1.32
9439.00,1.32
9438.00,1.32
9437.00,1.32
9436.00,1.32
9435.00,1.32
9434.00,1.32
9433.00,1.31
9432.00,1.31
9431.00,1.31
9430.00,1.31
9429.00,1.31
9428.00,1.31
9427.00,1.31
9426.00,1.31
9425.00,1.31
9424.00,1.31
9423.00,1.31
9422.00,1.32
9421.00,1.32
9420.00,1.32
9419.00,1.32
9418.00,1.32
9417.00,1.32
9416.00,1.33
9415.00,1.33
9414.00,1.33
9413.00,1.33
9412.00,1.33
9411.00,1.33
9410.00,1.34
9409.00,1.34
9408.00,1.34
9407.00,1.34
9406.00,1.34
9405.00,1.34
9404.00,1.34
9403.00,1.35
9402.00,1.35
9401.00,1.35
9400.00,1.35
9399.00,1.35
9398.00,1.35
9397.00,1.36
9396.00,1.36
9395.00,1.36
9394.00,1.36
9393.00,1.36
9392.00,1.36
9391.00,1.36
9390.00,1.36
9389.00,1.37
9388.00,1.37
9387.00,1.37
9386.00,1.37
9385.00,1.37
9384.00,1.37
9383.00,1.37
9382.00,1.36
9381.00,1.36
9380.00,1.36
9379.00,1.36
9378.00,1.36
9377.00,1.36
9376.00,1.36
9375.00,1.36
9374.00,1.35
9373.00,1.35
9372.00,1.35
9371.00,1.35
9370.00,1.35
9369.00,1.35
9368.00,1.35
9367.00,1.34
9366.00,1.34
9365.00,1.34
9364.00,1.34
9363.00,1.34
9362.00,1.34
9361.00,1.34
9360.00,1.33
9359.00,1.33
9358.00,1.33
9357.00,1.33
9356.00,1.33
9355.00,1.33
9354.00,1.32
9353.00,1.32
9352.00,1.32
9351.00,1.32
9350.00,1.32
9349.00,1.32
9348.00,1.32
9347.00,1.32
9346.00,1.32
9345.00,1.32
9344.00,1.32
9343.00,1.32
9342.00,1.32
9341.00,1.32
9340.00,1.32
9339.00,1.32
9338.00,1.33
9337.00,1.33
9336.00,1.33
9335.00,1.33
9334.00,1.33
9333.00,1.34
9332.00,1.34
9331.00,1.34
9330.00,1.34
9329.00,1.34
9328.00,1.34
9327.00,1.34
9326.00,1.34
9325.00,1.34
9324.00,1.34
9323.00,1.34
9322.00,1.34
9321.00,1.34
9320.00,1.33
9319.00,1.33
9318.00,1.33
9317.00,1.33
9316.00,1.33
9315.00,1.33
9314.00,1.33
9313.00,1.32
9312.00,1.32
9311.00,1.32
9310.00,1.32
9309.00,1.32
9308.00,1.32
9307.00,1.32
9306.00,1.32
9305.00,1.32
9304.00,1.33
9303.00,1.33
9302.00,1.33
9301.00,1.33
9300.00,1.33
9299.00,1.33
9298.00,1.34
9297.00,1.34
9296.00,1.34
9295.00,1.34
9294.00,1.34
9293.00,1.34
9292.00,1.34
9291.00,1.34
9290.00,1.34
9289.00,1.34
9288.00,1.34
9287.00,1.34
9286.00,1.34
9285.00,1.33
9284.00,1.33
9283.00,1.33
9282.00,1.33
9281.00,1.33
9280.00,1.33
9279.00,1.33
9278.00,1.33
9277.00,1.33
9276.00,1.33
9275.00,1.33
9274.00,1.33
9273.00,1.34
9272.00,1.34
9271.00,1.34
9270.00,1.35
9269.00,1.35
9268.00,1.35
9267.00,1.35
9266.00,1.36
9265.00,1.36
9264.00,1.36
9263.00,1.36
9262.00,1.37
9261.00,1.37
9260.00,1.37
9259.00,1.37
9258.00,1.37
9257.00,1.37
9256.00,1.37
9255.00,1.37
9254.00,1.36
9253.00,1.36
9252.00,1.36
9251.00,1.36
9250.00,1.36
9249.00,1.36
9248.00,1.35
9247.00,1.35
9246.00,1.35
9245.00,1.35
9244.00,1.35
9243.00,1.35
9242.00,1.35
9241.00,1.35
9240.00,1.35
9239.00,1.35
9238.00,1.35
9237.00,1.35
9236.00,1.35
9235.00,1.35
9234.00,1.35
9233.00,1.35
9232.00,1.35
9231.00,1.35
9230.00,1.35
9229.00,1.35
9228.00,1.35
9227.00,1.35
9226.00,1.35
9225.00,1.35
9224.00,1.35
9223.00,1.35
9222.00,1.35
9221.00,1.35
9220.00,1.35
9219.00,1.35
9218.00,1.35
9217.00,1.35
9216.00,1.35
9215.00,1.35
9214.00,1.35
9213.00,1.35
9212.00,1.35
9211.00,1.35
9210.00,1.35
9209.00,1.35
9208.00,1.35
9207.00,1.34
9206.00,1.34
9205.00,1.34
9204.00,1.34
9203.00,1.34
9202.00,1.34
9201.00,1.34
9200.00,1.34
9199.00,1.34
9198.00,1.34
9197.00,1.34
9196.00,1.34
9195.00,1.34
9194.00,1.34
9193.00,1.34
9192.00,1.34
9191.00,1.34
9190.00,1.34
9189.00,1.34
9188.00,1.34
9187.00,1.34
9186.00,1.34
9185.00,1.35
9184.00,1.35
9183.00,1.35
9182.00,1.35
9181.00,1.35
9180.00,1.36
9179.00,1.36
9178.00,1.36
9177.00,1.36
9176.00,1.36
9175.00,1.36
9174.00,1.36
9173.00,1.36
9172.00,1.35
9171.00,1.35
9170.00,1.35
9169.00,1.35
9168.00,1.35
9167.00,1.35
9166.00,1.34
9165.00,1.34
9164.00,1.34
9163.00,1.34
9162.00,1.34
9161.00,1.34
9160.00,1.34
9159.00,1.34
9158.00,1.34
9157.00,1.34
9156.00,1.34
9155.00,1.34
9154.00,1.34
9153.00,1.34
9152.00,1.34
9151.00,1.34
9150.00,1.34
9149.00,1.34
9148.00,1.34
9147.00,1.34
9146.00,1.34
9145.00,1.34
9144.00,1.35
9143.00,1.35
9142.00,1.35
9141.00,1.35
9140.00,1.35
9139.00,1.35
9138.00,1.35
9137.00,1.35
9136.00,1.35
9135.00,1.35
9134.00,1.35
9133.00,1.36
9132.00,1.36
9131.00,1.36
9130.00,1.36
9129.00,1.36
9128.00,1.36
9127.00,1.36
9126.00,1.36
9125.00,1.37
9124.00,1.37
9123.00,1.37
9122.00,1.37
9121.00,1.37
9120.00,1.37
9119.00,1.37
9118.00,1.37
9117.00,1.37
9116.00,1.37
9115.00,1.37
9114.00,1.37
9113.00,1.37
9112.00,1.37
9111.00,1.37
9110.00,1.37
9109.00,1.37
9108.00,1.37
9107.00,1.37
9106.00,1.37
9105.00,1.37
9104.00,1.36
9103.00,1.36
9102.00,1.36
9101.00,1.36
9100.00,1.36
9099.00,1.36
9098.00,1.36
9097.00,1.36
9096.00,1.36
9095.00,1.36
9094.00,1.36
9093.00,1.36
9092.00,1.36
9091.00,1.35
9090.00,1.35
9089.00,1.35
9088.00,1.35
9087.00,1.35
9086.00,1.35
9085.00,1.35
9084.00,1.35
9083.00,1.35
9082.00,1.35
9081.00,1.35
9080.00,1.35
9079.00,1.35
9078.00,1.35
9077.00,1.35
9076.00,1.35
9075.00,1.35
9074.00,1.35
9073.00,1.35
9072.00,1.35
9071.00,1.35
9070.00,1.36
9069.00,1.36
9068.00,1.36
9067.00,1.36
9066.00,1.36
9065.00,1.36
9064.00,1.35
9063.00,1.35
9062.00,1.35
9061.00,1.35
9060.00,1.35
9059.00,1.35
9058.00,1.35
9057.00,1.34
9056.00,1.34
9055.00,1.34
9054.00,1.34
9053.00,1.34
9052.00,1.34
9051.00,1.34
9050.00,1.34
9049.00,1.34
9048.00,1.33
9047.00,1.33
9046.00,1.33
9045.00,1.33
9044.00,1.33
9043.00,1.33
9042.00,1.33
9041.00,1.33
9040.00,1.33
9039.00,1.33
9038.00,1.33
9037.00,1.33
9036.00,1.34
9035.00,1.34
9034.00,1.34
9033.00,1.34
9032.00,1.34
9031.00,1.34
9030.00,1.34
9029.00,1.34
9028.00,1.35
9027.00,1.35
9026.00,1.35
9025.00,1.35
9024.00,1.35
9023.00,1.36
9022.00,1.36
9021.00,1.36
9020.00,1.36
9019.00,1.36
9018.00,1.36
9017.00,1.36
9016.00,1.36
9015.00,1.37
9014.00,1.36
9013.00,1.36
9012.00,1.36
9011.00,1.36
9010.00,1.36
9009.00,1.36
9008.00,1.36
9007.00,1.36
9006.00,1.36
9005.00,1.35
9004.00,1.35
9003.00,1.35
9002.00,1.35
9001.00,1.35
9000.00,1.35
8999.00,1.35
8998.00,1.35
8997.00,1.35
8996.00,1.35
8995.00,1.35
8994.00,1.35
8993.00,1.35
8992.00,1.35
8991.00,1.35
8990.00,1.35
8989.00,1.35
8988.00,1.35
8987.00,1.35
8986.00,1.35
8985.00,1.35
8984.00,1.35
8983.00,1.35
8982.00,1.35
8981.00,1.35
8980.00,1.35
8979.00,1.35
8978.00,1.35
8977.00,1.35
8976.00,1.35
8975.00,1.35
8974.00,1.35
8973.00,1.35
8972.00,1.35
8971.00,1.36
8970.00,1.36
8969.00,1.36
8968.00,1.36
8967.00,1.36
8966.00,1.36
8965.00,1.36
8964.00,1.36
8963.00,1.36
8962.00,1.36
8961.00,1.36
8960.00,1.36
8959.00,1.37
8958.00,1.37
8957.00,1.37
8956.00,1.37
8955.00,1.37
8954.00,1.37
8953.00,1.37
8952.00,1.37
8951.00,1.37
8950.00,1.37
8949.00,1.37
8948.00,1.37
8947.00,1.37
8946.00,1.37
8945.00,1.37
8944.00,1.37
8943.00,1.37
8942.00,1.37
8941.00,1.36
8940.00,1.36
8939.00,1.36
8938.00,1.36
8937.00,1.36
8936.00,1.36
8935.00,1.35
8934.00,1.35
8933.00,1.35
8932.00,1.34
8931.00,1.34
8930.00,1.34
8929.00,1.34
8928.00,1.33
8927.00,1.33
8926.00,1.33
8925.00,1.33
8924.00,1.33
8923.00,1.33
8922.00,1.33
8921.00,1.33
8920.00,1.33
8919.00,1.33
8918.00,1.33
8917.00,1.33
8916.00,1.33
8915.00,1.33
8914.00,1.33
8913.00,1.33
8912.00,1.33
8911.00,1.33
8910.00,1.33
8909.00,1.34
8908.00,1.34
8907.00,1.34
8906.00,1.34
8905.00,1.34
8904.00,1.35
8903.00,1.35
8902.00,1.35
8901.00,1.35
8900.00,1.35
8899.00,1.35
8898.00,1.36
8897.00,1.36
8896.00,1.36
8895.00,1.36
8894.00,1.36
8893.00,1.36
8892.00,1.36
8891.00,1.36
8890.00,1.36
8889.00,1.36
8888.00,1.36
8887.00,1.36
8886.00,1.36
8885.00,1.36
8884.00,1.36
8883.00,1.36
8882.00,1.36
8881.00,1.36
8880.00,1.36
8879.00,1.36
8878.00,1.36
8877.00,1.36
8876.00,1.36
8875.00,1.36
8874.00,1.36
8873.00,1.36
8872.00,1.36
8871.00,1.36
8870.00,1.36
8869.00,1.36
8868.00,1.36
8867.00,1.36
8866.00,1.36
8865.00,1.36
8864.00,1.35
8863.00,1.35
8862.00,1.35
8861.00,1.35
8860.00,1.34
8859.00,1.34
8858.00,1.34
8857.00,1.34
8856.00,1.33
8855.00,1.33
8854.00,1.33
8853.00,1.33
8852.00,1.33
8851.00,1.33
8850.00,1.33
8849.00,1.33
8848.00,1.33
8847.00,1.33
8846.00,1.33
8845.00,1.33
8844.00,1.33
8843.00,1.33
8842.00,1.33
8841.00,1.33
8840.00,1.33
8839.00,1.33
8838.00,1.33
8837.00,1.33
8836.00,1.33
8835.00,1.33
8834.00,1.33
8833.00,1.33
8832.00,1.34
8831.00,1.34
8830.00,1.34
8829.00,1.34
8828.00,1.34
8827.00,1.34
8826.00,1.34
8825.00,1.34
8824.00,1.35
8823.00,1.35
8822.00,1.35
8821.00,1.35
8820.00,1.35
8819.00,1.34
8818.00,1.34
8817.00,1.34
8816.00,1.34
8815.00,1.34
8814.00,1.34
8813.00,1.34
8812.00,1.34
8811.00,1.34
8810.00,1.34
8809.00,1.34
8808.00,1.34
8807.00,1.34
8806.00,1.34
8805.00,1.34
8804.00,1.33
8803.00,1.33
8802.00,1.33
8801.00,1.33
8800.00,1.33
8799.00,1.33
8798.00,1.33
8797.00,1.33
8796.00,1.33
8795.00,1.33
8794.00,1.32
8793.00,1.32
8792.00,1.32
8791.00,1.32
8790.00,1.31
8789.00,1.31
8788.00,1.31
8787.00,1.30
8786.00,1.30
8785.00,1.30
8784.00,1.30
8783.00,1.30
8782.00,1.30
8781.00,1.29
8780.00,1.29
8779.00,1.29
8778.00,1.29
8777.00,1.29
8776.00,1.29
8775.00,1.30
8774.00,1.30
8773.00,1.30
8772.00,1.30
8771.00,1.30
8770.00,1.30
8769.00,1.30
8768.00,1.30
8767.00,1.31
8766.00,1.31
8765.00,1.31
8764.00,1.31
8763.00,1.31
8762.00,1.31
8761.00,1.31
8760.00,1.31
8759.00,1.31
8758.00,1.31
8757.00,1.31
8756.00,1.31
8755.00,1.31
8754.00,1.30
8753.00,1.30
8752.00,1.30
8751.00,1.30
8750.00,1.30
8749.00,1.29
8748.00,1.29
8747.00,1.29
8746.00,1.29
8745.00,1.28
8744.00,1.28
8743.00,1.28
8742.00,1.28
8741.00,1.28
8740.00,1.28
8739.00,1.28
8738.00,1.28
8737.00,1.28
8736.00,1.28
8735.00,1.28
8734.00,1.28
8733.00,1.28
8732.00,1.28
8731.00,1.28
8730.00,1.28
8729.00,1.29
8728.00,1.29
8727.00,1.29
8726.00,1.29
8725.00,1.29
8724.00,1.29
8723.00,1.29
8722.00,1.29
8721.00,1.29
8720.00,1.29
8719.00,1.29
8718.00,1.29
8717.00,1.29
8716.00,1.29
8715.00,1.29
8714.00,1.29
8713.00,1.29
8712.00,1.28
8711.00,1.28
8710.00,1.28
8709.00,1.28
8708.00,1.27
8707.00,1.27
8706.00,1.27
8705.00,1.26
8704.00,1.26
8703.00,1.26
8702.00,1.25
8701.00,1.25
8700.00,1.25
8699.00,1.25
8698.00,1.24
8697.00,1.24
8696.00,1.24
8695.00,1.24
8694.00,1.24
8693.00,1.24
8692.00,1.24
8691.00,1.24
8690.00,1.24
8689.00,1.24
8688.00,1.24
8687.00,1.23
8686.00,1.23
8685.00,1.23
8684.00,1.23
8683.00,1.23
8682.00,1.23
8681.00,1.23
8680.00,1.23
8679.00,1.24
8678.00,1.24
8677.00,1.24
8676.00,1.24
8675.00,1.24
8674.00,1.24
8673.00,1.24
8672.00,1.25
8671.00,1.25
8670.00,1.25
8669.00,1.25
8668.00,1.25
8667.00,1.26
8666.00,1.26
8665.00,1.26
8664.00,1.26
8663.00,1.26
8662.00,1.26
8661.00,1.27
8660.00,1.27
8659.00,1.27
8658.00,1.27
8657.00,1.27
8656.00,1.27
8655.00,1.27
8654.00,1.27
8653.00,1.27
8652.00,1.27
8651.00,1.27
8650.00,1.26
8649.00,1.26
8648.00,1.26
8647.00,1.26
8646.00,1.26
8645.00,1.26
8644.00,1.26
8643.00,1.26
8642.00,1.26
8641.00,1.26
8640.00,1.25
8639.00,1.25
8638.00,1.25
8637.00,1.25
8636.00,1.25
8635.00,1.25
8634.00,1.25
8633.00,1.25
8632.00,1.25
8631.00,1.25
8630.00,1.25
8629.00,1.25
8628.00,1.25
8627.00,1.25
8626.00,1.24
8625.00,1.24
8624.00,1.24
8623.00,1.24
8622.00,1.24
8621.00,1.24
8620.00,1.24
8619.00,1.24
8618.00,1.24
8617.00,1.24
8616.00,1.23
8615.00,1.23
8614.00,1.23
8613.00,1.23
8612.00,1.23
8611.00,1.23
8610.00,1.23
8609.00,1.23
8608.00,1.23
8607.00,1.23
8606.00,1.23
8605.00,1.22
8604.00,1.22
8603.00,1.22
8602.00,1.22
8601.00,1.22
8600.00,1.22
8599.00,1.22
8598.00,1.22
8597.00,1.22
8596.00,1.22
8595.00,1.22
8594.00,1.22
8593.00,1.22
8592.00,1.22
8591.00,1.22
8590.00,1.22
8589.00,1.23
8588.00,1.23
8587.00,1.23
8586.00,1.23
8585.00,1.23
8584.00,1.23
8583.00,1.23
8582.00,1.23
8581.00,1.23
8580.00,1.23
8579.00,1.23
8578.00,1.23
8577.00,1.23
8576.00,1.23
8575.00,1.22
8574.00,1.22
8573.00,1.22
8572.00,1.22
8571.00,1.22
8570.00,1.22
8569.00,1.22
8568.00,1.22
8567.00,1.22
8566.00,1.22
8565.00,1.22
8564.00,1.22
8563.00,1.22
8562.00,1.23
8561.00,1.23
8560.00,1.23
8559.00,1.23
8558.00,1.23
8557.00,1.23
8556.00,1.23
8555.00,1.24
8554.00,1.24
8553.00,1.24
8552.00,1.24
8551.00,1.24
8550.00,1.24
8549.00,1.24
8548.00,1.24
8547.00,1.24
8546.00,1.24
8545.00,1.24
8544.00,1.24
8543.00,1.24
8542.00,1.24
8541.00,1.24
8540.00,1.24
8539.00,1.24
8538.00,1.23
8537.00,1.23
8536.00,1.23
8535.00,1.23
8534.00,1.23
8533.00,1.23
8532.00,1.23
8531.00,1.23
8530.00,1.22
8529.00,1.22
8528.00,1.22
8527.00,1.22
8526.00,1.22
8525.00,1.22
8524.00,1.22
8523.00,1.21
8522.00,1.21
8521.00,1.21
8520.00,1.21
8519.00,1.21
8518.00,1.21
8517.00,1.21
8516.00,1.20
8515.00,1.20
8514.00,1.20
8513.00,1.20
8512.00,1.20
8511.00,1.20
8510.00,1.19
8509.00,1.19
8508.00,1.19
8507.00,1.19
8506.00,1.19
8505.00,1.19
8504.00,1.18
8503.00,1.18
8502.00,1.18
8501.00,1.18
8500.00,1.18
8499.00,1.18
8498.00,1.18
8497.00,1.18
8496.00,1.18
8495.00,1.18
8494.00,1.18
8493.00,1.18
8492.00,1.18
8491.00,1.18
8490.00,1.18
8489.00,1.18
8488.00,1.18
8487.00,1.19
8486.00,1.19
8485.00,1.19
8484.00,1.19
8483.00,1.19
8482.00,1.19
8481.00,1.19
8480.00,1.19
8479.00,1.19
8478.00,1.19
8477.00,1.19
8476.00,1.18
8475.00,1.18
8474.00,1.18
8473.00,1.18
8472.00,1.18
8471.00,1.18
8470.00,1.18
8469.00,1.17
8468.00,1.17
8467.00,1.17
8466.00,1.17
8465.00,1.17
8464.00,1.17
8463.00,1.17
8462.00,1.16
8461.00,1.16
8460.00,1.16
8459.00,1.16
8458.00,1.16
8457.00,1.16
8456.00,1.16
8455.00,1.16
8454.00,1.16
8453.00,1.16
8452.00,1.16
8451.00,1.17
8450.00,1.17
8449.00,1.17
8448.00,1.17
8447.00,1.17
8446.00,1.17
8445.00,1.17
8444.00,1.17
8443.00,1.17
8442.00,1.17
8441.00,1.17
8440.00,1.17
8439.00,1.17
8438.00,1.17
8437.00,1.17
8436.00,1.17
8435.00,1.17
8434.00,1.17
8433.00,1.17
8432.00,1.17
8431.00,1.17
8430.00,1.18
8429.00,1.18
8428.00,1.18
8427.00,1.18
8426.00,1.18
8425.00,1.18
8424.00,1.18
8423.00,1.19
8422.00,1.19
8421.00,1.19
8420.00,1.19
8419.00,1.19
8418.00,1.19
8417.00,1.19
8416.00,1.19
8415.00,1.19
8414.00,1.19
8413.00,1.19
8412.00,1.19
8411.00,1.19
8410.00,1.19
8409.00,1.19
8408.00,1.19
8407.00,1.19
8406.00,1.19
8405.00,1.19
8404.00,1.19
8403.00,1.19
8402.00,1.19
8401.00,1.19
8400.00,1.19
8399.00,1.19
8398.00,1.19
8397.00,1.19
8396.00,1.19
8395.00,1.19
8394.00,1.19
8393.00,1.19
8392.00,1.19
8391.00,1.19
8390.00,1.19
8389.00,1.19
8388.00,1.19
8387.00,1.19
8386.00,1.19
8385.00,1.19
8384.00,1.19
8383.00,1.19
8382.00,1.19
8381.00,1.19
8380.00,1.19
8379.00,1.19
8378.00,1.19
8377.00,1.19
8376.00,1.20
8375.00,1.20
8374.00,1.20
8373.00,1.20
8372.00,1.20
8371.00,1.20
8370.00,1.20
8369.00,1.20
8368.00,1.20
8367.00,1.21
8366.00,1.21
8365.00,1.21
8364.00,1.21
8363.00,1.21
8362.00,1.21
8361.00,1.21
8360.00,1.21
8359.00,1.21
8358.00,1.21
8357.00,1.21
8356.00,1.21
8355.00,1.21
8354.00,1.21
8353.00,1.21
8352.00,1.21
8351.00,1.21
8350.00,1.21
8349.00,1.21
8348.00,1.21
8347.00,1.21
8346.00,1.21
8345.00,1.21
8344.00,1.21
8343.00,1.21
8342.00,1.21
8341.00,1.22
8340.00,1.22
8339.00,1.22
8338.00,1.22
8337.00,1.22
8336.00,1.22
8335.00,1.22
8334.00,1.21
8333.00,1.21
8332.00,1.21
8331.00,1.21
8330.00,1.21
8329.00,1.21
8328.00,1.21
8327.00,1.21
8326.00,1.21
8325.00,1.21
8324.00,1.21
8323.00,1.20
8322.00,1.20
8321.00,1.20
8320.00,1.20
8319.00,1.20
8318.00,1.20
8317.00,1.20
8316.00,1.20
8315.00,1.20
8314.00,1.20
8313.00,1.20
8312.00,1.20
8311.00,1.20
8310.00,1.20
8309.00,1.20
8308.00,1.20
8307.00,1.20
8306.00,1.20
8305.00,1.20
8304.00,1.20
8303.00,1.20
8302.00,1.20
8301.00,1.21
8300.00,1.21
8299.00,1.21
8298.00,1.21
8297.00,1.21
8296.00,1.21
8295.00,1.21
8294.00,1.21
8293.00,1.21
8292.00,1.20
8291.00,1.20
8290.00,1.20
8289.00,1.20
8288.00,1.20
8287.00,1.20
8286.00,1.20
8285.00,1.20
8284.00,1.20
8283.00,1.20
8282.00,1.20
8281.00,1.20
8280.00,1.20
8279.00,1.21
8278.00,1.21
8277.00,1.21
8276.00,1.21
8275.00,1.21
8274.00,1.21
8273.00,1.21
8272.00,1.22
8271.00,1.22
8270.00,1.22
8269.00,1.22
8268.00,1.22
8267.00,1.22
8266.00,1.22
8265.00,1.22
8264.00,1.22
8263.00,1.22
8262.00,1.23
8261.00,1.23
8260.00,1.23
8259.00,1.23
8258.00,1.23
8257.00,1.23
8256.00,1.23
8255.00,1.23
8254.00,1.23
8253.00,1.23
8252.00,1.23
8251.00,1.23
8250.00,1.23
8249.00,1.23
8248.00,1.23
8247.00,1.23
8246.00,1.23
8245.00,1.23
8244.00,1.23
8243.00,1.23
8242.00,1.23
8241.00,1.23
8240.00,1.23
8239.00,1.23
8238.00,1.23
8237.00,1.22
8236.00,1.22
8235.00,1.22
8234.00,1.22
8233.00,1.22
8232.00,1.22
8231.00,1.23
8230.00,1.23
8229.00,1.23
8228.00,1.23
8227.00,1.23
8226.00,1.23
8225.00,1.23
8224.00,1.23
8223.00,1.24
8222.00,1.24
8221.00,1.24
8220.00,1.24
8219.00,1.24
8218.00,1.24
8217.00,1.24
8216.00,1.24
8215.00,1.24
8214.00,1.24
8213.00,1.24
8212.00,1.24
8211.00,1.24
8210.00,1.24
8209.00,1.24
8208.00,1.24
8207.00,1.24
8206.00,1.24
8205.00,1.24
8204.00,1.24
8203.00,1.24
8202.00,1.24
8201.00,1.24
8200.00,1.24
8199.00,1.25
8198.00,1.25
8197.00,1.25
8196.00,1.25
8195.00,1.25
8194.00,1.25
8193.00,1.25
8192.00,1.25
8191.00,1.25
8190.00,1.25
8189.00,1.25
8188.00,1.25
8187.00,1.25
8186.00,1.25
8185.00,1.25
8184.00,1.25
8183.00,1.25
8182.00,1.25
8181.00,1.25
8180.00,1.25
8179.00,1.25
8178.00,1.25
8177.00,1.25
8176.00,1.25
8175.00,1.25
8174.00,1.25
8173.00,1.26
8172.00,1.26
8171.00,1.26
8170.00,1.26
8169.00,1.26
8168.00,1.26
8167.00,1.26
8166.00,1.26
8165.00,1.26
8164.00,1.27
8163.00,1.27
8162.00,1.27
8161.00,1.27
8160.00,1.27
8159.00,1.27
8158.00,1.27
8157.00,1.27
8156.00,1.27
8155.00,1.26
8154.00,1.26
8153.00,1.26
8152.00,1.26
8151.00,1.26
8150.00,1.26
8149.00,1.26
8148.00,1.26
8147.00,1.26
8146.00,1.27
8145.00,1.27
8144.00,1.27
8143.00,1.27
8142.00,1.27
8141.00,1.27
8140.00,1.27
8139.00,1.28
8138.00,1.28
8137.00,1.28
8136.00,1.28
8135.00,1.28
8134.00,1.28
8133.00,1.29
8132.00,1.29
8131.00,1.29
8130.00,1.29
8129.00,1.29
8128.00,1.29
8127.00,1.29
8126.00,1.29
8125.00,1.29
8124.00,1.29
8123.00,1.29
8122.00,1.29
8121.00,1.29
8120.00,1.29
8119.00,1.29
8118.00,1.29
8117.00,1.29
8116.00,1.29
8115.00,1.29
8114.00,1.29
8113.00,1.28
8112.00,1.28
8111.00,1.28
8110.00,1.28
8109.00,1.28
8108.00,1.28
8107.00,1.28
8106.00,1.28
8105.00,1.28
8104.00,1.28
8103.00,1.28
8102.00,1.28
8101.00,1.28
8100.00,1.28
8099.00,1.28
8098.00,1.28
8097.00,1.29
8096.00,1.29
8095.00,1.29
8094.00,1.29
8093.00,1.29
8092.00,1.29
8091.00,1.29
8090.00,1.29
8089.00,1.29
8088.00,1.29
8087.00,1.29
8086.00,1.29
8085.00,1.29
8084.00,1.29
8083.00,1.29
8082.00,1.29
8081.00,1.29
8080.00,1.29
8079.00,1.29
8078.00,1.29
8077.00,1.29
8076.00,1.29
8075.00,1.29
8074.00,1.29
8073.00,1.29
8072.00,1.29
8071.00,1.29
8070.00,1.29
8069.00,1.29
8068.00,1.29
8067.00,1.29
8066.00,1.29
8065.00,1.29
8064.00,1.29
8063.00,1.29
8062.00,1.30
8061.00,1.30
8060.00,1.30
8059.00,1.30
8058.00,1.30
8057.00,1.30
8056.00,1.30
8055.00,1.30
8054.00,1.30
8053.00,1.30
8052.00,1.30
8051.00,1.30
8050.00,1.30
8049.00,1.30
8048.00,1.30
8047.00,1.30
8046.00,1.30
8045.00,1.30
8044.00,1.30
8043.00,1.30
8042.00,1.30
8041.00,1.30
8040.00,1.30
8039.00,1.30
8038.00,1.30
8037.00,1.30
8036.00,1.30
8035.00,1.30
8034.00,1.30
8033.00,1.30
8032.00,1.30
8031.00,1.30
8030.00,1.31
8029.00,1.31
8028.00,1.31
8027.00,1.31
8026.00,1.31
8025.00,1.31
8024.00,1.31
8023.00,1.31
8022.00,1.31
8021.00,1.31
8020.00,1.31
8019.00,1.31
8018.00,1.31
8017.00,1.31
8016.00,1.31
8015.00,1.30
8014.00,1.30
8013.00,1.30
8012.00,1.30
8011.00,1.30
8010.00,1.30
8009.00,1.30
8008.00,1.30
8007.00,1.30
8006.00,1.30
8005.00,1.30
8004.00,1.30
8003.00,1.30
8002.00,1.30
8001.00,1.30
8000.00,1.30
7999.00,1.30
7998.00,1.30
7997.00,1.30
7996.00,1.30
7995.00,1.30
7994.00,1.31
7993.00,1.31
7992.00,1.31
7991.00,1.31
7990.00,1.31
7989.00,1.31
7988.00,1.31
7987.00,1.31
7986.00,1.31
7985.00,1.31
7984.00,1.31
7983.00,1.31
7982.00,1.31
7981.00,1.31
7980.00,1.31
7979.00,1.31
7978.00,1.31
7977.00,1.31
7976.00,1.31
7975.00,1.31
7974.00,1.31
7973.00,1.31
7972.00,1.31
7971.00,1.31
7970.00,1.31
7969.00,1.31
7968.00,1.31
7967.00,1.31
7966.00,1.31
7965.00,1.31
7964.00,1.31
7963.00,1.31
7962.00,1.31
7961.00,1.31
7960.00,1.31
7959.00,1.31
7958.00,1.31
7957.00,1.31
7956.00,1.31
7955.00,1.31
7954.00,1.31
7953.00,1.31
7952.00,1.31
7951.00,1.31
7950.00,1.31
7949.00,1.32
7948.00,1.32
7947.00,1.32
7946.00,1.32
7945.00,1.32
7944.00,1.32
7943.00,1.32
7942.00,1.33
7941.00,1.33
7940.00,1.33
7939.00,1.33
7938.00,1.33
7937.00,1.33
7936.00,1.33
7935.00,1.33
7934.00,1.33
7933.00,1.33
7932.00,1.33
7931.00,1.33
7930.00,1.33
7929.00,1.33
7928.00,1.33
7927.00,1.33
7926.00,1.33
7925.00,1.33
7924.00,1.33
7923.00,1.33
7922.00,1.33
7921.00,1.33
7920.00,1.33
7919.00,1.33
7918.00,1.33
7917.00,1.33
7916.00,1.33
7915.00,1.33
7914.00,1.33
7913.00,1.33
7912.00,1.33
7911.00,1.34
7910.00,1.34
7909.00,1.34
7908.00,1.34
7907.00,1.34
7906.00,1.34
7905.00,1.34
7904.00,1.34
7903.00,1.34
7902.00,1.34
7901.00,1.34
7900.00,1.34
7899.00,1.34
7898.00,1.34
7897.00,1.33
7896.00,1.33
7895.00,1.33
7894.00,1.33
7893.00,1.33
7892.00,1.33
7891.00,1.33
7890.00,1.33
7889.00,1.33
7888.00,1.33
7887.00,1.33
7886.00,1.33
7885.00,1.33
7884.00,1.33
7883.00,1.33
7882.00,1.33
7881.00,1.33
7880.00,1.33
7879.00,1.33
7878.00,1.33
7877.00,1.33
7876.00,1.33
7875.00,1.33
7874.00,1.33
7873.00,1.33
7872.00,1.33
7871.00,1.33
7870.00,1.33
7869.00,1.33
7868.00,1.33
7867.00,1.33
7866.00,1.33
7865.00,1.33
7864.00,1.33
7863.00,1.33
7862.00,1.33
7861.00,1.34
7860.00,1.34
7859.00,1.34
7858.00,1.34
7857.00,1.34
7856.00,1.34
7855.00,1.34
7854.00,1.34
7853.00,1.34
7852.00,1.34
7851.00,1.34
7850.00,1.35
7849.00,1.35
7848.00,1.35
7847.00,1.35
7846.00,1.35
7845.00,1.35
7844.00,1.35
7843.00,1.35
7842.00,1.35
7841.00,1.35
7840.00,1.35
7839.00,1.35
7838.00,1.35
7837.00,1.35
7836.00,1.35
7835.00,1.35
7834.00,1.34
7833.00,1.34
7832.00,1.34
7831.00,1.34
7830.00,1.34
7829.00,1.34
7828.00,1.34
7827.00,1.34
7826.00,1.34
7825.00,1.34
7824.00,1.34
7823.00,1.34
7822.00,1.34
7821.00,1.34
7820.00,1.34
7819.00,1.34
7818.00,1.34
7817.00,1.34
7816.00,1.34
7815.00,1.34
7814.00,1.34
7813.00,1.34
7812.00,1.34
7811.00,1.34
7810.00,1.34
7809.00,1.34
7808.00,1.34
7807.00,1.34
7806.00,1.34
7805.00,1.34
7804.00,1.34
7803.00,1.34
7802.00,1.34
7801.00,1.34
7800.00,1.34
7799.00,1.34
7798.00,1.34
7797.00,1.34
7796.00,1.34
7795.00,1.34
7794.00,1.34
7793.00,1.34
7792.00,1.34
7791.00,1.34
7790.00,1.34
7789.00,1.34
7788.00,1.34
7787.00,1.34
7786.00,1.34
7785.00,1.34
7784.00,1.34
7783.00,1.34
7782.00,1.34
7781.00,1.34
7780.00,1.34
7779.00,1.35
7778.00,1.35
7777.00,1.35
7776.00,1.35
7775.00,1.35
7774.00,1.35
7773.00,1.35
7772.00,1.35
7771.00,1.35
7770.00,1.35
7769.00,1.34
7768.00,1.34
7767.00,1.34
7766.00,1.34
7765.00,1.34
7764.00,1.34
7763.00,1.34
7762.00,1.34
7761.00,1.34
7760.00,1.34
7759.00,1.34
7758.00,1.34
7757.00,1.34
7756.00,1.34
7755.00,1.34
7754.00,1.34
7753.00,1.34
7752.00,1.34
7751.00,1.35
7750.00,1.35
7749.00,1.35
7748.00,1.35
7747.00,1.35
7746.00,1.35
7745.00,1.36
7744.00,1.36
7743.00,1.36
7742.00,1.36
7741.00,1.36
7740.00,1.36
7739.00,1.37
7738.00,1.37
7737.00,1.37
7736.00,1.37
7735.00,1.37
7734.00,1.37
7733.00,1.37
7732.00,1.37
7731.00,1.37
7730.00,1.37
7729.00,1.37
7728.00,1.37
7727.00,1.37
7726.00,1.37
7725.00,1.37
7724.00,1.37
7723.00,1.37
7722.00,1.37
7721.00,1.36
7720.00,1.36
7719.00,1.36
7718.00,1.36
7717.00,1.36
7716.00,1.36
7715.00,1.36
7714.00,1.36
7713.00,1.36
7712.00,1.35
7711.00,1.35
7710.00,1.35
7709.00,1.35
7708.00,1.35
7707.00,1.35
7706.00,1.35
7705.00,1.35
7704.00,1.35
7703.00,1.34
7702.00,1.34
7701.00,1.34
7700.00,1.34
7699.00,1.34
7698.00,1.34
7697.00,1.34
7696.00,1.34
7695.00,1.34
7694.00,1.34
7693.00,1.34
7692.00,1.34
7691.00,1.34
7690.00,1.35
7689.00,1.35
7688.00,1.35
7687.00,1.35
7686.00,1.35
7685.00,1.35
7684.00,1.35
7683.00,1.35
7682.00,1.35
7681.00,1.35
7680.00,1.35
7679.00,1.35
7678.00,1.35
7677.00,1.35
7676.00,1.35
7675.00,1.35
7674.00,1.35
7673.00,1.35
7672.00,1.35
7671.00,1.35
7670.00,1.35
7669.00,1.35
7668.00,1.35
7667.00,1.35
7666.00,1.35
7665.00,1.35
7664.00,1.35
7663.00,1.35
7662.00,1.35
7661.00,1.35
7660.00,1.35
7659.00,1.35
7658.00,1.35
7657.00,1.35
7656.00,1.35
7655.00,1.35
7654.00,1.35
7653.00,1.35
7652.00,1.35
7651.00,1.35
7650.00,1.35
7649.00,1.35
7648.00,1.35
7647.00,1.35
7646.00,1.35
7645.00,1.35
7644.00,1.35
7643.00,1.35
7642.00,1.35
7641.00,1.35
7640.00,1.36
7639.00,1.36
7638.00,1.36
7637.00,1.36
7636.00,1.36
7635.00,1.35
7634.00,1.35
7633.00,1.35
7632.00,1.35
7631.00,1.35
7630.00,1.35
7629.00,1.35
7628.00,1.35
7627.00,1.35
7626.00,1.35
7625.00,1.35
7624.00,1.35
7623.00,1.35
7622.00,1.35
7621.00,1.35
7620.00,1.35
7619.00,1.35
7618.00,1.35
7617.00,1.34
7616.00,1.34
7615.00,1.34
7614.00,1.34
7613.00,1.34
7612.00,1.34
7611.00,1.34
7610.00,1.34
7609.00,1.34
7608.00,1.34
7607.00,1.34
7606.00,1.34
7605.00,1.34
7604.00,1.34
7603.00,1.34
7602.00,1.34
7601.00,1.34
7600.00,1.34
7599.00,1.34
7598.00,1.34
7597.00,1.34
7596.00,1.34
7595.00,1.35
7594.00,1.35
7593.00,1.35
7592.00,1.35
7591.00,1.35
7590.00,1.35
7589.00,1.35
7588.00,1.35
7587.00,1.35
7586.00,1.35
7585.00,1.35
7584.00,1.35
7583.00,1.35
7582.00,1.35
7581.00,1.34
7580.00,1.34
7579.00,1.34
7578.00,1.34
7577.00,1.34
7576.00,1.34
7575.00,1.34
7574.00,1.34
7573.00,1.34
7572.00,1.34
7571.00,1.34
7570.00,1.34
7569.00,1.34
7568.00,1.34
7567.00,1.34
7566.00,1.34
7565.00,1.34
7564.00,1.33
7563.00,1.33
7562.00,1.33
7561.00,1.33
7560.00,1.33
7559.00,1.33
7558.00,1.33
7557.00,1.32
7556.00,1.32
7555.00,1.32
7554.00,1.32
7553.00,1.32
7552.00,1.32
7551.00,1.31
7550.00,1.31
7549.00,1.31
7548.00,1.31
7547.00,1.31
7546.00,1.31
7545.00,1.31
7544.00,1.31
7543.00,1.31
7542.00,1.31
7541.00,1.31
7540.00,1.31
7539.00,1.31
7538.00,1.31
7537.00,1.31
7536.00,1.31
7535.00,1.31
7534.00,1.31
7533.00,1.31
7532.00,1.31
7531.00,1.31
7530.00,1.31
7529.00,1.31
7528.00,1.31
7527.00,1.31
7526.00,1.31
7525.00,1.31
7524.00,1.31
7523.00,1.30
7522.00,1.30
7521.00,1.30
7520.00,1.30
7519.00,1.30
7518.00,1.30
7517.00,1.30
7516.00,1.30
7515.00,1.29
7514.00,1.29
7513.00,1.29
7512.00,1.29
7511.00,1.29
7510.00,1.29
7509.00,1.29
7508.00,1.28
7507.00,1.28
7506.00,1.28
7505.00,1.28
7504.00,1.28
7503.00,1.28
7502.00,1.28
7501.00,1.28
7500.00,1.28
7499.00,1.28
7498.00,1.28
7497.00,1.28
7496.00,1.28
7495.00,1.28
7494.00,1.28
7493.00,1.27
7492.00,1.27
7491.00,1.27
7490.00,1.27
7489.00,1.27
7488.00,1.27
7487.00,1.27
7486.00,1.27
7485.00,1.27
7484.00,1.27
7483.00,1.27
7482.00,1.27
7481.00,1.27
7480.00,1.27
7479.00,1.27
7478.00,1.27
7477.00,1.27
7476.00,1.27
7475.00,1.27
7474.00,1.27
7473.00,1.27
7472.00,1.27
7471.00,1.27
7470.00,1.27
7469.00,1.27
7468.00,1.27
7467.00,1.27
7466.00,1.27
7465.00,1.27
7464.00,1.27
7463.00,1.27
7462.00,1.27
7461.00,1.27
7460.00,1.27
7459.00,1.27
7458.00,1.27
7457.00,1.27
7456.00,1.27
7455.00,1.27
7454.00,1.27
7453.00,1.26
7452.00,1.26
7451.00,1.26
7450.00,1.26
7449.00,1.26
7448.00,1.26
7447.00,1.26
7446.00,1.25
7445.00,1.25
7444.00,1.25
7443.00,1.25
7442.00,1.25
7441.00,1.24
7440.00,1.24
7439.00,1.24
7438.00,1.24
7437.00,1.24
7436.00,1.23
7435.00,1.23
7434.00,1.23
7433.00,1.23
7432.00,1.23
7431.00,1.23
7430.00,1.23
7429.00,1.23
7428.00,1.23
7427.00,1.23
7426.00,1.23
7425.00,1.23
7424.00,1.23
7423.00,1.23
7422.00,1.23
7421.00,1.23
7420.00,1.23
7419.00,1.23
7418.00,1.23
7417.00,1.23
7416.00,1.23
7415.00,1.23
7414.00,1.23
7413.00,1.23
7412.00,1.23
7411.00,1.23
7410.00,1.23
7409.00,1.23
7408.00,1.23
7407.00,1.22
7406.00,1.22
7405.00,1.22
7404.00,1.22
7403.00,1.22
7402.00,1.21
7401.00,1.21
7400.00,1.21
7399.00,1.21
7398.00,1.21
7397.00,1.21
7396.00,1.21
7395.00,1.20
7394.00,1.20
7393.00,1.20
7392.00,1.20
7391.00,1.20
7390.00,1.20
7389.00,1.20
7388.00,1.19
7387.00,1.19
7386.00,1.19
7385.00,1.19
7384.00,1.19
7383.00,1.19
7382.00,1.19
7381.00,1.19
7380.00,1.19
7379.00,1.18
7378.00,1.18
7377.00,1.18
7376.00,1.18
7375.00,1.18
7374.00,1.18
7373.00,1.18
7372.00,1.18
7371.00,1.18
7370.00,1.18
7369.00,1.18
7368.00,1.18
7367.00,1.18
7366.00,1.18
7365.00,1.18
7364.00,1.18
7363.00,1.18
7362.00,1.18
7361.00,1.18
7360.00,1.18
7359.00,1.18
7358.00,1.18
7357.00,1.18
7356.00,1.18
7355.00,1.18
7354.00,1.18
7353.00,1.17
7352.00,1.17
7351.00,1.17
7350.00,1.17
7349.00,1.17
7348.00,1.17
7347.00,1.17
7346.00,1.17
7345.00,1.17
7344.00,1.17
7343.00,1.17
7342.00,1.17
7341.00,1.17
7340.00,1.17
7339.00,1.17
7338.00,1.17
7337.00,1.17
7336.00,1.17
7335.00,1.17
7334.00,1.16
7333.00,1.16
7332.00,1.16
7331.00,1.16
7330.00,1.16
7329.00,1.16
7328.00,1.16
7327.00,1.16
7326.00,1.16
7325.00,1.16
7324.00,1.16
7323.00,1.16
7322.00,1.16
7321.00,1.16
7320.00,1.16
7319.00,1.16
7318.00,1.16
7317.00,1.16
7316.00,1.16
7315.00,1.16
7314.00,1.16
7313.00,1.16
7312.00,1.16
7311.00,1.16
7310.00,1.16
7309.00,1.16
7308.00,1.16
7307.00,1.15
7306.00,1.15
7305.00,1.15
7304.00,1.15
7303.00,1.15
7302.00,1.15
7301.00,1.15
7300.00,1.14
7299.00,1.14
7298.00,1.14
7297.00,1.14
7296.00,1.13
7295.00,1.13
7294.00,1.13
7293.00,1.13
7292.00,1.12
7291.00,1.12
7290.00,1.12
7289.00,1.12
7288.00,1.11
7287.00,1.11
7286.00,1.11
7285.00,1.11
7284.00,1.11
7283.00,1.11
7282.00,1.11
7281.00,1.10
7280.00,1.10
7279.00,1.10
7278.00,1.10
7277.00,1.10
7276.00,1.10
7275.00,1.10
7274.00,1.10
7273.00,1.10
7272.00,1.10
7271.00,1.10
7270.00,1.09
7269.00,1.09
7268.00,1.09
7267.00,1.09
7266.00,1.09
7265.00,1.08
7264.00,1.08
7263.00,1.08
7262.00,1.08
7261.00,1.07
7260.00,1.07
7259.00,1.07
7258.00,1.06
7257.00,1.06
7256.00,1.06
7255.00,1.06
7254.00,1.05
7253.00,1.05
7252.00,1.05
7251.00,1.04
7250.00,1.04
7249.00,1.04
7248.00,1.03
7247.00,1.03
7246.00,1.03
7245.00,1.02
7244.00,1.02
7243.00,1.02
7242.00,1.01
7241.00,1.01
7240.00,1.00
7239.00,1.00
7238.00,1.00
7237.00,0.99
7236.00,0.99
7235.00,0.98
7234.00,0.98
7233.00,0.97
7232.00,0.97
7231.00,0.97
7230.00,0.96
7229.00,0.96
7228.00,0.95
7227.00,0.95
7226.00,0.94
7225.00,0.94
7224.00,0.94
7223.00,0.93
7222.00,0.93
7221.00,0.92
7220.00,0.92
7219.00,0.91
7218.00,0.91
7217.00,0.91
7216.00,0.90
7215.00,0.90
7214.00,0.89
7213.00,0.89
7212.00,0.88
7211.00,0.88
7210.00,0.88
7209.00,0.87
7208.00,0.87
7207.00,0.86
7206.00,0.86
7205.00,0.85
7204.00,0.85
7203.00,0.84
7202.00,0.84
7201.00,0.83
7200.00,0.83
7199.00,0.83
7198.00,0.82
7197.00,0.82
7196.00,0.81
7195.00,0.81
7194.00,0.80
7193.00,0.80
7192.00,0.79
7191.00,0.79
7190.00,0.78
7189.00,0.78
7188.00,0.78
7187.00,0.77
7186.00,0.77
7185.00,0.76
7184.00,0.76
7183.00,0.75
7182.00,0.75
7181.00,0.74
7180.00,0.74
7179.00,0.74
7178.00,0.73
7177.00,0.73
7176.00,0.72
7175.00,0.72
7174.00,0.71
7173.00,0.71
7172.00,0.71
7171.00,0.70
7170.00,0.70
7169.00,0.70
7168.00,0.69
7167.00,0.69
7166.00,0.69
7165.00,0.68
7164.00,0.68
7163.00,0.68
7162.00,0.68
7161.00,0.68
7160.00,0.67
7159.00,0.67
7158.00,0.67
7157.00,0.67
7156.00,0.67
7155.00,0.66
7154.00,0.66
7153.00,0.66
7152.00,0.66
7151.00,0.65
7150.00,0.65
7149.00,0.65
7148.00,0.65
7147.00,0.64
7146.00,0.64
7145.00,0.64
7144.00,0.63
7143.00,0.63
7142.00,0.63
7141.00,0.62
7140.00,0.62
7139.00,0.62
7138.00,0.61
7137.00,0.61
7136.00,0.61
7135.00,0.60
7134.00,0.60
7133.00,0.60
7132.00,0.60
7131.00,0.60
7130.00,0.60
7129.00,0.59
7128.00,0.59
7127.00,0.59
7126.00,0.59
7125.00,0.59
7124.00,0.59
7123.00,0.59
7122.00,0.59
7121.00,0.59
7120.00,0.58
7119.00,0.58
7118.00,0.58
7117.00,0.58
7116.00,0.58
7115.00,0.58
7114.00,0.58
7113.00,0.57
7112.00,0.57
7111.00,0.57
7110.00,0.57
7109.00,0.57
7108.00,0.56
7107.00,0.56
7106.00,0.56
7105.00,0.56
7104.00,0.56
7103.00,0.56
7102.00,0.55
7101.00,0.55
7100.00,0.55
7099.00,0.55
7098.00,0.55
7097.00,0.55
7096.00,0.55
7095.00,0.55
7094.00,0.55
7093.00,0.55
7092.00,0.55
7091.00,0.55
7090.00,0.55
7089.00,0.55
7088.00,0.55
7087.00,0.55
7086.00,0.55
7085.00,0.55
7084.00,0.55
7083.00,0.55
7082.00,0.54
7081.00,0.54
7080.00,0.54
7079.00,0.54
7078.00,0.54
7077.00,0.54
7076.00,0.54
7075.00,0.54
7074.00,0.54
7073.00,0.54
7072.00,0.53
7071.00,0.53
7070.00,0.53
7069.00,0.53
7068.00,0.53
7067.00,0.53
7066.00,0.53
7065.00,0.53
7064.00,0.53
7063.00,0.53
7062.00,0.53
7061.00,0.53
7060.00,0.52
7059.00,0.52
7058.00,0.52
7057.00,0.52
7056.00,0.52
7055.00,0.52
7054.00,0.52
7053.00,0.52
7052.00,0.52
7051.00,0.52
7050.00,0.52
7049.00,0.52
7048.00,0.52
7047.00,0.52
7046.00,0.52
7045.00,0.52
7044.00,0.52
7043.00,0.52
7042.00,0.52
7041.00,0.52
7040.00,0.52
7039.00,0.52
7038.00,0.52
7037.00,0.52
7036.00,0.52
7035.00,0.52
7034.00,0.52
7033.00,0.52
7032.00,0.52
7031.00,0.52
7030.00,0.52
7029.00,0.52
7028.00,0.52
7027.00,0.52
7026.00,0.52
7025.00,0.52
7024.00,0.52
7023.00,0.51
7022.00,0.51
7021.00,0.51
7020.00,0.51
7019.00,0.51
7018.00,0.51
7017.00,0.51
7016.00,0.51
7015.00,0.50
7014.00,0.50
7013.00,0.50
7012.00,0.50
7011.00,0.50
7010.00,0.50
7009.00,0.50
7008.00,0.50
7007.00,0.50
7006.00,0.50
7005.00,0.50
7004.00,0.50
7003.00,0.50
7002.00,0.50
7001.00,0.50
7000.00,0.50
6999.00,0.50
6998.00,0.50
6997.00,0.50
6996.00,0.50
6995.00,0.50
6994.00,0.50
6993.00,0.50
6992.00,0.50
6991.00,0.50
6990.00,0.51
6989.00,0.51
6988.00,0.51
6987.00,0.51
6986.00,0.51
6985.00,0.51
6984.00,0.51
6983.00,0.51
6982.00,0.51
6981.00,0.51
6980.00,0.52
6979.00,0.52
6978.00,0.52
6977.00,0.52
6976.00,0.52
6975.00,0.52
6974.00,0.52
6973.00,0.52
6972.00,0.52
6971.00,0.52
6970.00,0.52
6969.00,0.52
6968.00,0.52
6967.00,0.52
6966.00,0.52
6965.00,0.52
6964.00,0.51
6963.00,0.51
6962.00,0.51
6961.00,0.51
6960.00,0.51
6959.00,0.51
6958.00,0.51
6957.00,0.51
6956.00,0.51
6955.00,0.51
6954.00,0.51
6953.00,0.50
6952.00,0.50
6951.00,0.50
6950.00,0.50
6949.00,0.50
6948.00,0.51
6947.00,0.51
6946.00,0.51
6945.00,0.51
6944.00,0.51
6943.00,0.51
6942.00,0.51
6941.00,0.51
6940.00,0.51
6939.00,0.51
6938.00,0.51
6937.00,0.51
6936.00,0.51
6935.00,0.51
6934.00,0.51
6933.00,0.51
6932.00,0.51
6931.00,0.51
6930.00,0.51
6929.00,0.51
6928.00,0.51
6927.00,0.51
6926.00,0.51
6925.00,0.51
6924.00,0.51
6923.00,0.51
6922.00,0.51
6921.00,0.51
6920.00,0.52
6919.00,0.52
6918.00,0.52
6917.00,0.52
6916.00,0.52
6915.00,0.52
6914.00,0.52
6913.00,0.52
6912.00,0.52
6911.00,0.52
6910.00,0.52
6909.00,0.52
6908.00,0.52
6907.00,0.52
6906.00,0.52
6905.00,0.52
6904.00,0.52
6903.00,0.52
6902.00,0.52
6901.00,0.51
6900.00,0.51
6899.00,0.51
6898.00,0.51
6897.00,0.51
6896.00,0.51
6895.00,0.51
6894.00,0.51
6893.00,0.51
6892.00,0.51
6891.00,0.51
6890.00,0.51
6889.00,0.51
6888.00,0.51
6887.00,0.51
6886.00,0.51
6885.00,0.51
6884.00,0.51
6883.00,0.51
6882.00,0.52
6881.00,0.52
6880.00,0.52
6879.00,0.52
6878.00,0.52
6877.00,0.52
6876.00,0.52
6875.00,0.52
6874.00,0.52
6873.00,0.52
6872.00,0.52
6871.00,0.52
6870.00,0.52
6869.00,0.52
6868.00,0.52
6867.00,0.52
6866.00,0.52
6865.00,0.52
6864.00,0.52
6863.00,0.52
6862.00,0.52
6861.00,0.52
6860.00,0.52
6859.00,0.52
6858.00,0.52
6857.00,0.52
6856.00,0.52
6855.00,0.52
6854.00,0.52
6853.00,0.52
6852.00,0.52
6851.00,0.52
6850.00,0.52
6849.00,0.52
6848.00,0.52
6847.00,0.52
6846.00,0.52
6845.00,0.52
6844.00,0.52
6843.00,0.52
6842.00,0.52
6841.00,0.52
6840.00,0.53
6839.00,0.53
6838.00,0.53
6837.00,0.53
6836.00,0.53
6835.00,0.53
6834.00,0.53
6833.00,0.53
6832.00,0.53
6831.00,0.53
6830.00,0.52
6829.00,0.52
6828.00,0.52
6827.00,0.52
6826.00,0.52
6825.00,0.52
6824.00,0.52
6823.00,0.52
6822.00,0.52
6821.00,0.52
6820.00,0.52
6819.00,0.52
6818.00,0.52
6817.00,0.52
6816.00,0.52
6815.00,0.52
6814.00,0.52
6813.00,0.52
6812.00,0.52
6811.00,0.53
6810.00,0.53
6809.00,0.53
6808.00,0.53
6807.00,0.53
6806.00,0.53
6805.00,0.53
6804.00,0.53
6803.00,0.53
6802.00,0.53
6801.00,0.53
6800.00,0.54
6799.00,0.54
6798.00,0.54
6797.00,0.54
6796.00,0.54
6795.00,0.54
6794.00,0.54
6793.00,0.54
6792.00,0.54
6791.00,0.54
6790.00,0.54
6789.00,0.54
6788.00,0.54
6787.00,0.54
6786.00,0.53
6785.00,0.53
6784.00,0.53
6783.00,0.53
6782.00,0.53
6781.00,0.53
6780.00,0.53
6779.00,0.53
6778.00,0.53
6777.00,0.53
6776.00,0.53
6775.00,0.53
6774.00,0.53
6773.00,0.53
6772.00,0.53
6771.00,0.53
6770.00,0.53
6769.00,0.53
6768.00,0.53
6767.00,0.53
6766.00,0.53
6765.00,0.53
6764.00,0.54
6763.00,0.54
6762.00,0.54
6761.00,0.54
6760.00,0.54
6759.00,0.54
6758.00,0.54
6757.00,0.54
6756.00,0.54
6755.00,0.54
6754.00,0.54
6753.00,0.54
6752.00,0.54
6751.00,0.54
6750.00,0.54
6749.00,0.54
6748.00,0.54
6747.00,0.54
6746.00,0.54
6745.00,0.54
6744.00,0.54
6743.00,0.54
6742.00,0.54
6741.00,0.55
6740.00,0.55
6739.00,0.55
6738.00,0.55
6737.00,0.55
6736.00,0.55
6735.00,0.55
6734.00,0.55
6733.00,0.55
6732.00,0.55
6731.00,0.55
6730.00,0.55
6729.00,0.55
6728.00,0.55
6727.00,0.55
6726.00,0.56
6725.00,0.56
6724.00,0.56
6723.00,0.56
6722.00,0.56
6721.00,0.56
6720.00,0.55
6719.00,0.55
6718.00,0.55
6717.00,0.55
6716.00,0.55
6715.00,0.55
6714.00,0.55
6713.00,0.55
6712.00,0.55
6711.00,0.55
6710.00,0.55
6709.00,0.55
6708.00,0.55
6707.00,0.55
6706.00,0.55
6705.00,0.55
6704.00,0.55
6703.00,0.55
6702.00,0.55
6701.00,0.55
6700.00,0.55
6699.00,0.55
6698.00,0.55
6697.00,0.55
6696.00,0.55
6695.00,0.56
6694.00,0.56
6693.00,0.56
6692.00,0.56
6691.00,0.56
6690.00,0.56
6689.00,0.56
6688.00,0.56
6687.00,0.57
6686.00,0.57
6685.00,0.57
6684.00,0.57
6683.00,0.57
6682.00,0.57
6681.00,0.57
6680.00,0.57
6679.00,0.57
6678.00,0.57
6677.00,0.57
6676.00,0.57
6675.00,0.57
6674.00,0.58
6673.00,0.58
6672.00,0.58
6671.00,0.58
6670.00,0.58
6669.00,0.58
6668.00,0.58
6667.00,0.58
6666.00,0.58
6665.00,0.59
6664.00,0.59
6663.00,0.59
6662.00,0.59
6661.00,0.59
6660.00,0.59
6659.00,0.59
6658.00,0.59
6657.00,0.59
6656.00,0.59
6655.00,0.59
6654.00,0.59
6653.00,0.59
6652.00,0.59
6651.00,0.59
6650.00,0.59
6649.00,0.59
6648.00,0.59
6647.00,0.59
6646.00,0.60
6645.00,0.60
6644.00,0.60
6643.00,0.60
6642.00,0.60
6641.00,0.60
6640.00,0.60
6639.00,0.60
6638.00,0.60
6637.00,0.60
6636.00,0.60
6635.00,0.60
6634.00,0.60
6633.00,0.60
6632.00,0.61
6631.00,0.61
6630.00,0.61
6629.00,0.61
6628.00,0.61
6627.00,0.61
6626.00,0.61
6625.00,0.61
6624.00,0.61
6623.00,0.61
6622.00,0.61
6621.00,0.61
6620.00,0.61
6619.00,0.62
6618.00,0.62
6617.00,0.62
6616.00,0.62
6615.00,0.62
6614.00,0.62
6613.00,0.62
6612.00,0.62
6611.00,0.62
6610.00,0.62
6609.00,0.62
6608.00,0.62
6607.00,0.62
6606.00,0.62
6605.00,0.62
6604.00,0.62
6603.00,0.62
6602.00,0.62
6601.00,0.62
6600.00,0.62
6599.00,0.62
6598.00,0.62
6597.00,0.62
6596.00,0.62
6595.00,0.62
6594.00,0.62
6593.00,0.62
6592.00,0.62
6591.00,0.62
6590.00,0.63
6589.00,0.63
6588.00,0.63
6587.00,0.63
6586.00,0.63
6585.00,0.63
6584.00,0.63
6583.00,0.63
6582.00,0.64
6581.00,0.64
6580.00,0.64
6579.00,0.64
6578.00,0.64
6577.00,0.64
6576.00,0.64
6575.00,0.65
6574.00,0.65
6573.00,0.65
6572.00,0.65
6571.00,0.65
6570.00,0.65
6569.00,0.65
6568.00,0.65
6567.00,0.65
6566.00,0.65
6565.00,0.65
6564.00,0.66
6563.00,0.66
6562.00,0.66
6561.00,0.66
6560.00,0.66
6559.00,0.66
6558.00,0.66
6557.00,0.66
6556.00,0.66
6555.00,0.66
6554.00,0.66
6553.00,0.66
6552.00,0.66
6551.00,0.66
6550.00,0.66
6549.00,0.66
6548.00,0.66
6547.00,0.66
6546.00,0.66
6545.00,0.66
6544.00,0.66
6543.00,0.67
6542.00,0.67
6541.00,0.67
6540.00,0.67
6539.00,0.67
6538.00,0.67
6537.00,0.67
6536.00,0.67
6535.00,0.68
6534.00,0.68
6533.00,0.68
6532.00,0.68
6531.00,0.68
6530.00,0.68
6529.00,0.68
6528.00,0.69
6527.00,0.69
6526.00,0.69
6525.00,0.69
6524.00,0.69
6523.00,0.69
6522.00,0.69
6521.00,0.69
6520.00,0.69
6519.00,0.69
6518.00,0.69
6517.00,0.69
6516.00,0.69
6515.00,0.70
6514.00,0.70
6513.00,0.70
6512.00,0.70
6511.00,0.70
6510.00,0.70
6509.00,0.70
6508.00,0.70
6507.00,0.70
6506.00,0.70
6505.00,0.70
6504.00,0.70
6503.00,0.70
6502.00,0.70
6501.00,0.70
6500.00,0.70
6499.00,0.70
6498.00,0.70
6497.00,0.70
6496.00,0.70
6495.00,0.71
6494.00,0.71
6493.00,0.71
6492.00,0.71
6491.00,0.71
6490.00,0.71
6489.00,0.71
6488.00,0.71
6487.00,0.71
6486.00,0.71
6485.00,0.72
6484.00,0.72
6483.00,0.72
6482.00,0.72
6481.00,0.72
6480.00,0.72
6479.00,0.72
6478.00,0.72
6477.00,0.73
6476.00,0.73
6475.00,0.73
6474.00,0.73
6473.00,0.73
6472.00,0.73
6471.00,0.73
6470.00,0.73
6469.00,0.74
6468.00,0.74
6467.00,0.74
6466.00,0.74
6465.00,0.74
6464.00,0.74
6463.00,0.74
6462.00,0.74
6461.00,0.74
6460.00,0.74
6459.00,0.74
6458.00,0.75
6457.00,0.75
6456.00,0.75
6455.00,0.75
6454.00,0.75
6453.00,0.75
6452.00,0.75
6451.00,0.76
6450.00,0.76
6449.00,0.76
6448.00,0.76
6447.00,0.76
6446.00,0.76
6445.00,0.76
6444.00,0.76
6443.00,0.76
6442.00,0.76
6441.00,0.76
6440.00,0.76
6439.00,0.77
6438.00,0.77
6437.00,0.77
6436.00,0.77
6435.00,0.77
6434.00,0.77
6433.00,0.77
6432.00,0.77
6431.00,0.77
6430.00,0.77
6429.00,0.77
6428.00,0.77
6427.00,0.77
6426.00,0.77
6425.00,0.77
6424.00,0.77
6423.00,0.77
6422.00,0.77
6421.00,0.77
6420.00,0.77
6419.00,0.77
6418.00,0.78
6417.00,0.78
6416.00,0.78
6415.00,0.78
6414.00,0.78
6413.00,0.78
6412.00,0.78
6411.00,0.79
6410.00,0.79
6409.00,0.79
6408.00,0.79
6407.00,0.79
6406.00,0.79
6405.00,0.79
6404.00,0.80
6403.00,0.80
6402.00,0.80
6401.00,0.80
6400.00,0.80
6399.00,0.80
6398.00,0.80
6397.00,0.80
6396.00,0.80
6395.00,0.80
6394.00,0.80
6393.00,0.80
6392.00,0.80
6391.00,0.80
6390.00,0.80
6389.00,0.80
6388.00,0.80
6387.00,0.80
6386.00,0.80
6385.00,0.81
6384.00,0.81
6383.00,0.81
6382.00,0.81
6381.00,0.81
6380.00,0.81
6379.00,0.81
6378.00,0.81
6377.00,0.81
6376.00,0.82
6375.00,0.82
6374.00,0.82
6373.00,0.82
6372.00,0.82
6371.00,0.82
6370.00,0.83
6369.00,0.83
6368.00,0.83
6367.00,0.83
6366.00,0.83
6365.00,0.83
6364.00,0.83
6363.00,0.84
6362.00,0.84
6361.00,0.84
6360.00,0.84
6359.00,0.84
6358.00,0.84
6357.00,0.84
6356.00,0.84
6355.00,0.85
6354.00,0.85
6353.00,0.85
6352.00,0.85
6351.00,0.85
6350.00,0.85
6349.00,0.85
6348.00,0.86
6347.00,0.86
6346.00,0.86
6345.00,0.86
6344.00,0.86
6343.00,0.86
6342.00,0.86
6341.00,0.87
6340.00,0.87
6339.00,0.87
6338.00,0.87
6337.00,0.87
6336.00,0.87
6335.00,0.87
6334.00,0.87
6333.00,0.87
6332.00,0.87
6331.00,0.87
6330.00,0.87
6329.00,0.87
6328.00,0.88
6327.00,0.88
6326.00,0.88
6325.00,0.88
6324.00,0.88
6323.00,0.88
6322.00,0.88
6321.00,0.88
6320.00,0.88
6319.00,0.89
6318.00,0.89
6317.00,0.89
6316.00,0.89
6315.00,0.89
6314.00,0.89
6313.00,0.90
6312.00,0.90
6311.00,0.90
6310.00,0.90
6309.00,0.90
6308.00,0.91
6307.00,0.91
6306.00,0.91
6305.00,0.91
6304.00,0.91
6303.00,0.91
6302.00,0.92
6301.00,0.92
6300.00,0.92
6299.00,0.92
6298.00,0.92
6297.00,0.92
6296.00,0.92
6295.00,0.92
6294.00,0.92
6293.00,0.92
6292.00,0.92
6291.00,0.92
6290.00,0.92
6289.00,0.93
6288.00,0.93
6287.00,0.93
6286.00,0.93
6285.00,0.93
6284.00,0.93
6283.00,0.93
6282.00,0.93
6281.00,0.93
6280.00,0.94
6279.00,0.94
6278.00,0.94
6277.00,0.94
6276.00,0.94
6275.00,0.94
6274.00,0.95
6273.00,0.95
6272.00,0.95
6271.00,0.95
6270.00,0.95
6269.00,0.95
6268.00,0.96
6267.00,0.96
6266.00,0.96
6265.00,0.96
6264.00,0.96
6263.00,0.96
6262.00,0.97
6261.00,0.97
6260.00,0.97
6259.00,0.97
6258.00,0.97
6257.00,0.97
6256.00,0.97
6255.00,0.98
6254.00,0.98
6253.00,0.98
6252.00,0.98
6251.00,0.98
6250.00,0.98
6249.00,0.98
6248.00,0.99
6247.00,0.99
6246.00,0.99
6245.00,0.99
6244.00,0.99
6243.00,0.99
6242.00,0.99
6241.00,0.99
6240.00,1.00
6239.00,1.00
6238.00,1.00
6237.00,1.00
6236.00,1.00
6235.00,1.00
6234.00,1.00
6233.00,1.00
6232.00,1.00
6231.00,1.01
6230.00,1.01
6229.00,1.01
6228.00,1.01
6227.00,1.01
6226.00,1.01
6225.00,1.01
6224.00,1.01
6223.00,1.01
6222.00,1.02
6221.00,1.02
6220.00,1.02
6219.00,1.02
6218.00,1.02
6217.00,1.02
6216.00,1.02
6215.00,1.02
6214.00,1.02
6213.00,1.03
6212.00,1.03
6211.00,1.03
6210.00,1.03
6209.00,1.03
6208.00,1.03
6207.00,1.03
6206.00,1.03
6205.00,1.03
6204.00,1.03
6203.00,1.03
6202.00,1.03
6201.00,1.03
6200.00,1.04
6199.00,1.04
6198.00,1.04
6197.00,1.04
6196.00,1.04
6195.00,1.04
6194.00,1.05
6193.00,1.05
6192.00,1.05
6191.00,1.05
6190.00,1.05
6189.00,1.06
6188.00,1.06
6187.00,1.06
6186.00,1.06
6185.00,1.07
6184.00,1.07
6183.00,1.07
6182.00,1.07
6181.00,1.07
6180.00,1.07
6179.00,1.08
6178.00,1.08
6177.00,1.08
6176.00,1.08
6175.00,1.08
6174.00,1.08
6173.00,1.08
6172.00,1.08
6171.00,1.08
6170.00,1.09
6169.00,1.09
6168.00,1.09
6167.00,1.09
6166.00,1.09
6165.00,1.09
6164.00,1.09
6163.00,1.10
6162.00,1.10
6161.00,1.10
6160.00,1.10
6159.00,1.10
6158.00,1.10
6157.00,1.11
6156.00,1.11
6155.00,1.11
6154.00,1.11
6153.00,1.11
6152.00,1.11
6151.00,1.12
6150.00,1.12
6149.00,1.12
6148.00,1.12
6147.00,1.12
6146.00,1.12
6145.00,1.12
6144.00,1.12
6143.00,1.12
6142.00,1.13
6141.00,1.13
6140.00,1.13
6139.00,1.13
6138.00,1.13
6137.00,1.13
6136.00,1.13
6135.00,1.14
6134.00,1.14
6133.00,1.14
6132.00,1.14
6131.00,1.14
6130.00,1.15
6129.00,1.15
6128.00,1.15
6127.00,1.15
6126.00,1.15
6125.00,1.16
6124.00,1.16
6123.00,1.16
6122.00,1.16
6121.00,1.16
6120.00,1.16
6119.00,1.17
6118.00,1.17
6117.00,1.17
6116.00,1.17
6115.00,1.17
6114.00,1.17
6113.00,1.17
6112.00,1.18
6111.00,1.18
6110.00,1.18
6109.00,1.18
6108.00,1.18
6107.00,1.18
6106.00,1.19
6105.00,1.19
6104.00,1.19
6103.00,1.19
6102.00,1.19
6101.00,1.19
6100.00,1.20
6099.00,1.20
6098.00,1.20
6097.00,1.20
6096.00,1.20
6095.00,1.20
6094.00,1.20
6093.00,1.20
6092.00,1.20
6091.00,1.20
6090.00,1.20
6089.00,1.20
6088.00,1.21
6087.00,1.21
6086.00,1.21
6085.00,1.21
6084.00,1.21
6083.00,1.21
6082.00,1.21
6081.00,1.22
6080.00,1.22
6079.00,1.22
6078.00,1.22
6077.00,1.22
6076.00,1.23
6075.00,1.23
6074.00,1.23
6073.00,1.23
6072.00,1.24
6071.00,1.24
6070.00,1.24
6069.00,1.24
6068.00,1.24
6067.00,1.24
6066.00,1.25
6065.00,1.25
6064.00,1.25
6063.00,1.25
6062.00,1.25
6061.00,1.25
6060.00,1.25
6059.00,1.25
6058.00,1.25
6057.00,1.25
6056.00,1.25
6055.00,1.25
6054.00,1.25
6053.00,1.26
6052.00,1.26
6051.00,1.26
6050.00,1.26
6049.00,1.26
6048.00,1.26
6047.00,1.26
6046.00,1.26
6045.00,1.26
6044.00,1.26
6043.00,1.27
6042.00,1.27
6041.00,1.27
6040.00,1.27
6039.00,1.27
6038.00,1.27
6037.00,1.27
6036.00,1.27
6035.00,1.27
6034.00,1.28
6033.00,1.28
6032.00,1.28
6031.00,1.28
6030.00,1.28
6029.00,1.28
6028.00,1.28
6027.00,1.28
6026.00,1.28
6025.00,1.28
6024.00,1.28
6023.00,1.28
6022.00,1.28
6021.00,1.28
6020.00,1.28
6019.00,1.28
6018.00,1.28
6017.00,1.29
6016.00,1.29
6015.00,1.29
6014.00,1.29
6013.00,1.29
6012.00,1.29
6011.00,1.29
6010.00,1.29
6009.00,1.29
6008.00,1.29
6007.00,1.29
6006.00,1.29
6005.00,1.29
6004.00,1.29
6003.00,1.29
6002.00,1.28
6001.00,1.28
6000.00,1.28
5999.00,1.28
5998.00,1.28
5997.00,1.28
5996.00,1.28
5995.00,1.28
5994.00,1.28
5993.00,1.28
5992.00,1.27
5991.00,1.27
5990.00,1.27
5989.00,1.27
5988.00,1.27
5987.00,1.27
5986.00,1.27
5985.00,1.26
5984.00,1.26
5983.00,1.26
5982.00,1.26
5981.00,1.26
5980.00,1.25
5979.00,1.25
5978.00,1.25
5977.00,1.25
5976.00,1.24
5975.00,1.24
5974.00,1.24
5973.00,1.23
5972.00,1.23
5971.00,1.23
5970.00,1.22
5969.00,1.22
5968.00,1.22
5967.00,1.21
5966.00,1.21
5965.00,1.20
5964.00,1.20
5963.00,1.20
5962.00,1.19
5961.00,1.19
5960.00,1.19
5959.00,1.18
5958.00,1.18
5957.00,1.18
5956.00,1.17
5955.00,1.17
5954.00,1.17
5953.00,1.17
5952.00,1.17
5951.00,1.16
5950.00,1.16
5949.00,1.16
5948.00,1.16
5947.00,1.16
5946.00,1.16
5945.00,1.16
5944.00,1.15
5943.00,1.15
5942.00,1.15
5941.00,1.15
5940.00,1.15
5939.00,1.15
5938.00,1.15
5937.00,1.15
5936.00,1.15
5935.00,1.15
5934.00,1.15
5933.00,1.14
5932.00,1.14
5931.00,1.14
5930.00,1.14
5929.00,1.14
5928.00,1.14
5927.00,1.14
5926.00,1.14
5925.00,1.14
5924.00,1.13
5923.00,1.13
5922.00,1.13
5921.00,1.13
5920.00,1.13
5919.00,1.13
5918.00,1.12
5917.00,1.12
5916.00,1.12
5915.00,1.12
5914.00,1.12
5913.00,1.12
5912.00,1.11
5911.00,1.11
5910.00,1.11
5909.00,1.11
5908.00,1.11
5907.00,1.11
5906.00,1.11
5905.00,1.11
5904.00,1.11
5903.00,1.11
5902.00,1.11
5901.00,1.11
5900.00,1.11
5899.00,1.12
5898.00,1.12
5897.00,1.12
5896.00,1.12
5895.00,1.12
5894.00,1.13
5893.00,1.13
5892.00,1.13
5891.00,1.13
5890.00,1.14
5889.00,1.14
5888.00,1.14
5887.00,1.15
5886.00,1.15
5885.00,1.15
5884.00,1.15
5883.00,1.16
5882.00,1.16
5881.00,1.16
5880.00,1.16
5879.00,1.17
5878.00,1.17
5877.00,1.17
5876.00,1.17
5875.00,1.17
5874.00,1.18
5873.00,1.18
5872.00,1.18
5871.00,1.18
5870.00,1.18
5869.00,1.18
5868.00,1.18
5867.00,1.18
5866.00,1.19
5865.00,1.19
5864.00,1.19
5863.00,1.19
5862.00,1.19
5861.00,1.19
5860.00,1.19
5859.00,1.19
5858.00,1.19
5857.00,1.20
5856.00,1.20
5855.00,1.20
5854.00,1.20
5853.00,1.20
5852.00,1.20
5851.00,1.20
5850.00,1.20
5849.00,1.20
5848.00,1.20
5847.00,1.20
5846.00,1.20
5845.00,1.20
5844.00,1.20
5843.00,1.20
5842.00,1.20
5841.00,1.20
5840.00,1.20
5839.00,1.20
5838.00,1.20
5837.00,1.20
5836.00,1.20
5835.00,1.20
5834.00,1.20
5833.00,1.20
5832.00,1.20
5831.00,1.20
5830.00,1.20
5829.00,1.20
5828.00,1.20
5827.00,1.20
5826.00,1.20
5825.00,1.20
5824.00,1.20
5823.00,1.20
5822.00,1.20
5821.00,1.19
5820.00,1.19
5819.00,1.19
5818.00,1.19
5817.00,1.19
5816.00,1.19
5815.00,1.19
5814.00,1.19
5813.00,1.19
5812.00,1.19
5811.00,1.19
5810.00,1.19
5809.00,1.19
5808.00,1.19
5807.00,1.19
5806.00,1.19
5805.00,1.18
5804.00,1.18
5803.00,1.18
5802.00,1.18
5801.00,1.18
5800.00,1.18
5799.00,1.17
5798.00,1.17
5797.00,1.17
5796.00,1.17
5795.00,1.17
5794.00,1.17
5793.00,1.16
5792.00,1.16
5791.00,1.16
5790.00,1.16
5789.00,1.16
5788.00,1.16
5787.00,1.16
5786.00,1.16
5785.00,1.16
5784.00,1.15
5783.00,1.15
5782.00,1.15
5781.00,1.15
5780.00,1.15
5779.00,1.15
5778.00,1.15
5777.00,1.15
5776.00,1.15
5775.00,1.15
5774.00,1.15
5773.00,1.15
5772.00,1.15
5771.00,1.15
5770.00,1.16
5769.00,1.16
5768.00,1.16
5767.00,1.16
5766.00,1.16
5765.00,1.16
5764.00,1.16
5763.00,1.17
5762.00,1.17
5761.00,1.17
5760.00,1.17
5759.00,1.18
5758.00,1.18
5757.00,1.18
5756.00,1.18
5755.00,1.18
5754.00,1.18
5753.00,1.19
5752.00,1.19
5751.00,1.19
5750.00,1.19
5749.00,1.19
5748.00,1.19
5747.00,1.19
5746.00,1.19
5745.00,1.19
5744.00,1.19
5743.00,1.19
5742.00,1.19
5741.00,1.19
5740.00,1.19
5739.00,1.19
5738.00,1.20
5737.00,1.20
5736.00,1.20
5735.00,1.20
5734.00,1.20
5733.00,1.20
5732.00,1.19
5731.00,1.19
5730.00,1.19
5729.00,1.19
5728.00,1.19
5727.00,1.19
5726.00,1.19
5725.00,1.19
5724.00,1.19
5723.00,1.19
5722.00,1.19
5721.00,1.19
5720.00,1.18
5719.00,1.18
5718.00,1.18
5717.00,1.18
5716.00,1.18
5715.00,1.18
5714.00,1.18
5713.00,1.17
5712.00,1.17
5711.00,1.17
5710.00,1.17
5709.00,1.17
5708.00,1.17
5707.00,1.17
5706.00,1.16
5705.00,1.16
5704.00,1.16
5703.00,1.16
5702.00,1.16
5701.00,1.16
5700.00,1.16
5699.00,1.16
5698.00,1.16
5697.00,1.15
5696.00,1.15
5695.00,1.15
5694.00,1.15
5693.00,1.15
5692.00,1.15
5691.00,1.15
5690.00,1.15
5689.00,1.15
5688.00,1.14
5687.00,1.14
5686.00,1.14
5685.00,1.14
5684.00,1.14
5683.00,1.14
5682.00,1.14
5681.00,1.14
5680.00,1.14
5679.00,1.14
5678.00,1.14
5677.00,1.14
5676.00,1.14
5675.00,1.14
5674.00,1.14
5673.00,1.13
5672.00,1.13
5671.00,1.13
5670.00,1.13
5669.00,1.13
5668.00,1.13
5667.00,1.13
5666.00,1.13
5665.00,1.13
5664.00,1.13
5663.00,1.14
5662.00,1.14
5661.00,1.14
5660.00,1.14
5659.00,1.14
5658.00,1.14
5657.00,1.14
5656.00,1.14
5655.00,1.14
5654.00,1.14
5653.00,1.15
5652.00,1.15
5651.00,1.15
5650.00,1.15
5649.00,1.15
5648.00,1.15
5647.00,1.15
5646.00,1.15
5645.00,1.15
5644.00,1.15
5643.00,1.15
5642.00,1.15
5641.00,1.15
5640.00,1.15
5639.00,1.15
5638.00,1.16
5637.00,1.16
5636.00,1.16
5635.00,1.16
5634.00,1.16
5633.00,1.16
5632.00,1.16
5631.00,1.16
5630.00,1.16
5629.00,1.16
5628.00,1.16
5627.00,1.16
5626.00,1.16
5625.00,1.16
5624.00,1.16
5623.00,1.16
5622.00,1.16
5621.00,1.16
5620.00,1.16
5619.00,1.16
5618.00,1.16
5617.00,1.17
5616.00,1.17
5615.00,1.17
5614.00,1.17
5613.00,1.17
5612.00,1.17
5611.00,1.17
5610.00,1.17
5609.00,1.17
5608.00,1.17
5607.00,1.17
5606.00,1.17
5605.00,1.18
5604.00,1.18
5603.00,1.18
5602.00,1.18
5601.00,1.18
5600.00,1.18
5599.00,1.18
5598.00,1.18
5597.00,1.19
5596.00,1.19
5595.00,1.19
5594.00,1.19
5593.00,1.19
5592.00,1.19
5591.00,1.19
5590.00,1.19
5589.00,1.19
5588.00,1.19
5587.00,1.20
5586.00,1.20
5585.00,1.20
5584.00,1.20
5583.00,1.20
5582.00,1.20
5581.00,1.20
5580.00,1.20
5579.00,1.21
5578.00,1.21
5577.00,1.21
5576.00,1.21
5575.00,1.21
5574.00,1.21
5573.00,1.21
5572.00,1.21
5571.00,1.21
5570.00,1.21
5569.00,1.22
5568.00,1.22
5567.00,1.22
5566.00,1.22
5565.00,1.22
5564.00,1.22
5563.00,1.22
5562.00,1.23
5561.00,1.23
5560.00,1.23
5559.00,1.23
5558.00,1.23
5557.00,1.24
5556.00,1.24
5555.00,1.24
5554.00,1.24
5553.00,1.24
5552.00,1.24
5551.00,1.25
5550.00,1.25
5549.00,1.25
5548.00,1.25
5547.00,1.25
5546.00,1.25
5545.00,1.25
5544.00,1.26
5543.00,1.26
5542.00,1.26
5541.00,1.26
5540.00,1.26
5539.00,1.26
5538.00,1.26
5537.00,1.26
5536.00,1.26
5535.00,1.26
5534.00,1.26
5533.00,1.26
5532.00,1.26
5531.00,1.26
5530.00,1.26
5529.00,1.26
5528.00,1.26
5527.00,1.26
5526.00,1.26
5525.00,1.26
5524.00,1.27
5523.00,1.27
5522.00,1.27
5521.00,1.27
5520.00,1.27
5519.00,1.27
5518.00,1.27
5517.00,1.27
5516.00,1.27
5515.00,1.28
5514.00,1.28
5513.00,1.28
5512.00,1.28
5511.00,1.28
5510.00,1.28
5509.00,1.28
5508.00,1.28
5507.00,1.28
5506.00,1.28
5505.00,1.28
5504.00,1.28
5503.00,1.28
5502.00,1.28
5501.00,1.29
5500.00,1.29
5499.00,1.29
5498.00,1.29
5497.00,1.29
5496.00,1.29
5495.00,1.29
5494.00,1.29
5493.00,1.29
5492.00,1.29
5491.00,1.29
5490.00,1.29
5489.00,1.29
5488.00,1.29
5487.00,1.30
5486.00,1.30
5485.00,1.30
5484.00,1.30
5483.00,1.30
5482.00,1.30
5481.00,1.30
5480.00,1.30
5479.00,1.30
5478.00,1.30
5477.00,1.30
5476.00,1.30
5475.00,1.30
5474.00,1.30
5473.00,1.30
5472.00,1.30
5471.00,1.30
5470.00,1.30
5469.00,1.30
5468.00,1.31
5467.00,1.31
5466.00,1.31
5465.00,1.31
5464.00,1.31
5463.00,1.31
5462.00,1.31
5461.00,1.31
5460.00,1.31
5459.00,1.31
5458.00,1.31
5457.00,1.31
5456.00,1.31
5455.00,1.31
5454.00,1.31
5453.00,1.31
5452.00,1.31
5451.00,1.31
5450.00,1.31
5449.00,1.31
5448.00,1.31
5447.00,1.31
5446.00,1.31
5445.00,1.31
5444.00,1.31
5443.00,1.31
5442.00,1.31
5441.00,1.31
5440.00,1.30
5439.00,1.30
5438.00,1.30
5437.00,1.30
5436.00,1.30
5435.00,1.30
5434.00,1.30
5433.00,1.30
5432.00,1.30
5431.00,1.30
5430.00,1.30
5429.00,1.30
5428.00,1.30
5427.00,1.30
5426.00,1.30
5425.00,1.30
5424.00,1.30
5423.00,1.29
5422.00,1.29
5421.00,1.29
5420.00,1.29
5419.00,1.29
5418.00,1.29
5417.00,1.29
5416.00,1.29
5415.00,1.29
5414.00,1.29
5413.00,1.29
5412.00,1.28
5411.00,1.28
5410.00,1.28
5409.00,1.28
5408.00,1.28
5407.00,1.27
5406.00,1.27
5405.00,1.27
5404.00,1.27
5403.00,1.26
5402.00,1.26
5401.00,1.26
5400.00,1.26
5399.00,1.25
5398.00,1.25
5397.00,1.25
5396.00,1.24
5395.00,1.24
5394.00,1.24
5393.00,1.23
5392.00,1.23
5391.00,1.22
5390.00,1.22
5389.00,1.22
5388.00,1.21
5387.00,1.21
5386.00,1.21
5385.00,1.20
5384.00,1.20
5383.00,1.19
5382.00,1.19
5381.00,1.18
5380.00,1.18
5379.00,1.17
5378.00,1.17
5377.00,1.17
5376.00,1.16
5375.00,1.15
5374.00,1.15
5373.00,1.14
5372.00,1.14
5371.00,1.13
5370.00,1.13
5369.00,1.12
5368.00,1.12
5367.00,1.11
5366.00,1.10
5365.00,1.10
5364.00,1.09
5363.00,1.08
5362.00,1.08
5361.00,1.07
5360.00,1.06
5359.00,1.06
5358.00,1.05
5357.00,1.04
5356.00,1.04
5355.00,1.03
5354.00,1.02
5353.00,1.01
5352.00,1.01
5351.00,1.00
5350.00,0.99
5349.00,0.99
5348.00,0.98
5347.00,0.97
5346.00,0.97
5345.00,0.96
5344.00,0.95
5343.00,0.95
5342.00,0.94
5341.00,0.94
5340.00,0.93
5339.00,0.92
5338.00,0.92
5337.00,0.91
5336.00,0.91
5335.00,0.90
5334.00,0.90
5333.00,0.90
5332.00,0.89
5331.00,0.89
5330.00,0.88
5329.00,0.88
5328.00,0.88
5327.00,0.87
5326.00,0.87
5325.00,0.87
5324.00,0.86
5323.00,0.86
5322.00,0.86
5321.00,0.85
5320.00,0.85
5319.00,0.85
5318.00,0.85
5317.00,0.84
5316.00,0.84
5315.00,0.84
5314.00,0.84
5313.00,0.84
5312.00,0.84
5311.00,0.83
5310.00,0.83
5309.00,0.83
5308.00,0.83
5307.00,0.83
5306.00,0.83
5305.00,0.83
5304.00,0.83
5303.00,0.83
5302.00,0.83
5301.00,0.83
5300.00,0.83
5299.00,0.83
5298.00,0.83
5297.00,0.83
5296.00,0.83
5295.00,0.83
5294.00,0.83
5293.00,0.83
5292.00,0.83
5291.00,0.83
5290.00,0.83
5289.00,0.83
5288.00,0.83
5287.00,0.83
5286.00,0.83
5285.00,0.83
5284.00,0.83
5283.00,0.83
5282.00,0.83
5281.00,0.83
5280.00,0.83
5279.00,0.83
5278.00,0.83
5277.00,0.83
5276.00,0.83
5275.00,0.83
5274.00,0.83
5273.00,0.83
5272.00,0.83
5271.00,0.83
5270.00,0.83
5269.00,0.83
5268.00,0.83
5267.00,0.83
5266.00,0.83
5265.00,0.83
5264.00,0.83
5263.00,0.83
5262.00,0.83
5261.00,0.83
5260.00,0.83
5259.00,0.83
5258.00,0.83
5257.00,0.83
5256.00,0.83
5255.00,0.83
5254.00,0.83
5253.00,0.83
5252.00,0.83
5251.00,0.83
5250.00,0.83
5249.00,0.83
5248.00,0.83
5247.00,0.83
5246.00,0.83
5245.00,0.83
5244.00,0.83
5243.00,0.83
5242.00,0.84
5241.00,0.84
5240.00,0.84
5239.00,0.84
5238.00,0.84
5237.00,0.84
5236.00,0.84
5235.00,0.84
5234.00,0.84
5233.00,0.84
5232.00,0.84
5231.00,0.84
5230.00,0.84
5229.00,0.84
5228.00,0.84
5227.00,0.84
5226.00,0.84
5225.00,0.83
5224.00,0.83
5223.00,0.83
5222.00,0.83
5221.00,0.83
5220.00,0.83
5219.00,0.83
5218.00,0.83
5217.00,0.83
5216.00,0.83
5215.00,0.83
5214.00,0.83
5213.00,0.83
5212.00,0.83
5211.00,0.83
5210.00,0.83
5209.00,0.83
5208.00,0.83
5207.00,0.83
5206.00,0.84
5205.00,0.84
5204.00,0.84
5203.00,0.84
5202.00,0.84
5201.00,0.84
5200.00,0.84
5199.00,0.84
5198.00,0.84
5197.00,0.84
5196.00,0.84
5195.00,0.84
5194.00,0.84
5193.00,0.84
5192.00,0.84
5191.00,0.85
5190.00,0.85
5189.00,0.85
5188.00,0.85
5187.00,0.85
5186.00,0.85
5185.00,0.85
5184.00,0.85
5183.00,0.86
5182.00,0.86
5181.00,0.86
5180.00,0.86
5179.00,0.86
5178.00,0.86
5177.00,0.86
5176.00,0.86
5175.00,0.86
5174.00,0.86
5173.00,0.86
5172.00,0.86
5171.00,0.86
5170.00,0.86
5169.00,0.86
5168.00,0.86
5167.00,0.86
5166.00,0.86
5165.00,0.86
5164.00,0.86
5163.00,0.86
5162.00,0.86
5161.00,0.86
5160.00,0.86
5159.00,0.86
5158.00,0.86
5157.00,0.86
5156.00,0.86
5155.00,0.86
5154.00,0.86
5153.00,0.86
5152.00,0.86
5151.00,0.86
5150.00,0.86
5149.00,0.86
5148.00,0.86
5147.00,0.86
5146.00,0.86
5145.00,0.86
5144.00,0.86
5143.00,0.86
5142.00,0.86
5141.00,0.86
5140.00,0.86
5139.00,0.86
5138.00,0.86
5137.00,0.86
5136.00,0.86
5135.00,0.86
5134.00,0.86
5133.00,0.86
5132.00,0.86
5131.00,0.86
5130.00,0.86
5129.00,0.87
5128.00,0.87
5127.00,0.87
5126.00,0.87
5125.00,0.87
5124.00,0.87
5123.00,0.87
5122.00,0.87
5121.00,0.87
5120.00,0.87
5119.00,0.88
5118.00,0.88
5117.00,0.88
5116.00,0.88
5115.00,0.88
5114.00,0.88
5113.00,0.88
5112.00,0.88
5111.00,0.88
5110.00,0.88
5109.00,0.88
5108.00,0.88
5107.00,0.88
5106.00,0.88
5105.00,0.88
5104.00,0.88
5103.00,0.88
5102.00,0.88
5101.00,0.88
5100.00,0.88
5099.00,0.88
5098.00,0.88
5097.00,0.88
5096.00,0.88
5095.00,0.88
5094.00,0.88
5093.00,0.88
5092.00,0.88
5091.00,0.88
5090.00,0.88
5089.00,0.88
5088.00,0.88
5087.00,0.88
5086.00,0.88
5085.00,0.88
5084.00,0.88
5083.00,0.88
5082.00,0.88
5081.00,0.88
5080.00,0.89
5079.00,0.89
5078.00,0.89
5077.00,0.89
5076.00,0.89
5075.00,0.89
5074.00,0.89
5073.00,0.89
5072.00,0.89
5071.00,0.89
5070.00,0.89
5069.00,0.89
5068.00,0.89
5067.00,0.89
5066.00,0.89
5065.00,0.89
5064.00,0.89
5063.00,0.89
5062.00,0.89
5061.00,0.89
5060.00,0.89
5059.00,0.89
5058.00,0.89
5057.00,0.89
5056.00,0.89
5055.00,0.89
5054.00,0.89
5053.00,0.89
5052.00,0.89
5051.00,0.89
5050.00,0.89
5049.00,0.89
5048.00,0.89
5047.00,0.89
5046.00,0.89
5045.00,0.89
5044.00,0.90
5043.00,0.90
5042.00,0.90
5041.00,0.90
5040.00,0.90
5039.00,0.90
5038.00,0.90
5037.00,0.90
5036.00,0.90
5035.00,0.90
5034.00,0.90
5033.00,0.90
5032.00,0.90
5031.00,0.90
5030.00,0.90
5029.00,0.90
5028.00,0.90
5027.00,0.90
5026.00,0.90
5025.00,0.90
5024.00,0.90
5023.00,0.90
5022.00,0.90
5021.00,0.90
5020.00,0.90
5019.00,0.91
5018.00,0.91
5017.00,0.91
5016.00,0.91
5015.00,0.91
5014.00,0.91
5013.00,0.91
5012.00,0.91
5011.00,0.91
5010.00,0.91
5009.00,0.91
5008.00,0.91
5007.00,0.91
5006.00,0.91
5005.00,0.91
5004.00,0.91
5003.00,0.91
5002.00,0.91
5001.00,0.91
5000.00,0.91
4999.00,0.92
4998.00,0.92
4997.00,0.92
4996.00,0.92
4995.00,0.92
4994.00,0.92
4993.00,0.92
4992.00,0.92
4991.00,0.92
4990.00,0.92
4989.00,0.92
4988.00,0.92
4987.00,0.93
4986.00,0.93
4985.00,0.93
4984.00,0.93
4983.00,0.93
4982.00,0.93
4981.00,0.93
4980.00,0.93
4979.00,0.93
4978.00,0.93
4977.00,0.93
4976.00,0.93
4975.00,0.93
4974.00,0.93
4973.00,0.93
4972.00,0.93
4971.00,0.93
4970.00,0.93
4969.00,0.93
4968.00,0.93
4967.00,0.93
4966.00,0.93
4965.00,0.93
4964.00,0.93
4963.00,0.93
4962.00,0.93
4961.00,0.93
4960.00,0.93
4959.00,0.93
4958.00,0.93
4957.00,0.93
4956.00,0.93
4955.00,0.93
4954.00,0.93
4953.00,0.93
4952.00,0.93
4951.00,0.93
4950.00,0.94
4949.00,0.94
4948.00,0.94
4947.00,0.94
4946.00,0.94
4945.00,0.94
4944.00,0.94
4943.00,0.94
4942.00,0.94
4941.00,0.94
4940.00,0.94
4939.00,0.94
4938.00,0.94
4937.00,0.94
4936.00,0.94
4935.00,0.94
4934.00,0.94
4933.00,0.94
4932.00,0.94
4931.00,0.94
4930.00,0.94
4929.00,0.94
4928.00,0.94
4927.00,0.94
4926.00,0.94
4925.00,0.94
4924.00,0.95
4923.00,0.95
4922.00,0.95
4921.00,0.95
4920.00,0.95
4919.00,0.95
4918.00,0.95
4917.00,0.95
4916.00,0.95
4915.00,0.95
4914.00,0.95
4913.00,0.95
4912.00,0.95
4911.00,0.96
4910.00,0.96
4909.00,0.96
4908.00,0.96
4907.00,0.96
4906.00,0.96
4905.00,0.96
4904.00,0.96
4903.00,0.96
4902.00,0.96
4901.00,0.96
4900.00,0.96
4899.00,0.96
4898.00,0.96
4897.00,0.96
4896.00,0.96
4895.00,0.96
4894.00,0.96
4893.00,0.96
4892.00,0.96
4891.00,0.96
4890.00,0.96
4889.00,0.96
4888.00,0.97
4887.00,0.97
4886.00,0.97
4885.00,0.97
4884.00,0.97
4883.00,0.97
4882.00,0.97
4881.00,0.97
4880.00,0.97
4879.00,0.97
4878.00,0.97
4877.00,0.97
4876.00,0.97
4875.00,0.97
4874.00,0.97
4873.00,0.97
4872.00,0.97
4871.00,0.97
4870.00,0.97
4869.00,0.97
4868.00,0.97
4867.00,0.97
4866.00,0.97
4865.00,0.97
4864.00,0.97
4863.00,0.97
4862.00,0.97
4861.00,0.97
4860.00,0.97
4859.00,0.97
4858.00,0.97
4857.00,0.97
4856.00,0.97
4855.00,0.97
4854.00,0.97
4853.00,0.97
4852.00,0.97
4851.00,0.98
4850.00,0.98
4849.00,0.98
4848.00,0.98
4847.00,0.98
4846.00,0.98
4845.00,0.98
4844.00,0.98
4843.00,0.98
4842.00,0.98
4841.00,0.98
4840.00,0.98
4839.00,0.98
4838.00,0.98
4837.00,0.99
4836.00,0.99
4835.00,0.99
4834.00,0.99
4833.00,0.99
4832.00,0.99
4831.00,0.99
4830.00,0.99
4829.00,0.99
4828.00,0.99
4827.00,0.99
4826.00,0.99
4825.00,0.99
4824.00,0.99
4823.00,0.99
4822.00,0.99
4821.00,0.99
4820.00,0.99
4819.00,0.99
4818.00,0.99
4817.00,0.99
4816.00,0.99
4815.00,0.99
4814.00,0.99
4813.00,0.99
4812.00,0.99
4811.00,0.99
4810.00,1.00
4809.00,1.00
4808.00,1.00
4807.00,1.00
4806.00,1.00
4805.00,1.00
4804.00,1.00
4803.00,1.00
4802.00,1.01
4801.00,1.01
4800.00,1.01
4799.00,1.01
4798.00,1.01
4797.00,1.01
4796.00,1.01
4795.00,1.01
4794.00,1.01
4793.00,1.01
4792.00,1.01
4791.00,1.01
4790.00,1.01
4789.00,1.01
4788.00,1.01
4787.00,1.01
4786.00,1.01
4785.00,1.01
4784.00,1.01
4783.00,1.01
4782.00,1.01
4781.00,1.01
4780.00,1.01
4779.00,1.01
4778.00,1.01
4777.00,1.01
4776.00,1.01
4775.00,1.01
4774.00,1.01
4773.00,1.01
4772.00,1.01
4771.00,1.01
4770.00,1.01
4769.00,1.01
4768.00,1.01
4767.00,1.01
4766.00,1.01
4765.00,1.02
4764.00,1.02
4763.00,1.02
4762.00,1.02
4761.00,1.02
4760.00,1.02
4759.00,1.02
4758.00,1.02
4757.00,1.02
4756.00,1.02
4755.00,1.03
4754.00,1.03
4753.00,1.03
4752.00,1.03
4751.00,1.03
4750.00,1.03
4749.00,1.03
4748.00,1.03
4747.00,1.03
4746.00,1.04
4745.00,1.04
4744.00,1.04
4743.00,1.04
4742.00,1.04
4741.00,1.04
4740.00,1.04
4739.00,1.04
4738.00,1.04
4737.00,1.05
4736.00,1.05
4735.00,1.05
4734.00,1.05
4733.00,1.05
4732.00,1.05
4731.00,1.05
4730.00,1.05
4729.00,1.06
4728.00,1.06
4727.00,1.06
4726.00,1.06
4725.00,1.06
4724.00,1.06
4723.00,1.06
4722.00,1.06
4721.00,1.06
4720.00,1.06
4719.00,1.06
4718.00,1.06
4717.00,1.06
4716.00,1.06
4715.00,1.06
4714.00,1.06
4713.00,1.06
4712.00,1.06
4711.00,1.06
4710.00,1.06
4709.00,1.06
4708.00,1.06
4707.00,1.06
4706.00,1.06
4705.00,1.06
4704.00,1.06
4703.00,1.06
4702.00,1.06
4701.00,1.06
4700.00,1.06
4699.00,1.07
4698.00,1.07
4697.00,1.07
4696.00,1.07
4695.00,1.07
4694.00,1.07
4693.00,1.07
4692.00,1.07
4691.00,1.07
4690.00,1.07
4689.00,1.08
4688.00,1.08
4687.00,1.08
4686.00,1.08
4685.00,1.08
4684.00,1.08
4683.00,1.08
4682.00,1.08
4681.00,1.08
4680.00,1.08
4679.00,1.08
4678.00,1.08
4677.00,1.08
4676.00,1.08
4675.00,1.08
4674.00,1.08
4673.00,1.08
4672.00,1.08
4671.00,1.08
4670.00,1.08
4669.00,1.08
4668.00,1.08
4667.00,1.08
4666.00,1.08
4665.00,1.08
4664.00,1.08
4663.00,1.08
4662.00,1.08
4661.00,1.09
4660.00,1.09
4659.00,1.09
4658.00,1.09
4657.00,1.09
4656.00,1.09
4655.00,1.09
4654.00,1.10
4653.00,1.10
4652.00,1.10
4651.00,1.10
4650.00,1.11
4649.00,1.11
4648.00,1.11
4647.00,1.11
4646.00,1.11
4645.00,1.12
4644.00,1.12
4643.00,1.12
4642.00,1.12
4641.00,1.12
4640.00,1.12
4639.00,1.12
4638.00,1.12
4637.00,1.12
4636.00,1.12
4635.00,1.12
4634.00,1.12
4633.00,1.12
4632.00,1.12
4631.00,1.12
4630.00,1.12
4629.00,1.12
4628.00,1.12
4627.00,1.12
4626.00,1.12
4625.00,1.12
4624.00,1.12
4623.00,1.12
4622.00,1.12
4621.00,1.12
4620.00,1.13
4619.00,1.13
4618.00,1.13
4617.00,1.13
4616.00,1.13
4615.00,1.13
4614.00,1.13
4613.00,1.13
4612.00,1.13
4611.00,1.13
4610.00,1.13
4609.00,1.13
4608.00,1.13
4607.00,1.13
4606.00,1.13
4605.00,1.13
4604.00,1.13
4603.00,1.13
4602.00,1.13
4601.00,1.13
4600.00,1.13
4599.00,1.13
4598.00,1.13
4597.00,1.13
4596.00,1.13
4595.00,1.13
4594.00,1.13
4593.00,1.13
4592.00,1.13
4591.00,1.13
4590.00,1.13
4589.00,1.13
4588.00,1.14
4587.00,1.14
4586.00,1.14
4585.00,1.14
4584.00,1.14
4583.00,1.14
4582.00,1.14
4581.00,1.14
4580.00,1.14
4579.00,1.14
4578.00,1.14
4577.00,1.14
4576.00,1.14
4575.00,1.15
4574.00,1.15
4573.00,1.15
4572.00,1.15
4571.00,1.15
4570.00,1.15
4569.00,1.15
4568.00,1.16
4567.00,1.16
4566.00,1.16
4565.00,1.16
4564.00,1.16
4563.00,1.16
4562.00,1.16
4561.00,1.17
4560.00,1.17
4559.00,1.17
4558.00,1.17
4557.00,1.17
4556.00,1.17
4555.00,1.17
4554.00,1.17
4553.00,1.17
4552.00,1.17
4551.00,1.16
4550.00,1.16
4549.00,1.16
4548.00,1.16
4547.00,1.16
4546.00,1.16
4545.00,1.16
4544.00,1.16
4543.00,1.16
4542.00,1.16
4541.00,1.16
4540.00,1.16
4539.00,1.16
4538.00,1.16
4537.00,1.16
4536.00,1.17
4535.00,1.17
4534.00,1.17
4533.00,1.17
4532.00,1.17
4531.00,1.17
4530.00,1.17
4529.00,1.17
4528.00,1.17
4527.00,1.17
4526.00,1.17
4525.00,1.17
4524.00,1.17
4523.00,1.17
4522.00,1.17
4521.00,1.17
4520.00,1.17
4519.00,1.17
4518.00,1.17
4517.00,1.17
4516.00,1.17
4515.00,1.17
4514.00,1.17
4513.00,1.17
4512.00,1.17
4511.00,1.17
4510.00,1.17
4509.00,1.17
4508.00,1.18
4507.00,1.18
4506.00,1.18
4505.00,1.18
4504.00,1.18
4503.00,1.18
4502.00,1.18
4501.00,1.18
4500.00,1.18
4499.00,1.18
4498.00,1.18
4497.00,1.18
4496.00,1.18
4495.00,1.18
4494.00,1.18
4493.00,1.18
4492.00,1.18
4491.00,1.18
4490.00,1.18
4489.00,1.18
4488.00,1.18
4487.00,1.18
4486.00,1.18
4485.00,1.18
4484.00,1.18
4483.00,1.18
4482.00,1.17
4481.00,1.17
4480.00,1.17
4479.00,1.17
4478.00,1.17
4477.00,1.17
4476.00,1.17
4475.00,1.17
4474.00,1.17
4473.00,1.17
4472.00,1.17
4471.00,1.17
4470.00,1.17
4469.00,1.17
4468.00,1.17
4467.00,1.17
4466.00,1.17
4465.00,1.17
4464.00,1.17
4463.00,1.17
4462.00,1.17
4461.00,1.17
4460.00,1.17
4459.00,1.17
4458.00,1.17
4457.00,1.17
4456.00,1.17
4455.00,1.17
4454.00,1.17
4453.00,1.16
4452.00,1.16
4451.00,1.16
4450.00,1.16
4449.00,1.16
4448.00,1.16
4447.00,1.16
4446.00,1.16
4445.00,1.15
4444.00,1.15
4443.00,1.15
4442.00,1.15
4441.00,1.15
4440.00,1.15
4439.00,1.15
4438.00,1.14
4437.00,1.14
4436.00,1.14
4435.00,1.14
4434.00,1.14
4433.00,1.14
4432.00,1.14
4431.00,1.14
4430.00,1.14
4429.00,1.14
4428.00,1.14
4427.00,1.14
4426.00,1.14
4425.00,1.14
4424.00,1.14
4423.00,1.14
4422.00,1.14
4421.00,1.14
4420.00,1.14
4419.00,1.14
4418.00,1.14
4417.00,1.14
4416.00,1.14
4415.00,1.14
4414.00,1.15
4413.00,1.15
4412.00,1.15
4411.00,1.15
4410.00,1.15
4409.00,1.15
4408.00,1.15
4407.00,1.15
4406.00,1.15
4405.00,1.15
4404.00,1.15
4403.00,1.15
4402.00,1.15
4401.00,1.15
4400.00,1.15
4399.00,1.15
4398.00,1.15
4397.00,1.15
4396.00,1.15
4395.00,1.16
4394.00,1.16
4393.00,1.16
4392.00,1.16
4391.00,1.16
4390.00,1.16
4389.00,1.16
4388.00,1.16
4387.00,1.16
4386.00,1.16
4385.00,1.16
4384.00,1.16
4383.00,1.16
4382.00,1.16
4381.00,1.16
4380.00,1.16
4379.00,1.17
4378.00,1.17
4377.00,1.17
4376.00,1.17
4375.00,1.17
4374.00,1.17
4373.00,1.17
4372.00,1.17
4371.00,1.17
4370.00,1.17
4369.00,1.17
4368.00,1.17
4367.00,1.17
4366.00,1.17
4365.00,1.17
4364.00,1.17
4363.00,1.17
4362.00,1.17
4361.00,1.18
4360.00,1.18
4359.00,1.18
4358.00,1.18
4357.00,1.18
4356.00,1.18
4355.00,1.18
4354.00,1.18
4353.00,1.18
4352.00,1.18
4351.00,1.18
4350.00,1.18
4349.00,1.18
4348.00,1.18
4347.00,1.18
4346.00,1.18
4345.00,1.18
4344.00,1.18
4343.00,1.18
4342.00,1.19
4341.00,1.19
4340.00,1.19
4339.00,1.19
4338.00,1.19
4337.00,1.19
4336.00,1.19
4335.00,1.19
4334.00,1.19
4333.00,1.19
4332.00,1.19
4331.00,1.19
4330.00,1.19
4329.00,1.19
4328.00,1.19
4327.00,1.19
4326.00,1.19
4325.00,1.19
4324.00,1.19
4323.00,1.19
4322.00,1.19
4321.00,1.19
4320.00,1.19
4319.00,1.19
4318.00,1.19
4317.00,1.19
4316.00,1.19
4315.00,1.19
4314.00,1.19
4313.00,1.20
4312.00,1.20
4311.00,1.20
4310.00,1.20
4309.00,1.20
4308.00,1.20
4307.00,1.20
4306.00,1.20
4305.00,1.21
4304.00,1.21
4303.00,1.21
4302.00,1.21
4301.00,1.21
4300.00,1.21
4299.00,1.21
4298.00,1.21
4297.00,1.21
4296.00,1.21
4295.00,1.21
4294.00,1.21
4293.00,1.20
4292.00,1.20
4291.00,1.20
4290.00,1.20
4289.00,1.20
4288.00,1.20
4287.00,1.20
4286.00,1.20
4285.00,1.20
4284.00,1.20
4283.00,1.20
4282.00,1.20
4281.00,1.20
4280.00,1.20
4279.00,1.20
4278.00,1.20
4277.00,1.20
4276.00,1.21
4275.00,1.21
4274.00,1.21
4273.00,1.21
4272.00,1.21
4271.00,1.22
4270.00,1.22
4269.00,1.22
4268.00,1.22
4267.00,1.22
4266.00,1.23
4265.00,1.23
4264.00,1.23
4263.00,1.23
4262.00,1.23
4261.00,1.23
4260.00,1.23
4259.00,1.23
4258.00,1.24
4257.00,1.24
4256.00,1.24
4255.00,1.24
4254.00,1.24
4253.00,1.24
4252.00,1.24
4251.00,1.24
4250.00,1.24
4249.00,1.24
4248.00,1.24
4247.00,1.23
4246.00,1.23
4245.00,1.23
4244.00,1.23
4243.00,1.23
4242.00,1.23
4241.00,1.23
4240.00,1.23
4239.00,1.23
4238.00,1.23
4237.00,1.23
4236.00,1.23
4235.00,1.23
4234.00,1.23
4233.00,1.23
4232.00,1.23
4231.00,1.23
4230.00,1.23
4229.00,1.23
4228.00,1.23
4227.00,1.23
4226.00,1.23
4225.00,1.23
4224.00,1.23
4223.00,1.24
4222.00,1.24
4221.00,1.24
4220.00,1.24
4219.00,1.24
4218.00,1.24
4217.00,1.24
4216.00,1.24
4215.00,1.24
4214.00,1.24
4213.00,1.24
4212.00,1.24
4211.00,1.24
4210.00,1.24
4209.00,1.24
4208.00,1.24
4207.00,1.24
4206.00,1.24
4205.00,1.24
4204.00,1.24
4203.00,1.24
4202.00,1.24
4201.00,1.25
4200.00,1.25
4199.00,1.25
4198.00,1.25
4197.00,1.25
4196.00,1.25
4195.00,1.25
4194.00,1.25
4193.00,1.25
4192.00,1.25
4191.00,1.25
4190.00,1.26
4189.00,1.26
4188.00,1.26
4187.00,1.26
4186.00,1.26
4185.00,1.26
4184.00,1.26
4183.00,1.26
4182.00,1.26
4181.00,1.26
4180.00,1.27
4179.00,1.27
4178.00,1.27
4177.00,1.27
4176.00,1.27
4175.00,1.27
4174.00,1.27
4173.00,1.27
4172.00,1.27
4171.00,1.27
4170.00,1.27
4169.00,1.27
4168.00,1.27
4167.00,1.27
4166.00,1.27
4165.00,1.27
4164.00,1.27
4163.00,1.27
4162.00,1.27
4161.00,1.27
4160.00,1.27
4159.00,1.27
4158.00,1.27
4157.00,1.27
4156.00,1.27
4155.00,1.27
4154.00,1.27
4153.00,1.27
4152.00,1.27
4151.00,1.27
4150.00,1.28
4149.00,1.28
4148.00,1.28
4147.00,1.28
4146.00,1.28
4145.00,1.28
4144.00,1.28
4143.00,1.28
4142.00,1.28
4141.00,1.29
4140.00,1.29
4139.00,1.29
4138.00,1.29
4137.00,1.29
4136.00,1.29
4135.00,1.29
4134.00,1.29
4133.00,1.29
4132.00,1.29
4131.00,1.29
4130.00,1.29
4129.00,1.29
4128.00,1.29
4127.00,1.29
4126.00,1.29
4125.00,1.29
4124.00,1.29
4123.00,1.29
4122.00,1.29
4121.00,1.29
4120.00,1.29
4119.00,1.29
4118.00,1.29
4117.00,1.29
4116.00,1.29
4115.00,1.28
4114.00,1.28
4113.00,1.28
4112.00,1.28
4111.00,1.28
4110.00,1.28
4109.00,1.28
4108.00,1.28
4107.00,1.29
4106.00,1.29
4105.00,1.29
4104.00,1.29
4103.00,1.29
4102.00,1.29
4101.00,1.29
4100.00,1.29
4099.00,1.29
4098.00,1.29
4097.00,1.29
4096.00,1.29
4095.00,1.29
4094.00,1.30
4093.00,1.30
4092.00,1.30
4091.00,1.30
4090.00,1.30
4089.00,1.30
4088.00,1.30
4087.00,1.30
4086.00,1.30
4085.00,1.30
4084.00,1.30
4083.00,1.30
4082.00,1.30
4081.00,1.30
4080.00,1.30
4079.00,1.30
4078.00,1.31
4077.00,1.31
4076.00,1.31
4075.00,1.31
4074.00,1.31
4073.00,1.31
4072.00,1.31
4071.00,1.31
4070.00,1.31
4069.00,1.30
4068.00,1.30
4067.00,1.30
4066.00,1.30
4065.00,1.30
4064.00,1.30
4063.00,1.30
4062.00,1.30
4061.00,1.30
4060.00,1.30
4059.00,1.30
4058.00,1.30
4057.00,1.30
4056.00,1.30
4055.00,1.30
4054.00,1.30
4053.00,1.30
4052.00,1.30
4051.00,1.30
4050.00,1.30
4049.00,1.31
4048.00,1.31
4047.00,1.31
4046.00,1.31
4045.00,1.31
4044.00,1.31
4043.00,1.31
4042.00,1.32
4041.00,1.32
4040.00,1.32
4039.00,1.32
4038.00,1.32
4037.00,1.32
4036.00,1.32
4035.00,1.32
4034.00,1.32
4033.00,1.32
4032.00,1.32
4031.00,1.32
4030.00,1.32
4029.00,1.32
4028.00,1.32
4027.00,1.32
4026.00,1.32
4025.00,1.33
4024.00,1.33
4023.00,1.33
4022.00,1.33
4021.00,1.33
4020.00,1.34
4019.00,1.34
4018.00,1.34
4017.00,1.34
4016.00,1.34
4015.00,1.34
4014.00,1.34
4013.00,1.35
4012.00,1.35
4011.00,1.35
4010.00,1.35
4009.00,1.35
4008.00,1.35
4007.00,1.35
4006.00,1.36
4005.00,1.36
4004.00,1.36
4003.00,1.36
4002.00,1.37
4001.00,1.37
4000.00,1.37
