创建为新数据集,样品 088 用户 Administrator 日期 星期六, 七月 21 2018
cm-1,%T
10000.00,1.11
9999.00,1.11
9998.00,1.11
9997.00,1.11
9996.00,1.11
9995.00,1.12
9994.00,1.12
9993.00,1.12
9992.00,1.13
9991.00,1.13
9990.00,1.13
9989.00,1.14
9988.00,1.14
9987.00,1.15
9986.00,1.15
9985.00,1.16
9984.00,1.16
9983.00,1.17
9982.00,1.17
9981.00,1.17
9980.00,1.18
9979.00,1.18
9978.00,1.18
9977.00,1.18
9976.00,1.18
9975.00,1.18
9974.00,1.17
9973.00,1.17
9972.00,1.16
9971.00,1.16
9970.00,1.16
9969.00,1.15
9968.00,1.15
9967.00,1.14
9966.00,1.14
9965.00,1.13
9964.00,1.13
9963.00,1.12
9962.00,1.12
9961.00,1.12
9960.00,1.12
9959.00,1.11
9958.00,1.11
9957.00,1.11
9956.00,1.11
9955.00,1.11
9954.00,1.10
9953.00,1.10
9952.00,1.10
9951.00,1.10
9950.00,1.10
9949.00,1.10
9948.00,1.09
9947.00,1.09
9946.00,1.09
9945.00,1.09
9944.00,1.09
9943.00,1.09
9942.00,1.09
9941.00,1.09
9940.00,1.09
9939.00,1.09
9938.00,1.09
9937.00,1.09
9936.00,1.09
9935.00,1.09
9934.00,1.09
9933.00,1.09
9932.00,1.09
9931.00,1.09
9930.00,1.10
9929.00,1.10
9928.00,1.10
9927.00,1.10
9926.00,1.10
9925.00,1.10
9924.00,1.10
9923.00,1.09
9922.00,1.09
9921.00,1.09
9920.00,1.09
9919.00,1.09
9918.00,1.09
9917.00,1.09
9916.00,1.08
9915.00,1.08
9914.00,1.08
9913.00,1.08
9912.00,1.08
9911.00,1.08
9910.00,1.08
9909.00,1.09
9908.00,1.09
9907.00,1.09
9906.00,1.09
9905.00,1.09
9904.00,1.09
9903.00,1.09
9902.00,1.10
9901.00,1.10
9900.00,1.10
9899.00,1.10
9898.00,1.10
9897.00,1.10
9896.00,1.10
9895.00,1.10
9894.00,1.10
9893.00,1.10
9892.00,1.10
9891.00,1.10
9890.00,1.10
9889.00,1.10
9888.00,1.10
9887.00,1.10
9886.00,1.10
9885.00,1.10
9884.00,1.10
9883.00,1.10
9882.00,1.10
9881.00,1.09
9880.00,1.09
9879.00,1.09
9878.00,1.09
9877.00,1.09
9876.00,1.09
9875.00,1.09
9874.00,1.09
9873.00,1.09
9872.00,1.09
9871.00,1.09
9870.00,1.09
9869.00,1.09
9868.00,1.09
9867.00,1.09
9866.00,1.09
9865.00,1.09
9864.00,1.09
9863.00,1.09
9862.00,1.09
9861.00,1.09
9860.00,1.09
9859.00,1.09
9858.00,1.08
9857.00,1.08
9856.00,1.08
9855.00,1.08
9854.00,1.08
9853.00,1.08
9852.00,1.08
9851.00,1.08
9850.00,1.08
9849.00,1.07
9848.00,1.07
9847.00,1.08
9846.00,1.08
9845.00,1.08
9844.00,1.08
9843.00,1.08
9842.00,1.08
9841.00,1.08
9840.00,1.08
9839.00,1.08
9838.00,1.08
9837.00,1.08
9836.00,1.08
9835.00,1.08
9834.00,1.08
9833.00,1.08
9832.00,1.08
9831.00,1.08
9830.00,1.08
9829.00,1.08
9828.00,1.08
9827.00,1.08
9826.00,1.09
9825.00,1.09
9824.00,1.09
9823.00,1.09
9822.00,1.09
9821.00,1.10
9820.00,1.10
9819.00,1.10
9818.00,1.10
9817.00,1.11
9816.00,1.11
9815.00,1.11
9814.00,1.11
9813.00,1.11
9812.00,1.11
9811.00,1.11
9810.00,1.10
9809.00,1.10
9808.00,1.10
9807.00,1.10
9806.00,1.09
9805.00,1.09
9804.00,1.09
9803.00,1.09
9802.00,1.09
9801.00,1.09
9800.00,1.08
9799.00,1.08
9798.00,1.09
9797.00,1.09
9796.00,1.09
9795.00,1.09
9794.00,1.09
9793.00,1.09
9792.00,1.10
9791.00,1.10
9790.00,1.10
9789.00,1.10
9788.00,1.10
9787.00,1.11
9786.00,1.11
9785.00,1.11
9784.00,1.11
9783.00,1.11
9782.00,1.11
9781.00,1.11
9780.00,1.10
9779.00,1.10
9778.00,1.10
9777.00,1.10
9776.00,1.10
9775.00,1.10
9774.00,1.10
9773.00,1.10
9772.00,1.10
9771.00,1.10
9770.00,1.10
9769.00,1.10
9768.00,1.10
9767.00,1.10
9766.00,1.11
9765.00,1.11
9764.00,1.11
9763.00,1.11
9762.00,1.12
9761.00,1.12
9760.00,1.12
9759.00,1.12
9758.00,1.12
9757.00,1.12
9756.00,1.12
9755.00,1.12
9754.00,1.11
9753.00,1.11
9752.00,1.11
9751.00,1.11
9750.00,1.10
9749.00,1.10
9748.00,1.10
9747.00,1.09
9746.00,1.09
9745.00,1.09
9744.00,1.09
9743.00,1.08
9742.00,1.08
9741.00,1.08
9740.00,1.08
9739.00,1.08
9738.00,1.08
9737.00,1.07
9736.00,1.07
9735.00,1.07
9734.00,1.07
9733.00,1.07
9732.00,1.07
9731.00,1.07
9730.00,1.07
9729.00,1.07
9728.00,1.07
9727.00,1.07
9726.00,1.07
9725.00,1.07
9724.00,1.07
9723.00,1.07
9722.00,1.07
9721.00,1.07
9720.00,1.07
9719.00,1.07
9718.00,1.08
9717.00,1.08
9716.00,1.08
9715.00,1.08
9714.00,1.08
9713.00,1.08
9712.00,1.08
9711.00,1.08
9710.00,1.08
9709.00,1.08
9708.00,1.08
9707.00,1.08
9706.00,1.08
9705.00,1.08
9704.00,1.08
9703.00,1.08
9702.00,1.08
9701.00,1.08
9700.00,1.08
9699.00,1.08
9698.00,1.08
9697.00,1.08
9696.00,1.08
9695.00,1.08
9694.00,1.08
9693.00,1.08
9692.00,1.08
9691.00,1.08
9690.00,1.08
9689.00,1.09
9688.00,1.09
9687.00,1.09
9686.00,1.09
9685.00,1.09
9684.00,1.09
9683.00,1.09
9682.00,1.09
9681.00,1.09
9680.00,1.09
9679.00,1.09
9678.00,1.10
9677.00,1.10
9676.00,1.10
9675.00,1.10
9674.00,1.10
9673.00,1.10
9672.00,1.10
9671.00,1.10
9670.00,1.11
9669.00,1.11
9668.00,1.11
9667.00,1.11
9666.00,1.11
9665.00,1.11
9664.00,1.11
9663.00,1.11
9662.00,1.11
9661.00,1.11
9660.00,1.11
9659.00,1.11
9658.00,1.11
9657.00,1.11
9656.00,1.11
9655.00,1.10
9654.00,1.10
9653.00,1.10
9652.00,1.10
9651.00,1.10
9650.00,1.10
9649.00,1.10
9648.00,1.09
9647.00,1.09
9646.00,1.09
9645.00,1.09
9644.00,1.09
9643.00,1.09
9642.00,1.09
9641.00,1.09
9640.00,1.09
9639.00,1.09
9638.00,1.09
9637.00,1.09
9636.00,1.10
9635.00,1.10
9634.00,1.10
9633.00,1.10
9632.00,1.10
9631.00,1.10
9630.00,1.10
9629.00,1.10
9628.00,1.10
9627.00,1.09
9626.00,1.09
9625.00,1.09
9624.00,1.09
9623.00,1.08
9622.00,1.08
9621.00,1.08
9620.00,1.08
9619.00,1.07
9618.00,1.07
9617.00,1.07
9616.00,1.06
9615.00,1.06
9614.00,1.06
9613.00,1.06
9612.00,1.06
9611.00,1.06
9610.00,1.05
9609.00,1.05
9608.00,1.05
9607.00,1.05
9606.00,1.05
9605.00,1.05
9604.00,1.05
9603.00,1.05
9602.00,1.05
9601.00,1.05
9600.00,1.05
9599.00,1.05
9598.00,1.05
9597.00,1.05
9596.00,1.05
9595.00,1.05
9594.00,1.05
9593.00,1.05
9592.00,1.05
9591.00,1.06
9590.00,1.06
9589.00,1.06
9588.00,1.06
9587.00,1.07
9586.00,1.07
9585.00,1.07
9584.00,1.07
9583.00,1.07
9582.00,1.07
9581.00,1.08
9580.00,1.08
9579.00,1.08
9578.00,1.08
9577.00,1.08
9576.00,1.08
9575.00,1.08
9574.00,1.08
9573.00,1.08
9572.00,1.08
9571.00,1.08
9570.00,1.08
9569.00,1.08
9568.00,1.08
9567.00,1.08
9566.00,1.08
9565.00,1.08
9564.00,1.08
9563.00,1.08
9562.00,1.08
9561.00,1.08
9560.00,1.08
9559.00,1.08
9558.00,1.08
9557.00,1.08
9556.00,1.08
9555.00,1.08
9554.00,1.08
9553.00,1.08
9552.00,1.07
9551.00,1.07
9550.00,1.07
9549.00,1.07
9548.00,1.07
9547.00,1.07
9546.00,1.07
9545.00,1.06
9544.00,1.06
9543.00,1.06
9542.00,1.06
9541.00,1.06
9540.00,1.06
9539.00,1.06
9538.00,1.06
9537.00,1.06
9536.00,1.06
9535.00,1.06
9534.00,1.06
9533.00,1.06
9532.00,1.05
9531.00,1.05
9530.00,1.05
9529.00,1.05
9528.00,1.05
9527.00,1.05
9526.00,1.05
9525.00,1.04
9524.00,1.04
9523.00,1.04
9522.00,1.04
9521.00,1.04
9520.00,1.04
9519.00,1.04
9518.00,1.05
9517.00,1.05
9516.00,1.05
9515.00,1.05
9514.00,1.05
9513.00,1.06
9512.00,1.06
9511.00,1.06
9510.00,1.07
9509.00,1.07
9508.00,1.07
9507.00,1.08
9506.00,1.08
9505.00,1.08
9504.00,1.08
9503.00,1.08
9502.00,1.08
9501.00,1.09
9500.00,1.09
9499.00,1.09
9498.00,1.09
9497.00,1.09
9496.00,1.09
9495.00,1.09
9494.00,1.09
9493.00,1.09
9492.00,1.09
9491.00,1.09
9490.00,1.09
9489.00,1.09
9488.00,1.09
9487.00,1.09
9486.00,1.09
9485.00,1.09
9484.00,1.09
9483.00,1.09
9482.00,1.09
9481.00,1.09
9480.00,1.09
9479.00,1.09
9478.00,1.09
9477.00,1.09
9476.00,1.09
9475.00,1.09
9474.00,1.09
9473.00,1.09
9472.00,1.09
9471.00,1.09
9470.00,1.09
9469.00,1.09
9468.00,1.09
9467.00,1.09
9466.00,1.09
9465.00,1.09
9464.00,1.09
9463.00,1.09
9462.00,1.09
9461.00,1.09
9460.00,1.09
9459.00,1.09
9458.00,1.09
9457.00,1.09
9456.00,1.09
9455.00,1.09
9454.00,1.09
9453.00,1.08
9452.00,1.08
9451.00,1.08
9450.00,1.08
9449.00,1.08
9448.00,1.08
9447.00,1.08
9446.00,1.08
9445.00,1.08
9444.00,1.08
9443.00,1.08
9442.00,1.08
9441.00,1.08
9440.00,1.09
9439.00,1.09
9438.00,1.09
9437.00,1.09
9436.00,1.09
9435.00,1.09
9434.00,1.09
9433.00,1.09
9432.00,1.09
9431.00,1.09
9430.00,1.09
9429.00,1.09
9428.00,1.09
9427.00,1.09
9426.00,1.09
9425.00,1.09
9424.00,1.09
9423.00,1.09
9422.00,1.09
9421.00,1.09
9420.00,1.09
9419.00,1.09
9418.00,1.09
9417.00,1.08
9416.00,1.08
9415.00,1.08
9414.00,1.08
9413.00,1.08
9412.00,1.08
9411.00,1.08
9410.00,1.08
9409.00,1.08
9408.00,1.08
9407.00,1.08
9406.00,1.08
9405.00,1.08
9404.00,1.09
9403.00,1.09
9402.00,1.09
9401.00,1.09
9400.00,1.09
9399.00,1.09
9398.00,1.09
9397.00,1.09
9396.00,1.09
9395.00,1.09
9394.00,1.09
9393.00,1.09
9392.00,1.09
9391.00,1.09
9390.00,1.09
9389.00,1.09
9388.00,1.10
9387.00,1.10
9386.00,1.10
9385.00,1.09
9384.00,1.09
9383.00,1.09
9382.00,1.09
9381.00,1.09
9380.00,1.09
9379.00,1.09
9378.00,1.08
9377.00,1.08
9376.00,1.08
9375.00,1.08
9374.00,1.08
9373.00,1.07
9372.00,1.07
9371.00,1.07
9370.00,1.07
9369.00,1.07
9368.00,1.07
9367.00,1.07
9366.00,1.07
9365.00,1.07
9364.00,1.07
9363.00,1.07
9362.00,1.07
9361.00,1.07
9360.00,1.07
9359.00,1.07
9358.00,1.07
9357.00,1.07
9356.00,1.07
9355.00,1.07
9354.00,1.07
9353.00,1.07
9352.00,1.07
9351.00,1.06
9350.00,1.06
9349.00,1.06
9348.00,1.06
9347.00,1.06
9346.00,1.06
9345.00,1.06
9344.00,1.06
9343.00,1.06
9342.00,1.06
9341.00,1.06
9340.00,1.06
9339.00,1.06
9338.00,1.06
9337.00,1.06
9336.00,1.07
9335.00,1.07
9334.00,1.07
9333.00,1.07
9332.00,1.07
9331.00,1.07
9330.00,1.07
9329.00,1.07
9328.00,1.07
9327.00,1.08
9326.00,1.08
9325.00,1.08
9324.00,1.08
9323.00,1.08
9322.00,1.08
9321.00,1.08
9320.00,1.08
9319.00,1.08
9318.00,1.08
9317.00,1.07
9316.00,1.07
9315.00,1.07
9314.00,1.07
9313.00,1.07
9312.00,1.07
9311.00,1.07
9310.00,1.07
9309.00,1.07
9308.00,1.06
9307.00,1.06
9306.00,1.06
9305.00,1.06
9304.00,1.06
9303.00,1.06
9302.00,1.06
9301.00,1.06
9300.00,1.06
9299.00,1.06
9298.00,1.06
9297.00,1.06
9296.00,1.06
9295.00,1.06
9294.00,1.06
9293.00,1.06
9292.00,1.06
9291.00,1.06
9290.00,1.06
9289.00,1.06
9288.00,1.07
9287.00,1.07
9286.00,1.07
9285.00,1.07
9284.00,1.08
9283.00,1.08
9282.00,1.08
9281.00,1.09
9280.00,1.09
9279.00,1.09
9278.00,1.10
9277.00,1.10
9276.00,1.10
9275.00,1.11
9274.00,1.11
9273.00,1.11
9272.00,1.11
9271.00,1.11
9270.00,1.11
9269.00,1.11
9268.00,1.10
9267.00,1.10
9266.00,1.10
9265.00,1.10
9264.00,1.10
9263.00,1.09
9262.00,1.09
9261.00,1.09
9260.00,1.09
9259.00,1.08
9258.00,1.08
9257.00,1.08
9256.00,1.08
9255.00,1.07
9254.00,1.07
9253.00,1.07
9252.00,1.07
9251.00,1.07
9250.00,1.07
9249.00,1.06
9248.00,1.06
9247.00,1.06
9246.00,1.06
9245.00,1.06
9244.00,1.06
9243.00,1.06
9242.00,1.06
9241.00,1.06
9240.00,1.05
9239.00,1.05
9238.00,1.05
9237.00,1.05
9236.00,1.05
9235.00,1.06
9234.00,1.06
9233.00,1.06
9232.00,1.06
9231.00,1.06
9230.00,1.06
9229.00,1.06
9228.00,1.06
9227.00,1.06
9226.00,1.06
9225.00,1.06
9224.00,1.06
9223.00,1.06
9222.00,1.06
9221.00,1.06
9220.00,1.06
9219.00,1.06
9218.00,1.06
9217.00,1.06
9216.00,1.06
9215.00,1.06
9214.00,1.06
9213.00,1.06
9212.00,1.06
9211.00,1.07
9210.00,1.07
9209.00,1.07
9208.00,1.07
9207.00,1.07
9206.00,1.07
9205.00,1.07
9204.00,1.07
9203.00,1.07
9202.00,1.07
9201.00,1.07
9200.00,1.07
9199.00,1.07
9198.00,1.07
9197.00,1.07
9196.00,1.07
9195.00,1.07
9194.00,1.07
9193.00,1.07
9192.00,1.07
9191.00,1.07
9190.00,1.07
9189.00,1.08
9188.00,1.08
9187.00,1.08
9186.00,1.08
9185.00,1.08
9184.00,1.09
9183.00,1.09
9182.00,1.09
9181.00,1.09
9180.00,1.10
9179.00,1.10
9178.00,1.10
9177.00,1.10
9176.00,1.10
9175.00,1.11
9174.00,1.11
9173.00,1.11
9172.00,1.11
9171.00,1.11
9170.00,1.11
9169.00,1.11
9168.00,1.11
9167.00,1.11
9166.00,1.11
9165.00,1.11
9164.00,1.10
9163.00,1.10
9162.00,1.10
9161.00,1.10
9160.00,1.10
9159.00,1.09
9158.00,1.09
9157.00,1.09
9156.00,1.08
9155.00,1.08
9154.00,1.08
9153.00,1.08
9152.00,1.07
9151.00,1.07
9150.00,1.07
9149.00,1.07
9148.00,1.07
9147.00,1.07
9146.00,1.07
9145.00,1.06
9144.00,1.06
9143.00,1.06
9142.00,1.06
9141.00,1.06
9140.00,1.07
9139.00,1.07
9138.00,1.07
9137.00,1.07
9136.00,1.07
9135.00,1.07
9134.00,1.07
9133.00,1.07
9132.00,1.07
9131.00,1.07
9130.00,1.07
9129.00,1.08
9128.00,1.08
9127.00,1.08
9126.00,1.08
9125.00,1.08
9124.00,1.08
9123.00,1.08
9122.00,1.08
9121.00,1.08
9120.00,1.08
9119.00,1.08
9118.00,1.08
9117.00,1.08
9116.00,1.08
9115.00,1.08
9114.00,1.08
9113.00,1.08
9112.00,1.08
9111.00,1.09
9110.00,1.09
9109.00,1.09
9108.00,1.09
9107.00,1.09
9106.00,1.09
9105.00,1.09
9104.00,1.09
9103.00,1.09
9102.00,1.10
9101.00,1.10
9100.00,1.10
9099.00,1.10
9098.00,1.10
9097.00,1.10
9096.00,1.10
9095.00,1.10
9094.00,1.10
9093.00,1.09
9092.00,1.09
9091.00,1.09
9090.00,1.09
9089.00,1.09
9088.00,1.09
9087.00,1.09
9086.00,1.09
9085.00,1.09
9084.00,1.09
9083.00,1.09
9082.00,1.09
9081.00,1.09
9080.00,1.09
9079.00,1.09
9078.00,1.08
9077.00,1.08
9076.00,1.08
9075.00,1.08
9074.00,1.08
9073.00,1.07
9072.00,1.07
9071.00,1.07
9070.00,1.07
9069.00,1.07
9068.00,1.06
9067.00,1.06
9066.00,1.06
9065.00,1.06
9064.00,1.06
9063.00,1.06
9062.00,1.06
9061.00,1.06
9060.00,1.06
9059.00,1.06
9058.00,1.06
9057.00,1.06
9056.00,1.06
9055.00,1.06
9054.00,1.06
9053.00,1.06
9052.00,1.06
9051.00,1.07
9050.00,1.07
9049.00,1.07
9048.00,1.07
9047.00,1.07
9046.00,1.07
9045.00,1.08
9044.00,1.08
9043.00,1.08
9042.00,1.08
9041.00,1.08
9040.00,1.09
9039.00,1.09
9038.00,1.09
9037.00,1.09
9036.00,1.09
9035.00,1.10
9034.00,1.10
9033.00,1.10
9032.00,1.10
9031.00,1.10
9030.00,1.10
9029.00,1.10
9028.00,1.09
9027.00,1.09
9026.00,1.09
9025.00,1.09
9024.00,1.09
9023.00,1.09
9022.00,1.09
9021.00,1.09
9020.00,1.09
9019.00,1.09
9018.00,1.09
9017.00,1.09
9016.00,1.09
9015.00,1.09
9014.00,1.09
9013.00,1.09
9012.00,1.09
9011.00,1.09
9010.00,1.09
9009.00,1.09
9008.00,1.09
9007.00,1.09
9006.00,1.09
9005.00,1.09
9004.00,1.09
9003.00,1.09
9002.00,1.08
9001.00,1.08
9000.00,1.08
8999.00,1.08
8998.00,1.08
8997.00,1.08
8996.00,1.08
8995.00,1.08
8994.00,1.07
8993.00,1.07
8992.00,1.07
8991.00,1.07
8990.00,1.07
8989.00,1.07
8988.00,1.07
8987.00,1.07
8986.00,1.07
8985.00,1.07
8984.00,1.07
8983.00,1.07
8982.00,1.07
8981.00,1.07
8980.00,1.07
8979.00,1.07
8978.00,1.07
8977.00,1.07
8976.00,1.07
8975.00,1.07
8974.00,1.07
8973.00,1.07
8972.00,1.08
8971.00,1.08
8970.00,1.08
8969.00,1.08
8968.00,1.08
8967.00,1.08
8966.00,1.08
8965.00,1.08
8964.00,1.08
8963.00,1.08
8962.00,1.08
8961.00,1.08
8960.00,1.08
8959.00,1.08
8958.00,1.08
8957.00,1.08
8956.00,1.08
8955.00,1.08
8954.00,1.08
8953.00,1.08
8952.00,1.08
8951.00,1.08
8950.00,1.08
8949.00,1.08
8948.00,1.09
8947.00,1.09
8946.00,1.09
8945.00,1.09
8944.00,1.09
8943.00,1.09
8942.00,1.09
8941.00,1.09
8940.00,1.08
8939.00,1.08
8938.00,1.08
8937.00,1.08
8936.00,1.08
8935.00,1.08
8934.00,1.08
8933.00,1.08
8932.00,1.07
8931.00,1.07
8930.00,1.07
8929.00,1.07
8928.00,1.08
8927.00,1.08
8926.00,1.08
8925.00,1.08
8924.00,1.08
8923.00,1.08
8922.00,1.09
8921.00,1.09
8920.00,1.09
8919.00,1.09
8918.00,1.10
8917.00,1.10
8916.00,1.10
8915.00,1.10
8914.00,1.10
8913.00,1.10
8912.00,1.10
8911.00,1.10
8910.00,1.10
8909.00,1.10
8908.00,1.10
8907.00,1.10
8906.00,1.09
8905.00,1.09
8904.00,1.09
8903.00,1.09
8902.00,1.09
8901.00,1.09
8900.00,1.08
8899.00,1.08
8898.00,1.08
8897.00,1.08
8896.00,1.08
8895.00,1.08
8894.00,1.08
8893.00,1.08
8892.00,1.08
8891.00,1.07
8890.00,1.07
8889.00,1.07
8888.00,1.08
8887.00,1.08
8886.00,1.08
8885.00,1.08
8884.00,1.08
8883.00,1.08
8882.00,1.08
8881.00,1.08
8880.00,1.08
8879.00,1.08
8878.00,1.08
8877.00,1.08
8876.00,1.08
8875.00,1.08
8874.00,1.07
8873.00,1.07
8872.00,1.07
8871.00,1.07
8870.00,1.07
8869.00,1.07
8868.00,1.07
8867.00,1.07
8866.00,1.07
8865.00,1.07
8864.00,1.07
8863.00,1.07
8862.00,1.07
8861.00,1.07
8860.00,1.07
8859.00,1.07
8858.00,1.07
8857.00,1.07
8856.00,1.07
8855.00,1.07
8854.00,1.07
8853.00,1.07
8852.00,1.08
8851.00,1.08
8850.00,1.08
8849.00,1.08
8848.00,1.08
8847.00,1.08
8846.00,1.08
8845.00,1.08
8844.00,1.08
8843.00,1.08
8842.00,1.08
8841.00,1.08
8840.00,1.08
8839.00,1.08
8838.00,1.08
8837.00,1.08
8836.00,1.08
8835.00,1.08
8834.00,1.08
8833.00,1.08
8832.00,1.08
8831.00,1.08
8830.00,1.08
8829.00,1.08
8828.00,1.08
8827.00,1.08
8826.00,1.08
8825.00,1.08
8824.00,1.08
8823.00,1.08
8822.00,1.08
8821.00,1.08
8820.00,1.08
8819.00,1.08
8818.00,1.08
8817.00,1.08
8816.00,1.08
8815.00,1.08
8814.00,1.08
8813.00,1.08
8812.00,1.08
8811.00,1.08
8810.00,1.08
8809.00,1.08
8808.00,1.08
8807.00,1.08
8806.00,1.08
8805.00,1.08
8804.00,1.08
8803.00,1.08
8802.00,1.08
8801.00,1.08
8800.00,1.08
8799.00,1.07
8798.00,1.07
8797.00,1.07
8796.00,1.07
8795.00,1.07
8794.00,1.07
8793.00,1.07
8792.00,1.07
8791.00,1.07
8790.00,1.07
8789.00,1.07
8788.00,1.07
8787.00,1.07
8786.00,1.07
8785.00,1.07
8784.00,1.06
8783.00,1.06
8782.00,1.06
8781.00,1.07
8780.00,1.07
8779.00,1.07
8778.00,1.07
8777.00,1.07
8776.00,1.07
8775.00,1.07
8774.00,1.07
8773.00,1.07
8772.00,1.07
8771.00,1.08
8770.00,1.08
8769.00,1.08
8768.00,1.08
8767.00,1.08
8766.00,1.08
8765.00,1.08
8764.00,1.08
8763.00,1.08
8762.00,1.08
8761.00,1.08
8760.00,1.08
8759.00,1.08
8758.00,1.08
8757.00,1.08
8756.00,1.08
8755.00,1.07
8754.00,1.07
8753.00,1.07
8752.00,1.07
8751.00,1.07
8750.00,1.06
8749.00,1.06
8748.00,1.06
8747.00,1.06
8746.00,1.05
8745.00,1.05
8744.00,1.05
8743.00,1.04
8742.00,1.04
8741.00,1.04
8740.00,1.04
8739.00,1.04
8738.00,1.03
8737.00,1.03
8736.00,1.03
8735.00,1.03
8734.00,1.03
8733.00,1.03
8732.00,1.03
8731.00,1.03
8730.00,1.03
8729.00,1.03
8728.00,1.03
8727.00,1.03
8726.00,1.02
8725.00,1.02
8724.00,1.02
8723.00,1.02
8722.00,1.02
8721.00,1.02
8720.00,1.02
8719.00,1.02
8718.00,1.02
8717.00,1.02
8716.00,1.02
8715.00,1.02
8714.00,1.02
8713.00,1.02
8712.00,1.02
8711.00,1.02
8710.00,1.03
8709.00,1.03
8708.00,1.03
8707.00,1.03
8706.00,1.03
8705.00,1.03
8704.00,1.03
8703.00,1.03
8702.00,1.03
8701.00,1.03
8700.00,1.03
8699.00,1.03
8698.00,1.03
8697.00,1.03
8696.00,1.03
8695.00,1.02
8694.00,1.02
8693.00,1.02
8692.00,1.02
8691.00,1.02
8690.00,1.02
8689.00,1.02
8688.00,1.02
8687.00,1.02
8686.00,1.02
8685.00,1.02
8684.00,1.02
8683.00,1.02
8682.00,1.02
8681.00,1.02
8680.00,1.02
8679.00,1.02
8678.00,1.02
8677.00,1.02
8676.00,1.02
8675.00,1.02
8674.00,1.02
8673.00,1.02
8672.00,1.02
8671.00,1.02
8670.00,1.02
8669.00,1.02
8668.00,1.02
8667.00,1.02
8666.00,1.02
8665.00,1.02
8664.00,1.02
8663.00,1.02
8662.00,1.02
8661.00,1.02
8660.00,1.02
8659.00,1.02
8658.00,1.02
8657.00,1.02
8656.00,1.02
8655.00,1.02
8654.00,1.02
8653.00,1.02
8652.00,1.02
8651.00,1.02
8650.00,1.02
8649.00,1.02
8648.00,1.02
8647.00,1.02
8646.00,1.02
8645.00,1.02
8644.00,1.01
8643.00,1.01
8642.00,1.01
8641.00,1.01
8640.00,1.01
8639.00,1.01
8638.00,1.01
8637.00,1.01
8636.00,1.01
8635.00,1.01
8634.00,1.01
8633.00,1.01
8632.00,1.01
8631.00,1.01
8630.00,1.01
8629.00,1.01
8628.00,1.01
8627.00,1.01
8626.00,1.01
8625.00,1.01
8624.00,1.01
8623.00,1.00
8622.00,1.00
8621.00,1.00
8620.00,1.00
8619.00,1.00
8618.00,1.00
8617.00,1.00
8616.00,1.00
8615.00,1.00
8614.00,1.00
8613.00,1.00
8612.00,1.00
8611.00,1.00
8610.00,1.00
8609.00,1.00
8608.00,1.00
8607.00,1.00
8606.00,1.00
8605.00,1.00
8604.00,1.00
8603.00,1.00
8602.00,1.00
8601.00,1.00
8600.00,1.00
8599.00,1.00
8598.00,1.00
8597.00,1.00
8596.00,1.00
8595.00,0.99
8594.00,0.99
8593.00,0.99
8592.00,0.99
8591.00,0.99
8590.00,0.99
8589.00,0.99
8588.00,0.99
8587.00,0.99
8586.00,0.99
8585.00,1.00
8584.00,1.00
8583.00,1.00
8582.00,1.00
8581.00,1.00
8580.00,1.00
8579.00,1.00
8578.00,1.00
8577.00,1.00
8576.00,1.00
8575.00,1.00
8574.00,1.00
8573.00,1.00
8572.00,1.00
8571.00,1.00
8570.00,1.00
8569.00,1.00
8568.00,1.00
8567.00,1.00
8566.00,1.00
8565.00,1.00
8564.00,1.00
8563.00,1.00
8562.00,1.00
8561.00,1.00
8560.00,1.01
8559.00,1.01
8558.00,1.01
8557.00,1.01
8556.00,1.01
8555.00,1.01
8554.00,1.01
8553.00,1.01
8552.00,1.01
8551.00,1.01
8550.00,1.01
8549.00,1.01
8548.00,1.01
8547.00,1.01
8546.00,1.01
8545.00,1.01
8544.00,1.00
8543.00,1.00
8542.00,1.00
8541.00,1.00
8540.00,1.00
8539.00,1.00
8538.00,1.00
8537.00,0.99
8536.00,0.99
8535.00,0.99
8534.00,0.99
8533.00,0.99
8532.00,0.99
8531.00,0.99
8530.00,0.99
8529.00,0.99
8528.00,0.99
8527.00,0.99
8526.00,0.99
8525.00,0.99
8524.00,0.99
8523.00,0.99
8522.00,0.99
8521.00,0.99
8520.00,0.99
8519.00,0.99
8518.00,0.99
8517.00,0.99
8516.00,0.99
8515.00,0.99
8514.00,0.99
8513.00,0.98
8512.00,0.98
8511.00,0.98
8510.00,0.98
8509.00,0.98
8508.00,0.98
8507.00,0.98
8506.00,0.98
8505.00,0.98
8504.00,0.98
8503.00,0.98
8502.00,0.98
8501.00,0.98
8500.00,0.98
8499.00,0.98
8498.00,0.98
8497.00,0.98
8496.00,0.98
8495.00,0.98
8494.00,0.98
8493.00,0.98
8492.00,0.98
8491.00,0.98
8490.00,0.98
8489.00,0.98
8488.00,0.98
8487.00,0.98
8486.00,0.98
8485.00,0.99
8484.00,0.99
8483.00,0.99
8482.00,0.99
8481.00,0.98
8480.00,0.98
8479.00,0.98
8478.00,0.98
8477.00,0.98
8476.00,0.98
8475.00,0.98
8474.00,0.98
8473.00,0.98
8472.00,0.98
8471.00,0.98
8470.00,0.98
8469.00,0.98
8468.00,0.98
8467.00,0.98
8466.00,0.98
8465.00,0.98
8464.00,0.97
8463.00,0.97
8462.00,0.97
8461.00,0.97
8460.00,0.97
8459.00,0.97
8458.00,0.97
8457.00,0.97
8456.00,0.97
8455.00,0.97
8454.00,0.97
8453.00,0.97
8452.00,0.97
8451.00,0.97
8450.00,0.97
8449.00,0.97
8448.00,0.97
8447.00,0.97
8446.00,0.97
8445.00,0.97
8444.00,0.97
8443.00,0.97
8442.00,0.97
8441.00,0.97
8440.00,0.98
8439.00,0.98
8438.00,0.98
8437.00,0.98
8436.00,0.98
8435.00,0.99
8434.00,0.99
8433.00,0.99
8432.00,0.99
8431.00,0.99
8430.00,0.99
8429.00,0.99
8428.00,0.99
8427.00,0.99
8426.00,0.99
8425.00,0.99
8424.00,0.99
8423.00,0.99
8422.00,0.99
8421.00,0.99
8420.00,0.99
8419.00,0.99
8418.00,0.99
8417.00,0.99
8416.00,0.99
8415.00,0.99
8414.00,0.99
8413.00,0.99
8412.00,0.99
8411.00,0.98
8410.00,0.98
8409.00,0.98
8408.00,0.98
8407.00,0.98
8406.00,0.98
8405.00,0.98
8404.00,0.98
8403.00,0.98
8402.00,0.97
8401.00,0.97
8400.00,0.97
8399.00,0.97
8398.00,0.97
8397.00,0.97
8396.00,0.97
8395.00,0.97
8394.00,0.97
8393.00,0.97
8392.00,0.97
8391.00,0.98
8390.00,0.98
8389.00,0.98
8388.00,0.98
8387.00,0.98
8386.00,0.98
8385.00,0.98
8384.00,0.98
8383.00,0.98
8382.00,0.98
8381.00,0.98
8380.00,0.98
8379.00,0.98
8378.00,0.98
8377.00,0.98
8376.00,0.98
8375.00,0.98
8374.00,0.98
8373.00,0.98
8372.00,0.98
8371.00,0.98
8370.00,0.98
8369.00,0.98
8368.00,0.98
8367.00,0.98
8366.00,0.98
8365.00,0.98
8364.00,0.98
8363.00,0.98
8362.00,0.98
8361.00,0.98
8360.00,0.98
8359.00,0.98
8358.00,0.98
8357.00,0.99
8356.00,0.99
8355.00,0.99
8354.00,0.99
8353.00,0.99
8352.00,0.99
8351.00,0.99
8350.00,1.00
8349.00,1.00
8348.00,1.00
8347.00,1.00
8346.00,1.00
8345.00,1.00
8344.00,1.00
8343.00,1.00
8342.00,1.00
8341.00,1.00
8340.00,1.00
8339.00,1.00
8338.00,1.00
8337.00,1.00
8336.00,1.00
8335.00,1.00
8334.00,1.00
8333.00,1.01
8332.00,1.01
8331.00,1.01
8330.00,1.01
8329.00,1.01
8328.00,1.01
8327.00,1.01
8326.00,1.01
8325.00,1.01
8324.00,1.01
8323.00,1.01
8322.00,1.01
8321.00,1.01
8320.00,1.01
8319.00,1.01
8318.00,1.00
8317.00,1.00
8316.00,1.00
8315.00,1.00
8314.00,1.00
8313.00,1.00
8312.00,1.00
8311.00,1.00
8310.00,0.99
8309.00,0.99
8308.00,0.99
8307.00,0.99
8306.00,0.99
8305.00,0.99
8304.00,0.99
8303.00,0.99
8302.00,0.99
8301.00,0.99
8300.00,1.00
8299.00,1.00
8298.00,1.00
8297.00,1.00
8296.00,1.00
8295.00,1.00
8294.00,1.00
8293.00,1.00
8292.00,1.00
8291.00,1.00
8290.00,1.00
8289.00,1.00
8288.00,1.00
8287.00,1.00
8286.00,1.00
8285.00,1.01
8284.00,1.01
8283.00,1.01
8282.00,1.01
8281.00,1.01
8280.00,1.01
8279.00,1.01
8278.00,1.01
8277.00,1.01
8276.00,1.01
8275.00,1.01
8274.00,1.01
8273.00,1.01
8272.00,1.01
8271.00,1.01
8270.00,1.01
8269.00,1.01
8268.00,1.01
8267.00,1.01
8266.00,1.01
8265.00,1.01
8264.00,1.01
8263.00,1.01
8262.00,1.01
8261.00,1.00
8260.00,1.00
8259.00,1.00
8258.00,1.00
8257.00,1.00
8256.00,1.00
8255.00,1.00
8254.00,1.00
8253.00,1.00
8252.00,1.00
8251.00,1.00
8250.00,1.00
8249.00,1.00
8248.00,1.00
8247.00,1.00
8246.00,1.00
8245.00,1.00
8244.00,1.00
8243.00,1.00
8242.00,1.00
8241.00,1.00
8240.00,1.00
8239.00,1.00
8238.00,1.00
8237.00,1.01
8236.00,1.01
8235.00,1.01
8234.00,1.01
8233.00,1.01
8232.00,1.01
8231.00,1.01
8230.00,1.01
8229.00,1.01
8228.00,1.01
8227.00,1.01
8226.00,1.01
8225.00,1.01
8224.00,1.01
8223.00,1.01
8222.00,1.01
8221.00,1.01
8220.00,1.01
8219.00,1.01
8218.00,1.02
8217.00,1.02
8216.00,1.02
8215.00,1.02
8214.00,1.02
8213.00,1.02
8212.00,1.02
8211.00,1.02
8210.00,1.02
8209.00,1.02
8208.00,1.02
8207.00,1.02
8206.00,1.02
8205.00,1.02
8204.00,1.02
8203.00,1.02
8202.00,1.02
8201.00,1.02
8200.00,1.02
8199.00,1.02
8198.00,1.02
8197.00,1.02
8196.00,1.02
8195.00,1.02
8194.00,1.02
8193.00,1.02
8192.00,1.02
8191.00,1.02
8190.00,1.02
8189.00,1.02
8188.00,1.02
8187.00,1.02
8186.00,1.03
8185.00,1.03
8184.00,1.03
8183.00,1.03
8182.00,1.03
8181.00,1.03
8180.00,1.03
8179.00,1.03
8178.00,1.03
8177.00,1.03
8176.00,1.03
8175.00,1.03
8174.00,1.03
8173.00,1.03
8172.00,1.03
8171.00,1.03
8170.00,1.03
8169.00,1.03
8168.00,1.03
8167.00,1.03
8166.00,1.03
8165.00,1.03
8164.00,1.03
8163.00,1.03
8162.00,1.03
8161.00,1.03
8160.00,1.03
8159.00,1.03
8158.00,1.03
8157.00,1.03
8156.00,1.03
8155.00,1.03
8154.00,1.03
8153.00,1.03
8152.00,1.03
8151.00,1.03
8150.00,1.03
8149.00,1.03
8148.00,1.03
8147.00,1.03
8146.00,1.03
8145.00,1.03
8144.00,1.03
8143.00,1.03
8142.00,1.03
8141.00,1.04
8140.00,1.04
8139.00,1.04
8138.00,1.04
8137.00,1.04
8136.00,1.04
8135.00,1.04
8134.00,1.04
8133.00,1.04
8132.00,1.04
8131.00,1.04
8130.00,1.04
8129.00,1.04
8128.00,1.04
8127.00,1.04
8126.00,1.04
8125.00,1.04
8124.00,1.04
8123.00,1.04
8122.00,1.04
8121.00,1.04
8120.00,1.04
8119.00,1.04
8118.00,1.03
8117.00,1.03
8116.00,1.03
8115.00,1.03
8114.00,1.03
8113.00,1.03
8112.00,1.03
8111.00,1.03
8110.00,1.03
8109.00,1.04
8108.00,1.04
8107.00,1.04
8106.00,1.04
8105.00,1.04
8104.00,1.04
8103.00,1.04
8102.00,1.04
8101.00,1.04
8100.00,1.04
8099.00,1.05
8098.00,1.05
8097.00,1.05
8096.00,1.05
8095.00,1.05
8094.00,1.05
8093.00,1.05
8092.00,1.05
8091.00,1.05
8090.00,1.05
8089.00,1.05
8088.00,1.05
8087.00,1.05
8086.00,1.06
8085.00,1.06
8084.00,1.06
8083.00,1.06
8082.00,1.06
8081.00,1.06
8080.00,1.06
8079.00,1.06
8078.00,1.06
8077.00,1.06
8076.00,1.06
8075.00,1.07
8074.00,1.07
8073.00,1.07
8072.00,1.07
8071.00,1.06
8070.00,1.06
8069.00,1.06
8068.00,1.06
8067.00,1.06
8066.00,1.06
8065.00,1.06
8064.00,1.06
8063.00,1.06
8062.00,1.06
8061.00,1.06
8060.00,1.06
8059.00,1.06
8058.00,1.06
8057.00,1.06
8056.00,1.06
8055.00,1.06
8054.00,1.06
8053.00,1.06
8052.00,1.06
8051.00,1.06
8050.00,1.06
8049.00,1.06
8048.00,1.06
8047.00,1.06
8046.00,1.06
8045.00,1.06
8044.00,1.06
8043.00,1.06
8042.00,1.06
8041.00,1.06
8040.00,1.06
8039.00,1.06
8038.00,1.06
8037.00,1.06
8036.00,1.06
8035.00,1.06
8034.00,1.06
8033.00,1.06
8032.00,1.06
8031.00,1.07
8030.00,1.07
8029.00,1.07
8028.00,1.07
8027.00,1.07
8026.00,1.07
8025.00,1.07
8024.00,1.07
8023.00,1.07
8022.00,1.07
8021.00,1.07
8020.00,1.07
8019.00,1.07
8018.00,1.07
8017.00,1.07
8016.00,1.07
8015.00,1.07
8014.00,1.07
8013.00,1.07
8012.00,1.07
8011.00,1.07
8010.00,1.07
8009.00,1.07
8008.00,1.07
8007.00,1.07
8006.00,1.07
8005.00,1.07
8004.00,1.07
8003.00,1.06
8002.00,1.06
8001.00,1.06
8000.00,1.06
7999.00,1.06
7998.00,1.06
7997.00,1.06
7996.00,1.06
7995.00,1.06
7994.00,1.06
7993.00,1.06
7992.00,1.06
7991.00,1.06
7990.00,1.06
7989.00,1.06
7988.00,1.06
7987.00,1.06
7986.00,1.06
7985.00,1.06
7984.00,1.06
7983.00,1.06
7982.00,1.06
7981.00,1.06
7980.00,1.07
7979.00,1.07
7978.00,1.07
7977.00,1.07
7976.00,1.07
7975.00,1.07
7974.00,1.07
7973.00,1.07
7972.00,1.07
7971.00,1.07
7970.00,1.07
7969.00,1.07
7968.00,1.07
7967.00,1.07
7966.00,1.07
7965.00,1.07
7964.00,1.07
7963.00,1.07
7962.00,1.07
7961.00,1.07
7960.00,1.07
7959.00,1.07
7958.00,1.07
7957.00,1.07
7956.00,1.07
7955.00,1.07
7954.00,1.07
7953.00,1.07
7952.00,1.07
7951.00,1.07
7950.00,1.07
7949.00,1.06
7948.00,1.06
7947.00,1.06
7946.00,1.06
7945.00,1.06
7944.00,1.06
7943.00,1.06
7942.00,1.06
7941.00,1.06
7940.00,1.06
7939.00,1.06
7938.00,1.06
7937.00,1.06
7936.00,1.06
7935.00,1.06
7934.00,1.06
7933.00,1.06
7932.00,1.06
7931.00,1.06
7930.00,1.06
7929.00,1.06
7928.00,1.06
7927.00,1.06
7926.00,1.06
7925.00,1.06
7924.00,1.06
7923.00,1.06
7922.00,1.06
7921.00,1.06
7920.00,1.06
7919.00,1.06
7918.00,1.06
7917.00,1.06
7916.00,1.06
7915.00,1.07
7914.00,1.07
7913.00,1.07
7912.00,1.07
7911.00,1.07
7910.00,1.07
7909.00,1.07
7908.00,1.07
7907.00,1.07
7906.00,1.07
7905.00,1.07
7904.00,1.07
7903.00,1.08
7902.00,1.08
7901.00,1.08
7900.00,1.08
7899.00,1.08
7898.00,1.08
7897.00,1.08
7896.00,1.09
7895.00,1.09
7894.00,1.09
7893.00,1.09
7892.00,1.09
7891.00,1.09
7890.00,1.09
7889.00,1.10
7888.00,1.10
7887.00,1.10
7886.00,1.10
7885.00,1.10
7884.00,1.10
7883.00,1.10
7882.00,1.10
7881.00,1.10
7880.00,1.10
7879.00,1.10
7878.00,1.10
7877.00,1.10
7876.00,1.10
7875.00,1.09
7874.00,1.09
7873.00,1.09
7872.00,1.09
7871.00,1.09
7870.00,1.09
7869.00,1.09
7868.00,1.09
7867.00,1.09
7866.00,1.09
7865.00,1.09
7864.00,1.09
7863.00,1.09
7862.00,1.09
7861.00,1.08
7860.00,1.08
7859.00,1.08
7858.00,1.08
7857.00,1.08
7856.00,1.08
7855.00,1.08
7854.00,1.08
7853.00,1.08
7852.00,1.08
7851.00,1.08
7850.00,1.08
7849.00,1.08
7848.00,1.08
7847.00,1.08
7846.00,1.08
7845.00,1.08
7844.00,1.08
7843.00,1.08
7842.00,1.08
7841.00,1.08
7840.00,1.08
7839.00,1.08
7838.00,1.08
7837.00,1.08
7836.00,1.08
7835.00,1.08
7834.00,1.08
7833.00,1.08
7832.00,1.08
7831.00,1.09
7830.00,1.09
7829.00,1.09
7828.00,1.09
7827.00,1.09
7826.00,1.09
7825.00,1.09
7824.00,1.09
7823.00,1.09
7822.00,1.09
7821.00,1.09
7820.00,1.10
7819.00,1.10
7818.00,1.10
7817.00,1.10
7816.00,1.10
7815.00,1.10
7814.00,1.10
7813.00,1.10
7812.00,1.10
7811.00,1.10
7810.00,1.10
7809.00,1.10
7808.00,1.11
7807.00,1.11
7806.00,1.11
7805.00,1.11
7804.00,1.11
7803.00,1.11
7802.00,1.11
7801.00,1.11
7800.00,1.11
7799.00,1.11
7798.00,1.11
7797.00,1.11
7796.00,1.11
7795.00,1.11
7794.00,1.11
7793.00,1.10
7792.00,1.10
7791.00,1.10
7790.00,1.10
7789.00,1.10
7788.00,1.10
7787.00,1.10
7786.00,1.10
7785.00,1.09
7784.00,1.09
7783.00,1.09
7782.00,1.09
7781.00,1.09
7780.00,1.09
7779.00,1.09
7778.00,1.09
7777.00,1.10
7776.00,1.10
7775.00,1.10
7774.00,1.10
7773.00,1.10
7772.00,1.10
7771.00,1.10
7770.00,1.10
7769.00,1.11
7768.00,1.11
7767.00,1.11
7766.00,1.11
7765.00,1.11
7764.00,1.11
7763.00,1.11
7762.00,1.11
7761.00,1.11
7760.00,1.11
7759.00,1.11
7758.00,1.11
7757.00,1.11
7756.00,1.11
7755.00,1.11
7754.00,1.11
7753.00,1.11
7752.00,1.11
7751.00,1.11
7750.00,1.10
7749.00,1.10
7748.00,1.10
7747.00,1.10
7746.00,1.10
7745.00,1.10
7744.00,1.10
7743.00,1.10
7742.00,1.10
7741.00,1.10
7740.00,1.10
7739.00,1.10
7738.00,1.10
7737.00,1.10
7736.00,1.10
7735.00,1.10
7734.00,1.10
7733.00,1.10
7732.00,1.11
7731.00,1.11
7730.00,1.11
7729.00,1.11
7728.00,1.11
7727.00,1.11
7726.00,1.11
7725.00,1.11
7724.00,1.11
7723.00,1.11
7722.00,1.11
7721.00,1.11
7720.00,1.11
7719.00,1.11
7718.00,1.11
7717.00,1.11
7716.00,1.10
7715.00,1.10
7714.00,1.10
7713.00,1.10
7712.00,1.10
7711.00,1.10
7710.00,1.10
7709.00,1.10
7708.00,1.10
7707.00,1.10
7706.00,1.10
7705.00,1.10
7704.00,1.10
7703.00,1.10
7702.00,1.10
7701.00,1.10
7700.00,1.10
7699.00,1.10
7698.00,1.10
7697.00,1.10
7696.00,1.10
7695.00,1.10
7694.00,1.10
7693.00,1.10
7692.00,1.10
7691.00,1.10
7690.00,1.10
7689.00,1.10
7688.00,1.10
7687.00,1.10
7686.00,1.10
7685.00,1.10
7684.00,1.10
7683.00,1.10
7682.00,1.10
7681.00,1.10
7680.00,1.10
7679.00,1.10
7678.00,1.09
7677.00,1.09
7676.00,1.09
7675.00,1.09
7674.00,1.09
7673.00,1.09
7672.00,1.09
7671.00,1.09
7670.00,1.09
7669.00,1.09
7668.00,1.09
7667.00,1.09
7666.00,1.10
7665.00,1.10
7664.00,1.10
7663.00,1.10
7662.00,1.10
7661.00,1.10
7660.00,1.10
7659.00,1.10
7658.00,1.10
7657.00,1.10
7656.00,1.10
7655.00,1.10
7654.00,1.11
7653.00,1.11
7652.00,1.11
7651.00,1.11
7650.00,1.11
7649.00,1.11
7648.00,1.11
7647.00,1.11
7646.00,1.11
7645.00,1.11
7644.00,1.11
7643.00,1.11
7642.00,1.11
7641.00,1.11
7640.00,1.11
7639.00,1.11
7638.00,1.11
7637.00,1.11
7636.00,1.11
7635.00,1.11
7634.00,1.11
7633.00,1.11
7632.00,1.11
7631.00,1.11
7630.00,1.11
7629.00,1.11
7628.00,1.11
7627.00,1.11
7626.00,1.11
7625.00,1.11
7624.00,1.11
7623.00,1.11
7622.00,1.11
7621.00,1.11
7620.00,1.11
7619.00,1.11
7618.00,1.11
7617.00,1.11
7616.00,1.11
7615.00,1.11
7614.00,1.11
7613.00,1.11
7612.00,1.10
7611.00,1.10
7610.00,1.10
7609.00,1.10
7608.00,1.10
7607.00,1.10
7606.00,1.10
7605.00,1.10
7604.00,1.10
7603.00,1.10
7602.00,1.10
7601.00,1.10
7600.00,1.09
7599.00,1.09
7598.00,1.09
7597.00,1.10
7596.00,1.10
7595.00,1.10
7594.00,1.10
7593.00,1.10
7592.00,1.10
7591.00,1.10
7590.00,1.09
7589.00,1.09
7588.00,1.09
7587.00,1.09
7586.00,1.09
7585.00,1.09
7584.00,1.09
7583.00,1.09
7582.00,1.09
7581.00,1.09
7580.00,1.09
7579.00,1.09
7578.00,1.09
7577.00,1.09
7576.00,1.09
7575.00,1.09
7574.00,1.09
7573.00,1.09
7572.00,1.09
7571.00,1.09
7570.00,1.09
7569.00,1.09
7568.00,1.09
7567.00,1.09
7566.00,1.09
7565.00,1.09
7564.00,1.09
7563.00,1.09
7562.00,1.09
7561.00,1.09
7560.00,1.09
7559.00,1.09
7558.00,1.09
7557.00,1.09
7556.00,1.09
7555.00,1.09
7554.00,1.09
7553.00,1.09
7552.00,1.09
7551.00,1.09
7550.00,1.09
7549.00,1.09
7548.00,1.09
7547.00,1.09
7546.00,1.09
7545.00,1.09
7544.00,1.09
7543.00,1.08
7542.00,1.08
7541.00,1.08
7540.00,1.08
7539.00,1.08
7538.00,1.08
7537.00,1.08
7536.00,1.08
7535.00,1.08
7534.00,1.08
7533.00,1.08
7532.00,1.08
7531.00,1.08
7530.00,1.08
7529.00,1.08
7528.00,1.08
7527.00,1.08
7526.00,1.08
7525.00,1.08
7524.00,1.08
7523.00,1.08
7522.00,1.07
7521.00,1.07
7520.00,1.07
7519.00,1.07
7518.00,1.07
7517.00,1.07
7516.00,1.07
7515.00,1.07
7514.00,1.07
7513.00,1.07
7512.00,1.07
7511.00,1.07
7510.00,1.06
7509.00,1.06
7508.00,1.06
7507.00,1.06
7506.00,1.06
7505.00,1.06
7504.00,1.06
7503.00,1.06
7502.00,1.06
7501.00,1.06
7500.00,1.06
7499.00,1.06
7498.00,1.06
7497.00,1.06
7496.00,1.06
7495.00,1.06
7494.00,1.06
7493.00,1.06
7492.00,1.06
7491.00,1.06
7490.00,1.06
7489.00,1.06
7488.00,1.06
7487.00,1.06
7486.00,1.06
7485.00,1.06
7484.00,1.06
7483.00,1.06
7482.00,1.06
7481.00,1.06
7480.00,1.06
7479.00,1.06
7478.00,1.06
7477.00,1.06
7476.00,1.06
7475.00,1.06
7474.00,1.05
7473.00,1.05
7472.00,1.05
7471.00,1.05
7470.00,1.05
7469.00,1.05
7468.00,1.05
7467.00,1.05
7466.00,1.05
7465.00,1.05
7464.00,1.05
7463.00,1.05
7462.00,1.05
7461.00,1.05
7460.00,1.05
7459.00,1.05
7458.00,1.05
7457.00,1.05
7456.00,1.04
7455.00,1.04
7454.00,1.04
7453.00,1.04
7452.00,1.04
7451.00,1.04
7450.00,1.04
7449.00,1.04
7448.00,1.04
7447.00,1.04
7446.00,1.04
7445.00,1.04
7444.00,1.04
7443.00,1.04
7442.00,1.04
7441.00,1.04
7440.00,1.04
7439.00,1.04
7438.00,1.03
7437.00,1.03
7436.00,1.03
7435.00,1.03
7434.00,1.03
7433.00,1.03
7432.00,1.03
7431.00,1.03
7430.00,1.03
7429.00,1.03
7428.00,1.03
7427.00,1.03
7426.00,1.03
7425.00,1.03
7424.00,1.03
7423.00,1.03
7422.00,1.03
7421.00,1.03
7420.00,1.03
7419.00,1.03
7418.00,1.03
7417.00,1.03
7416.00,1.03
7415.00,1.03
7414.00,1.03
7413.00,1.03
7412.00,1.03
7411.00,1.02
7410.00,1.02
7409.00,1.02
7408.00,1.02
7407.00,1.02
7406.00,1.02
7405.00,1.02
7404.00,1.02
7403.00,1.02
7402.00,1.02
7401.00,1.02
7400.00,1.02
7399.00,1.02
7398.00,1.01
7397.00,1.01
7396.00,1.01
7395.00,1.01
7394.00,1.01
7393.00,1.01
7392.00,1.00
7391.00,1.00
7390.00,1.00
7389.00,1.00
7388.00,1.00
7387.00,1.00
7386.00,0.99
7385.00,0.99
7384.00,0.99
7383.00,0.99
7382.00,0.99
7381.00,0.99
7380.00,0.99
7379.00,0.99
7378.00,0.99
7377.00,0.99
7376.00,0.99
7375.00,0.99
7374.00,0.99
7373.00,0.99
7372.00,0.99
7371.00,0.99
7370.00,0.99
7369.00,0.99
7368.00,0.99
7367.00,0.99
7366.00,0.99
7365.00,0.99
7364.00,0.99
7363.00,0.99
7362.00,0.99
7361.00,0.99
7360.00,0.99
7359.00,0.99
7358.00,0.99
7357.00,0.99
7356.00,0.99
7355.00,0.99
7354.00,0.99
7353.00,0.99
7352.00,0.99
7351.00,0.99
7350.00,0.99
7349.00,0.99
7348.00,0.98
7347.00,0.98
7346.00,0.98
7345.00,0.98
7344.00,0.98
7343.00,0.98
7342.00,0.98
7341.00,0.98
7340.00,0.98
7339.00,0.98
7338.00,0.98
7337.00,0.98
7336.00,0.98
7335.00,0.98
7334.00,0.98
7333.00,0.98
7332.00,0.97
7331.00,0.97
7330.00,0.97
7329.00,0.97
7328.00,0.97
7327.00,0.97
7326.00,0.97
7325.00,0.97
7324.00,0.97
7323.00,0.97
7322.00,0.97
7321.00,0.97
7320.00,0.97
7319.00,0.97
7318.00,0.97
7317.00,0.97
7316.00,0.96
7315.00,0.96
7314.00,0.96
7313.00,0.96
7312.00,0.96
7311.00,0.96
7310.00,0.96
7309.00,0.96
7308.00,0.96
7307.00,0.96
7306.00,0.96
7305.00,0.96
7304.00,0.96
7303.00,0.96
7302.00,0.95
7301.00,0.95
7300.00,0.95
7299.00,0.95
7298.00,0.95
7297.00,0.95
7296.00,0.95
7295.00,0.95
7294.00,0.94
7293.00,0.94
7292.00,0.94
7291.00,0.94
7290.00,0.94
7289.00,0.94
7288.00,0.94
7287.00,0.94
7286.00,0.94
7285.00,0.94
7284.00,0.94
7283.00,0.93
7282.00,0.93
7281.00,0.93
7280.00,0.93
7279.00,0.93
7278.00,0.93
7277.00,0.93
7276.00,0.93
7275.00,0.93
7274.00,0.93
7273.00,0.93
7272.00,0.93
7271.00,0.93
7270.00,0.93
7269.00,0.93
7268.00,0.93
7267.00,0.92
7266.00,0.92
7265.00,0.92
7264.00,0.92
7263.00,0.92
7262.00,0.91
7261.00,0.91
7260.00,0.91
7259.00,0.91
7258.00,0.90
7257.00,0.90
7256.00,0.90
7255.00,0.90
7254.00,0.89
7253.00,0.89
7252.00,0.89
7251.00,0.88
7250.00,0.88
7249.00,0.88
7248.00,0.88
7247.00,0.87
7246.00,0.87
7245.00,0.87
7244.00,0.87
7243.00,0.86
7242.00,0.86
7241.00,0.86
7240.00,0.86
7239.00,0.86
7238.00,0.86
7237.00,0.85
7236.00,0.85
7235.00,0.85
7234.00,0.85
7233.00,0.85
7232.00,0.84
7231.00,0.84
7230.00,0.84
7229.00,0.84
7228.00,0.83
7227.00,0.83
7226.00,0.83
7225.00,0.83
7224.00,0.82
7223.00,0.82
7222.00,0.81
7221.00,0.81
7220.00,0.81
7219.00,0.80
7218.00,0.80
7217.00,0.79
7216.00,0.79
7215.00,0.79
7214.00,0.78
7213.00,0.78
7212.00,0.78
7211.00,0.77
7210.00,0.77
7209.00,0.77
7208.00,0.76
7207.00,0.76
7206.00,0.76
7205.00,0.75
7204.00,0.75
7203.00,0.75
7202.00,0.75
7201.00,0.74
7200.00,0.74
7199.00,0.74
7198.00,0.74
7197.00,0.73
7196.00,0.73
7195.00,0.73
7194.00,0.72
7193.00,0.72
7192.00,0.72
7191.00,0.71
7190.00,0.71
7189.00,0.71
7188.00,0.70
7187.00,0.70
7186.00,0.69
7185.00,0.69
7184.00,0.69
7183.00,0.68
7182.00,0.68
7181.00,0.68
7180.00,0.67
7179.00,0.67
7178.00,0.67
7177.00,0.66
7176.00,0.66
7175.00,0.66
7174.00,0.66
7173.00,0.65
7172.00,0.65
7171.00,0.65
7170.00,0.64
7169.00,0.64
7168.00,0.64
7167.00,0.64
7166.00,0.63
7165.00,0.63
7164.00,0.63
7163.00,0.62
7162.00,0.62
7161.00,0.62
7160.00,0.62
7159.00,0.61
7158.00,0.61
7157.00,0.61
7156.00,0.61
7155.00,0.60
7154.00,0.60
7153.00,0.60
7152.00,0.60
7151.00,0.59
7150.00,0.59
7149.00,0.59
7148.00,0.59
7147.00,0.59
7146.00,0.59
7145.00,0.58
7144.00,0.58
7143.00,0.58
7142.00,0.58
7141.00,0.58
7140.00,0.57
7139.00,0.57
7138.00,0.57
7137.00,0.57
7136.00,0.56
7135.00,0.56
7134.00,0.56
7133.00,0.56
7132.00,0.55
7131.00,0.55
7130.00,0.55
7129.00,0.55
7128.00,0.55
7127.00,0.54
7126.00,0.54
7125.00,0.54
7124.00,0.54
7123.00,0.54
7122.00,0.54
7121.00,0.54
7120.00,0.54
7119.00,0.54
7118.00,0.54
7117.00,0.54
7116.00,0.53
7115.00,0.53
7114.00,0.53
7113.00,0.53
7112.00,0.53
7111.00,0.53
7110.00,0.53
7109.00,0.53
7108.00,0.53
7107.00,0.53
7106.00,0.53
7105.00,0.53
7104.00,0.53
7103.00,0.52
7102.00,0.52
7101.00,0.52
7100.00,0.52
7099.00,0.52
7098.00,0.52
7097.00,0.51
7096.00,0.51
7095.00,0.51
7094.00,0.51
7093.00,0.51
7092.00,0.51
7091.00,0.50
7090.00,0.50
7089.00,0.50
7088.00,0.50
7087.00,0.50
7086.00,0.50
7085.00,0.50
7084.00,0.50
7083.00,0.50
7082.00,0.50
7081.00,0.50
7080.00,0.49
7079.00,0.49
7078.00,0.49
7077.00,0.49
7076.00,0.49
7075.00,0.49
7074.00,0.49
7073.00,0.49
7072.00,0.49
7071.00,0.49
7070.00,0.49
7069.00,0.49
7068.00,0.49
7067.00,0.49
7066.00,0.49
7065.00,0.48
7064.00,0.48
7063.00,0.48
7062.00,0.48
7061.00,0.48
7060.00,0.48
7059.00,0.48
7058.00,0.48
7057.00,0.48
7056.00,0.48
7055.00,0.48
7054.00,0.48
7053.00,0.48
7052.00,0.48
7051.00,0.48
7050.00,0.48
7049.00,0.48
7048.00,0.48
7047.00,0.48
7046.00,0.48
7045.00,0.48
7044.00,0.48
7043.00,0.48
7042.00,0.48
7041.00,0.48
7040.00,0.48
7039.00,0.48
7038.00,0.48
7037.00,0.48
7036.00,0.48
7035.00,0.48
7034.00,0.48
7033.00,0.48
7032.00,0.49
7031.00,0.49
7030.00,0.48
7029.00,0.48
7028.00,0.48
7027.00,0.48
7026.00,0.48
7025.00,0.48
7024.00,0.48
7023.00,0.48
7022.00,0.48
7021.00,0.48
7020.00,0.48
7019.00,0.48
7018.00,0.47
7017.00,0.47
7016.00,0.47
7015.00,0.47
7014.00,0.47
7013.00,0.47
7012.00,0.47
7011.00,0.47
7010.00,0.47
7009.00,0.47
7008.00,0.47
7007.00,0.47
7006.00,0.47
7005.00,0.47
7004.00,0.47
7003.00,0.47
7002.00,0.47
7001.00,0.47
7000.00,0.47
6999.00,0.47
6998.00,0.47
6997.00,0.47
6996.00,0.47
6995.00,0.47
6994.00,0.47
6993.00,0.47
6992.00,0.47
6991.00,0.47
6990.00,0.47
6989.00,0.46
6988.00,0.46
6987.00,0.46
6986.00,0.46
6985.00,0.46
6984.00,0.46
6983.00,0.46
6982.00,0.46
6981.00,0.46
6980.00,0.46
6979.00,0.46
6978.00,0.46
6977.00,0.46
6976.00,0.46
6975.00,0.46
6974.00,0.46
6973.00,0.46
6972.00,0.46
6971.00,0.46
6970.00,0.46
6969.00,0.46
6968.00,0.46
6967.00,0.46
6966.00,0.46
6965.00,0.46
6964.00,0.46
6963.00,0.46
6962.00,0.46
6961.00,0.46
6960.00,0.46
6959.00,0.46
6958.00,0.46
6957.00,0.46
6956.00,0.46
6955.00,0.46
6954.00,0.46
6953.00,0.46
6952.00,0.46
6951.00,0.46
6950.00,0.46
6949.00,0.46
6948.00,0.46
6947.00,0.46
6946.00,0.46
6945.00,0.46
6944.00,0.46
6943.00,0.46
6942.00,0.46
6941.00,0.46
6940.00,0.46
6939.00,0.46
6938.00,0.46
6937.00,0.45
6936.00,0.45
6935.00,0.45
6934.00,0.45
6933.00,0.45
6932.00,0.45
6931.00,0.45
6930.00,0.45
6929.00,0.45
6928.00,0.45
6927.00,0.45
6926.00,0.45
6925.00,0.45
6924.00,0.45
6923.00,0.46
6922.00,0.46
6921.00,0.46
6920.00,0.46
6919.00,0.46
6918.00,0.46
6917.00,0.46
6916.00,0.46
6915.00,0.46
6914.00,0.46
6913.00,0.46
6912.00,0.46
6911.00,0.46
6910.00,0.46
6909.00,0.46
6908.00,0.46
6907.00,0.46
6906.00,0.46
6905.00,0.46
6904.00,0.46
6903.00,0.46
6902.00,0.46
6901.00,0.46
6900.00,0.46
6899.00,0.46
6898.00,0.46
6897.00,0.46
6896.00,0.46
6895.00,0.46
6894.00,0.46
6893.00,0.46
6892.00,0.46
6891.00,0.46
6890.00,0.46
6889.00,0.46
6888.00,0.46
6887.00,0.46
6886.00,0.46
6885.00,0.46
6884.00,0.46
6883.00,0.46
6882.00,0.46
6881.00,0.46
6880.00,0.46
6879.00,0.46
6878.00,0.46
6877.00,0.46
6876.00,0.46
6875.00,0.46
6874.00,0.46
6873.00,0.46
6872.00,0.46
6871.00,0.46
6870.00,0.46
6869.00,0.46
6868.00,0.46
6867.00,0.46
6866.00,0.46
6865.00,0.46
6864.00,0.46
6863.00,0.46
6862.00,0.46
6861.00,0.46
6860.00,0.46
6859.00,0.46
6858.00,0.46
6857.00,0.46
6856.00,0.46
6855.00,0.46
6854.00,0.46
6853.00,0.46
6852.00,0.45
6851.00,0.45
6850.00,0.45
6849.00,0.46
6848.00,0.46
6847.00,0.46
6846.00,0.46
6845.00,0.46
6844.00,0.46
6843.00,0.46
6842.00,0.46
6841.00,0.47
6840.00,0.47
6839.00,0.47
6838.00,0.47
6837.00,0.47
6836.00,0.47
6835.00,0.47
6834.00,0.47
6833.00,0.47
6832.00,0.47
6831.00,0.47
6830.00,0.47
6829.00,0.47
6828.00,0.47
6827.00,0.47
6826.00,0.47
6825.00,0.47
6824.00,0.47
6823.00,0.47
6822.00,0.47
6821.00,0.47
6820.00,0.47
6819.00,0.47
6818.00,0.47
6817.00,0.47
6816.00,0.47
6815.00,0.47
6814.00,0.47
6813.00,0.47
6812.00,0.47
6811.00,0.47
6810.00,0.47
6809.00,0.47
6808.00,0.47
6807.00,0.48
6806.00,0.48
6805.00,0.48
6804.00,0.48
6803.00,0.48
6802.00,0.48
6801.00,0.48
6800.00,0.48
6799.00,0.48
6798.00,0.49
6797.00,0.49
6796.00,0.49
6795.00,0.49
6794.00,0.49
6793.00,0.49
6792.00,0.49
6791.00,0.49
6790.00,0.49
6789.00,0.49
6788.00,0.49
6787.00,0.49
6786.00,0.49
6785.00,0.49
6784.00,0.49
6783.00,0.49
6782.00,0.49
6781.00,0.49
6780.00,0.48
6779.00,0.48
6778.00,0.48
6777.00,0.48
6776.00,0.48
6775.00,0.48
6774.00,0.48
6773.00,0.48
6772.00,0.48
6771.00,0.48
6770.00,0.48
6769.00,0.48
6768.00,0.48
6767.00,0.48
6766.00,0.48
6765.00,0.49
6764.00,0.49
6763.00,0.49
6762.00,0.49
6761.00,0.49
6760.00,0.49
6759.00,0.49
6758.00,0.49
6757.00,0.49
6756.00,0.48
6755.00,0.48
6754.00,0.49
6753.00,0.49
6752.00,0.49
6751.00,0.49
6750.00,0.49
6749.00,0.49
6748.00,0.49
6747.00,0.49
6746.00,0.49
6745.00,0.49
6744.00,0.49
6743.00,0.49
6742.00,0.49
6741.00,0.49
6740.00,0.49
6739.00,0.49
6738.00,0.49
6737.00,0.50
6736.00,0.50
6735.00,0.50
6734.00,0.50
6733.00,0.50
6732.00,0.50
6731.00,0.50
6730.00,0.50
6729.00,0.50
6728.00,0.50
6727.00,0.50
6726.00,0.50
6725.00,0.50
6724.00,0.50
6723.00,0.50
6722.00,0.50
6721.00,0.50
6720.00,0.50
6719.00,0.50
6718.00,0.50
6717.00,0.50
6716.00,0.50
6715.00,0.50
6714.00,0.50
6713.00,0.50
6712.00,0.50
6711.00,0.50
6710.00,0.50
6709.00,0.50
6708.00,0.50
6707.00,0.50
6706.00,0.50
6705.00,0.50
6704.00,0.50
6703.00,0.50
6702.00,0.50
6701.00,0.50
6700.00,0.50
6699.00,0.50
6698.00,0.50
6697.00,0.50
6696.00,0.51
6695.00,0.51
6694.00,0.51
6693.00,0.51
6692.00,0.51
6691.00,0.51
6690.00,0.51
6689.00,0.51
6688.00,0.51
6687.00,0.51
6686.00,0.51
6685.00,0.51
6684.00,0.51
6683.00,0.51
6682.00,0.51
6681.00,0.51
6680.00,0.51
6679.00,0.52
6678.00,0.52
6677.00,0.52
6676.00,0.52
6675.00,0.52
6674.00,0.52
6673.00,0.52
6672.00,0.52
6671.00,0.52
6670.00,0.52
6669.00,0.52
6668.00,0.52
6667.00,0.52
6666.00,0.52
6665.00,0.52
6664.00,0.52
6663.00,0.52
6662.00,0.52
6661.00,0.52
6660.00,0.52
6659.00,0.53
6658.00,0.53
6657.00,0.53
6656.00,0.53
6655.00,0.53
6654.00,0.53
6653.00,0.53
6652.00,0.53
6651.00,0.53
6650.00,0.53
6649.00,0.53
6648.00,0.53
6647.00,0.53
6646.00,0.53
6645.00,0.53
6644.00,0.53
6643.00,0.53
6642.00,0.53
6641.00,0.53
6640.00,0.53
6639.00,0.53
6638.00,0.53
6637.00,0.53
6636.00,0.53
6635.00,0.53
6634.00,0.53
6633.00,0.53
6632.00,0.53
6631.00,0.54
6630.00,0.54
6629.00,0.54
6628.00,0.54
6627.00,0.54
6626.00,0.54
6625.00,0.54
6624.00,0.54
6623.00,0.55
6622.00,0.55
6621.00,0.55
6620.00,0.55
6619.00,0.55
6618.00,0.55
6617.00,0.55
6616.00,0.56
6615.00,0.56
6614.00,0.56
6613.00,0.56
6612.00,0.56
6611.00,0.56
6610.00,0.56
6609.00,0.56
6608.00,0.56
6607.00,0.56
6606.00,0.56
6605.00,0.56
6604.00,0.56
6603.00,0.56
6602.00,0.56
6601.00,0.56
6600.00,0.56
6599.00,0.56
6598.00,0.56
6597.00,0.57
6596.00,0.57
6595.00,0.57
6594.00,0.57
6593.00,0.57
6592.00,0.57
6591.00,0.57
6590.00,0.57
6589.00,0.58
6588.00,0.58
6587.00,0.58
6586.00,0.58
6585.00,0.58
6584.00,0.58
6583.00,0.58
6582.00,0.58
6581.00,0.58
6580.00,0.58
6579.00,0.58
6578.00,0.58
6577.00,0.58
6576.00,0.58
6575.00,0.58
6574.00,0.58
6573.00,0.58
6572.00,0.58
6571.00,0.58
6570.00,0.58
6569.00,0.58
6568.00,0.58
6567.00,0.59
6566.00,0.59
6565.00,0.59
6564.00,0.59
6563.00,0.59
6562.00,0.59
6561.00,0.59
6560.00,0.59
6559.00,0.60
6558.00,0.60
6557.00,0.60
6556.00,0.60
6555.00,0.60
6554.00,0.60
6553.00,0.60
6552.00,0.60
6551.00,0.60
6550.00,0.60
6549.00,0.60
6548.00,0.60
6547.00,0.60
6546.00,0.60
6545.00,0.60
6544.00,0.60
6543.00,0.60
6542.00,0.61
6541.00,0.61
6540.00,0.61
6539.00,0.61
6538.00,0.61
6537.00,0.61
6536.00,0.61
6535.00,0.61
6534.00,0.61
6533.00,0.61
6532.00,0.61
6531.00,0.61
6530.00,0.61
6529.00,0.62
6528.00,0.62
6527.00,0.62
6526.00,0.62
6525.00,0.62
6524.00,0.62
6523.00,0.62
6522.00,0.62
6521.00,0.62
6520.00,0.62
6519.00,0.62
6518.00,0.62
6517.00,0.62
6516.00,0.63
6515.00,0.63
6514.00,0.63
6513.00,0.63
6512.00,0.63
6511.00,0.63
6510.00,0.63
6509.00,0.63
6508.00,0.63
6507.00,0.63
6506.00,0.63
6505.00,0.63
6504.00,0.63
6503.00,0.63
6502.00,0.63
6501.00,0.63
6500.00,0.63
6499.00,0.63
6498.00,0.63
6497.00,0.63
6496.00,0.63
6495.00,0.63
6494.00,0.63
6493.00,0.64
6492.00,0.64
6491.00,0.64
6490.00,0.64
6489.00,0.64
6488.00,0.64
6487.00,0.64
6486.00,0.64
6485.00,0.64
6484.00,0.64
6483.00,0.64
6482.00,0.64
6481.00,0.64
6480.00,0.64
6479.00,0.64
6478.00,0.64
6477.00,0.64
6476.00,0.64
6475.00,0.64
6474.00,0.64
6473.00,0.64
6472.00,0.64
6471.00,0.64
6470.00,0.64
6469.00,0.65
6468.00,0.65
6467.00,0.65
6466.00,0.65
6465.00,0.65
6464.00,0.65
6463.00,0.65
6462.00,0.65
6461.00,0.65
6460.00,0.66
6459.00,0.66
6458.00,0.66
6457.00,0.66
6456.00,0.66
6455.00,0.66
6454.00,0.67
6453.00,0.67
6452.00,0.67
6451.00,0.67
6450.00,0.67
6449.00,0.67
6448.00,0.67
6447.00,0.68
6446.00,0.68
6445.00,0.68
6444.00,0.68
6443.00,0.68
6442.00,0.68
6441.00,0.68
6440.00,0.68
6439.00,0.68
6438.00,0.68
6437.00,0.68
6436.00,0.68
6435.00,0.68
6434.00,0.68
6433.00,0.68
6432.00,0.68
6431.00,0.68
6430.00,0.69
6429.00,0.69
6428.00,0.69
6427.00,0.69
6426.00,0.69
6425.00,0.69
6424.00,0.69
6423.00,0.70
6422.00,0.70
6421.00,0.70
6420.00,0.70
6419.00,0.70
6418.00,0.70
6417.00,0.70
6416.00,0.70
6415.00,0.71
6414.00,0.71
6413.00,0.71
6412.00,0.71
6411.00,0.71
6410.00,0.71
6409.00,0.71
6408.00,0.71
6407.00,0.71
6406.00,0.71
6405.00,0.71
6404.00,0.71
6403.00,0.71
6402.00,0.71
6401.00,0.71
6400.00,0.71
6399.00,0.71
6398.00,0.71
6397.00,0.71
6396.00,0.71
6395.00,0.71
6394.00,0.71
6393.00,0.71
6392.00,0.71
6391.00,0.71
6390.00,0.71
6389.00,0.71
6388.00,0.72
6387.00,0.72
6386.00,0.72
6385.00,0.72
6384.00,0.72
6383.00,0.72
6382.00,0.72
6381.00,0.72
6380.00,0.72
6379.00,0.72
6378.00,0.72
6377.00,0.72
6376.00,0.72
6375.00,0.73
6374.00,0.73
6373.00,0.73
6372.00,0.73
6371.00,0.73
6370.00,0.73
6369.00,0.73
6368.00,0.73
6367.00,0.74
6366.00,0.74
6365.00,0.74
6364.00,0.74
6363.00,0.74
6362.00,0.74
6361.00,0.74
6360.00,0.74
6359.00,0.75
6358.00,0.75
6357.00,0.75
6356.00,0.75
6355.00,0.75
6354.00,0.75
6353.00,0.75
6352.00,0.75
6351.00,0.75
6350.00,0.75
6349.00,0.76
6348.00,0.76
6347.00,0.76
6346.00,0.76
6345.00,0.76
6344.00,0.76
6343.00,0.76
6342.00,0.76
6341.00,0.76
6340.00,0.76
6339.00,0.76
6338.00,0.76
6337.00,0.76
6336.00,0.76
6335.00,0.76
6334.00,0.77
6333.00,0.77
6332.00,0.77
6331.00,0.77
6330.00,0.77
6329.00,0.77
6328.00,0.77
6327.00,0.77
6326.00,0.77
6325.00,0.77
6324.00,0.77
6323.00,0.77
6322.00,0.77
6321.00,0.78
6320.00,0.78
6319.00,0.78
6318.00,0.78
6317.00,0.78
6316.00,0.78
6315.00,0.78
6314.00,0.79
6313.00,0.79
6312.00,0.79
6311.00,0.79
6310.00,0.79
6309.00,0.79
6308.00,0.79
6307.00,0.80
6306.00,0.80
6305.00,0.80
6304.00,0.80
6303.00,0.80
6302.00,0.80
6301.00,0.80
6300.00,0.80
6299.00,0.81
6298.00,0.81
6297.00,0.81
6296.00,0.81
6295.00,0.81
6294.00,0.81
6293.00,0.81
6292.00,0.81
6291.00,0.81
6290.00,0.81
6289.00,0.82
6288.00,0.82
6287.00,0.82
6286.00,0.82
6285.00,0.82
6284.00,0.82
6283.00,0.82
6282.00,0.82
6281.00,0.82
6280.00,0.82
6279.00,0.82
6278.00,0.82
6277.00,0.82
6276.00,0.82
6275.00,0.82
6274.00,0.82
6273.00,0.82
6272.00,0.82
6271.00,0.82
6270.00,0.83
6269.00,0.83
6268.00,0.83
6267.00,0.83
6266.00,0.83
6265.00,0.83
6264.00,0.84
6263.00,0.84
6262.00,0.84
6261.00,0.84
6260.00,0.84
6259.00,0.84
6258.00,0.85
6257.00,0.85
6256.00,0.85
6255.00,0.85
6254.00,0.85
6253.00,0.85
6252.00,0.85
6251.00,0.85
6250.00,0.86
6249.00,0.86
6248.00,0.86
6247.00,0.86
6246.00,0.86
6245.00,0.86
6244.00,0.86
6243.00,0.86
6242.00,0.86
6241.00,0.86
6240.00,0.86
6239.00,0.86
6238.00,0.86
6237.00,0.86
6236.00,0.86
6235.00,0.86
6234.00,0.86
6233.00,0.87
6232.00,0.87
6231.00,0.87
6230.00,0.87
6229.00,0.87
6228.00,0.87
6227.00,0.87
6226.00,0.87
6225.00,0.87
6224.00,0.87
6223.00,0.88
6222.00,0.88
6221.00,0.88
6220.00,0.88
6219.00,0.88
6218.00,0.88
6217.00,0.88
6216.00,0.88
6215.00,0.88
6214.00,0.88
6213.00,0.89
6212.00,0.89
6211.00,0.89
6210.00,0.89
6209.00,0.89
6208.00,0.89
6207.00,0.89
6206.00,0.89
6205.00,0.89
6204.00,0.89
6203.00,0.89
6202.00,0.90
6201.00,0.90
6200.00,0.90
6199.00,0.90
6198.00,0.90
6197.00,0.90
6196.00,0.90
6195.00,0.90
6194.00,0.90
6193.00,0.90
6192.00,0.90
6191.00,0.91
6190.00,0.91
6189.00,0.91
6188.00,0.91
6187.00,0.91
6186.00,0.91
6185.00,0.91
6184.00,0.91
6183.00,0.91
6182.00,0.91
6181.00,0.91
6180.00,0.91
6179.00,0.92
6178.00,0.92
6177.00,0.92
6176.00,0.92
6175.00,0.92
6174.00,0.92
6173.00,0.92
6172.00,0.92
6171.00,0.92
6170.00,0.93
6169.00,0.93
6168.00,0.93
6167.00,0.93
6166.00,0.93
6165.00,0.93
6164.00,0.93
6163.00,0.94
6162.00,0.94
6161.00,0.94
6160.00,0.94
6159.00,0.94
6158.00,0.94
6157.00,0.95
6156.00,0.95
6155.00,0.95
6154.00,0.95
6153.00,0.95
6152.00,0.95
6151.00,0.95
6150.00,0.96
6149.00,0.96
6148.00,0.96
6147.00,0.96
6146.00,0.96
6145.00,0.96
6144.00,0.96
6143.00,0.96
6142.00,0.96
6141.00,0.96
6140.00,0.97
6139.00,0.97
6138.00,0.97
6137.00,0.97
6136.00,0.97
6135.00,0.97
6134.00,0.97
6133.00,0.97
6132.00,0.97
6131.00,0.97
6130.00,0.98
6129.00,0.98
6128.00,0.98
6127.00,0.98
6126.00,0.98
6125.00,0.98
6124.00,0.98
6123.00,0.98
6122.00,0.98
6121.00,0.98
6120.00,0.98
6119.00,0.98
6118.00,0.98
6117.00,0.98
6116.00,0.98
6115.00,0.98
6114.00,0.99
6113.00,0.99
6112.00,0.99
6111.00,0.99
6110.00,0.99
6109.00,0.99
6108.00,1.00
6107.00,1.00
6106.00,1.00
6105.00,1.00
6104.00,1.01
6103.00,1.01
6102.00,1.01
6101.00,1.01
6100.00,1.01
6099.00,1.01
6098.00,1.02
6097.00,1.02
6096.00,1.02
6095.00,1.02
6094.00,1.02
6093.00,1.02
6092.00,1.02
6091.00,1.02
6090.00,1.02
6089.00,1.02
6088.00,1.02
6087.00,1.03
6086.00,1.03
6085.00,1.03
6084.00,1.03
6083.00,1.03
6082.00,1.03
6081.00,1.03
6080.00,1.03
6079.00,1.03
6078.00,1.03
6077.00,1.03
6076.00,1.03
6075.00,1.03
6074.00,1.04
6073.00,1.04
6072.00,1.04
6071.00,1.04
6070.00,1.04
6069.00,1.04
6068.00,1.04
6067.00,1.04
6066.00,1.04
6065.00,1.05
6064.00,1.05
6063.00,1.05
6062.00,1.05
6061.00,1.05
6060.00,1.05
6059.00,1.05
6058.00,1.05
6057.00,1.05
6056.00,1.05
6055.00,1.05
6054.00,1.05
6053.00,1.05
6052.00,1.05
6051.00,1.05
6050.00,1.06
6049.00,1.06
6048.00,1.06
6047.00,1.06
6046.00,1.06
6045.00,1.06
6044.00,1.06
6043.00,1.06
6042.00,1.06
6041.00,1.06
6040.00,1.06
6039.00,1.06
6038.00,1.06
6037.00,1.06
6036.00,1.06
6035.00,1.07
6034.00,1.07
6033.00,1.07
6032.00,1.07
6031.00,1.07
6030.00,1.07
6029.00,1.07
6028.00,1.07
6027.00,1.07
6026.00,1.07
6025.00,1.07
6024.00,1.07
6023.00,1.08
6022.00,1.08
6021.00,1.08
6020.00,1.08
6019.00,1.08
6018.00,1.08
6017.00,1.08
6016.00,1.08
6015.00,1.08
6014.00,1.08
6013.00,1.08
6012.00,1.08
6011.00,1.08
6010.00,1.08
6009.00,1.08
6008.00,1.08
6007.00,1.08
6006.00,1.08
6005.00,1.08
6004.00,1.08
6003.00,1.08
6002.00,1.08
6001.00,1.08
6000.00,1.08
5999.00,1.08
5998.00,1.08
5997.00,1.08
5996.00,1.07
5995.00,1.07
5994.00,1.07
5993.00,1.07
5992.00,1.07
5991.00,1.07
5990.00,1.07
5989.00,1.07
5988.00,1.07
5987.00,1.07
5986.00,1.07
5985.00,1.07
5984.00,1.06
5983.00,1.06
5982.00,1.06
5981.00,1.06
5980.00,1.06
5979.00,1.06
5978.00,1.05
5977.00,1.05
5976.00,1.05
5975.00,1.05
5974.00,1.04
5973.00,1.04
5972.00,1.04
5971.00,1.03
5970.00,1.03
5969.00,1.03
5968.00,1.03
5967.00,1.02
5966.00,1.02
5965.00,1.02
5964.00,1.01
5963.00,1.01
5962.00,1.01
5961.00,1.00
5960.00,1.00
5959.00,1.00
5958.00,1.00
5957.00,0.99
5956.00,0.99
5955.00,0.99
5954.00,0.99
5953.00,0.98
5952.00,0.98
5951.00,0.98
5950.00,0.98
5949.00,0.97
5948.00,0.97
5947.00,0.97
5946.00,0.97
5945.00,0.97
5944.00,0.97
5943.00,0.97
5942.00,0.96
5941.00,0.96
5940.00,0.96
5939.00,0.96
5938.00,0.96
5937.00,0.96
5936.00,0.96
5935.00,0.96
5934.00,0.96
5933.00,0.96
5932.00,0.96
5931.00,0.96
5930.00,0.95
5929.00,0.95
5928.00,0.95
5927.00,0.95
5926.00,0.95
5925.00,0.95
5924.00,0.95
5923.00,0.95
5922.00,0.95
5921.00,0.95
5920.00,0.94
5919.00,0.94
5918.00,0.94
5917.00,0.94
5916.00,0.94
5915.00,0.94
5914.00,0.93
5913.00,0.93
5912.00,0.93
5911.00,0.93
5910.00,0.93
5909.00,0.93
5908.00,0.92
5907.00,0.92
5906.00,0.92
5905.00,0.92
5904.00,0.92
5903.00,0.92
5902.00,0.92
5901.00,0.93
5900.00,0.93
5899.00,0.93
5898.00,0.93
5897.00,0.93
5896.00,0.94
5895.00,0.94
5894.00,0.94
5893.00,0.94
5892.00,0.95
5891.00,0.95
5890.00,0.95
5889.00,0.95
5888.00,0.96
5887.00,0.96
5886.00,0.96
5885.00,0.96
5884.00,0.96
5883.00,0.97
5882.00,0.97
5881.00,0.97
5880.00,0.97
5879.00,0.98
5878.00,0.98
5877.00,0.98
5876.00,0.98
5875.00,0.98
5874.00,0.99
5873.00,0.99
5872.00,0.99
5871.00,0.99
5870.00,0.99
5869.00,0.99
5868.00,1.00
5867.00,1.00
5866.00,1.00
5865.00,1.00
5864.00,1.00
5863.00,1.00
5862.00,1.00
5861.00,1.00
5860.00,1.00
5859.00,1.00
5858.00,1.00
5857.00,1.00
5856.00,1.00
5855.00,1.00
5854.00,1.00
5853.00,1.00
5852.00,1.00
5851.00,1.00
5850.00,1.00
5849.00,1.00
5848.00,1.00
5847.00,1.00
5846.00,1.00
5845.00,1.00
5844.00,1.00
5843.00,1.00
5842.00,1.00
5841.00,1.00
5840.00,1.00
5839.00,1.00
5838.00,1.00
5837.00,1.00
5836.00,1.00
5835.00,1.00
5834.00,1.00
5833.00,1.00
5832.00,1.00
5831.00,1.00
5830.00,1.00
5829.00,1.00
5828.00,1.00
5827.00,1.00
5826.00,1.00
5825.00,1.00
5824.00,1.00
5823.00,1.00
5822.00,1.00
5821.00,1.00
5820.00,1.00
5819.00,1.00
5818.00,1.00
5817.00,1.00
5816.00,1.00
5815.00,1.00
5814.00,1.00
5813.00,1.00
5812.00,1.01
5811.00,1.01
5810.00,1.01
5809.00,1.01
5808.00,1.01
5807.00,1.01
5806.00,1.00
5805.00,1.00
5804.00,1.00
5803.00,1.00
5802.00,1.00
5801.00,1.00
5800.00,1.00
5799.00,1.00
5798.00,1.00
5797.00,0.99
5796.00,0.99
5795.00,0.99
5794.00,0.99
5793.00,0.99
5792.00,0.99
5791.00,0.98
5790.00,0.98
5789.00,0.98
5788.00,0.98
5787.00,0.98
5786.00,0.98
5785.00,0.98
5784.00,0.97
5783.00,0.97
5782.00,0.97
5781.00,0.97
5780.00,0.97
5779.00,0.97
5778.00,0.97
5777.00,0.97
5776.00,0.97
5775.00,0.97
5774.00,0.97
5773.00,0.97
5772.00,0.97
5771.00,0.97
5770.00,0.97
5769.00,0.97
5768.00,0.97
5767.00,0.97
5766.00,0.97
5765.00,0.97
5764.00,0.97
5763.00,0.97
5762.00,0.97
5761.00,0.97
5760.00,0.98
5759.00,0.98
5758.00,0.98
5757.00,0.98
5756.00,0.98
5755.00,0.98
5754.00,0.98
5753.00,0.99
5752.00,0.99
5751.00,0.99
5750.00,0.99
5749.00,0.99
5748.00,0.99
5747.00,1.00
5746.00,1.00
5745.00,1.00
5744.00,1.00
5743.00,1.00
5742.00,1.00
5741.00,1.00
5740.00,1.00
5739.00,1.01
5738.00,1.01
5737.00,1.01
5736.00,1.01
5735.00,1.01
5734.00,1.01
5733.00,1.01
5732.00,1.01
5731.00,1.01
5730.00,1.01
5729.00,1.01
5728.00,1.01
5727.00,1.01
5726.00,1.01
5725.00,1.01
5724.00,1.01
5723.00,1.01
5722.00,1.01
5721.00,1.01
5720.00,1.01
5719.00,1.01
5718.00,1.00
5717.00,1.00
5716.00,1.00
5715.00,1.00
5714.00,1.00
5713.00,1.00
5712.00,1.00
5711.00,1.00
5710.00,1.00
5709.00,1.00
5708.00,1.00
5707.00,1.00
5706.00,1.00
5705.00,1.00
5704.00,1.00
5703.00,1.00
5702.00,1.00
5701.00,1.00
5700.00,1.00
5699.00,1.00
5698.00,1.00
5697.00,0.99
5696.00,0.99
5695.00,0.99
5694.00,0.99
5693.00,0.99
5692.00,0.99
5691.00,0.98
5690.00,0.98
5689.00,0.98
5688.00,0.98
5687.00,0.98
5686.00,0.97
5685.00,0.97
5684.00,0.97
5683.00,0.97
5682.00,0.97
5681.00,0.97
5680.00,0.97
5679.00,0.97
5678.00,0.96
5677.00,0.96
5676.00,0.96
5675.00,0.96
5674.00,0.96
5673.00,0.96
5672.00,0.96
5671.00,0.97
5670.00,0.97
5669.00,0.97
5668.00,0.97
5667.00,0.97
5666.00,0.97
5665.00,0.97
5664.00,0.97
5663.00,0.97
5662.00,0.97
5661.00,0.97
5660.00,0.97
5659.00,0.97
5658.00,0.97
5657.00,0.97
5656.00,0.97
5655.00,0.98
5654.00,0.98
5653.00,0.98
5652.00,0.98
5651.00,0.98
5650.00,0.98
5649.00,0.98
5648.00,0.98
5647.00,0.98
5646.00,0.98
5645.00,0.98
5644.00,0.98
5643.00,0.98
5642.00,0.99
5641.00,0.99
5640.00,0.99
5639.00,0.99
5638.00,0.99
5637.00,0.99
5636.00,0.99
5635.00,0.99
5634.00,0.99
5633.00,0.99
5632.00,0.99
5631.00,0.99
5630.00,0.99
5629.00,0.99
5628.00,0.99
5627.00,0.99
5626.00,0.99
5625.00,0.99
5624.00,0.99
5623.00,0.99
5622.00,0.99
5621.00,0.99
5620.00,0.99
5619.00,0.99
5618.00,1.00
5617.00,1.00
5616.00,1.00
5615.00,1.00
5614.00,1.00
5613.00,1.00
5612.00,1.00
5611.00,1.00
5610.00,1.00
5609.00,1.00
5608.00,1.00
5607.00,1.00
5606.00,1.00
5605.00,1.01
5604.00,1.01
5603.00,1.01
5602.00,1.01
5601.00,1.01
5600.00,1.01
5599.00,1.01
5598.00,1.01
5597.00,1.01
5596.00,1.01
5595.00,1.01
5594.00,1.01
5593.00,1.01
5592.00,1.01
5591.00,1.02
5590.00,1.02
5589.00,1.02
5588.00,1.02
5587.00,1.02
5586.00,1.02
5585.00,1.02
5584.00,1.02
5583.00,1.02
5582.00,1.02
5581.00,1.02
5580.00,1.02
5579.00,1.02
5578.00,1.02
5577.00,1.02
5576.00,1.03
5575.00,1.03
5574.00,1.03
5573.00,1.03
5572.00,1.03
5571.00,1.03
5570.00,1.03
5569.00,1.03
5568.00,1.03
5567.00,1.03
5566.00,1.03
5565.00,1.04
5564.00,1.04
5563.00,1.04
5562.00,1.04
5561.00,1.04
5560.00,1.04
5559.00,1.04
5558.00,1.04
5557.00,1.04
5556.00,1.05
5555.00,1.05
5554.00,1.05
5553.00,1.05
5552.00,1.05
5551.00,1.05
5550.00,1.05
5549.00,1.05
5548.00,1.05
5547.00,1.05
5546.00,1.06
5545.00,1.06
5544.00,1.06
5543.00,1.06
5542.00,1.06
5541.00,1.06
5540.00,1.06
5539.00,1.06
5538.00,1.06
5537.00,1.06
5536.00,1.06
5535.00,1.06
5534.00,1.06
5533.00,1.06
5532.00,1.07
5531.00,1.07
5530.00,1.07
5529.00,1.07
5528.00,1.07
5527.00,1.07
5526.00,1.07
5525.00,1.07
5524.00,1.07
5523.00,1.07
5522.00,1.07
5521.00,1.07
5520.00,1.07
5519.00,1.07
5518.00,1.07
5517.00,1.07
5516.00,1.08
5515.00,1.08
5514.00,1.08
5513.00,1.08
5512.00,1.08
5511.00,1.08
5510.00,1.08
5509.00,1.08
5508.00,1.08
5507.00,1.08
5506.00,1.08
5505.00,1.08
5504.00,1.08
5503.00,1.09
5502.00,1.09
5501.00,1.09
5500.00,1.09
5499.00,1.09
5498.00,1.09
5497.00,1.09
5496.00,1.09
5495.00,1.09
5494.00,1.09
5493.00,1.09
5492.00,1.09
5491.00,1.09
5490.00,1.09
5489.00,1.10
5488.00,1.10
5487.00,1.10
5486.00,1.10
5485.00,1.10
5484.00,1.10
5483.00,1.10
5482.00,1.10
5481.00,1.10
5480.00,1.10
5479.00,1.10
5478.00,1.10
5477.00,1.10
5476.00,1.10
5475.00,1.10
5474.00,1.10
5473.00,1.10
5472.00,1.10
5471.00,1.10
5470.00,1.10
5469.00,1.10
5468.00,1.10
5467.00,1.10
5466.00,1.10
5465.00,1.10
5464.00,1.10
5463.00,1.10
5462.00,1.10
5461.00,1.11
5460.00,1.11
5459.00,1.11
5458.00,1.11
5457.00,1.11
5456.00,1.11
5455.00,1.11
5454.00,1.11
5453.00,1.11
5452.00,1.11
5451.00,1.11
5450.00,1.11
5449.00,1.11
5448.00,1.11
5447.00,1.11
5446.00,1.11
5445.00,1.11
5444.00,1.11
5443.00,1.11
5442.00,1.11
5441.00,1.11
5440.00,1.11
5439.00,1.11
5438.00,1.11
5437.00,1.11
5436.00,1.11
5435.00,1.10
5434.00,1.10
5433.00,1.10
5432.00,1.10
5431.00,1.10
5430.00,1.10
5429.00,1.10
5428.00,1.10
5427.00,1.10
5426.00,1.10
5425.00,1.10
5424.00,1.10
5423.00,1.10
5422.00,1.10
5421.00,1.10
5420.00,1.10
5419.00,1.10
5418.00,1.10
5417.00,1.10
5416.00,1.10
5415.00,1.09
5414.00,1.09
5413.00,1.09
5412.00,1.09
5411.00,1.09
5410.00,1.09
5409.00,1.08
5408.00,1.08
5407.00,1.08
5406.00,1.08
5405.00,1.08
5404.00,1.08
5403.00,1.07
5402.00,1.07
5401.00,1.07
5400.00,1.07
5399.00,1.07
5398.00,1.07
5397.00,1.06
5396.00,1.06
5395.00,1.06
5394.00,1.06
5393.00,1.05
5392.00,1.05
5391.00,1.05
5390.00,1.05
5389.00,1.04
5388.00,1.04
5387.00,1.04
5386.00,1.03
5385.00,1.03
5384.00,1.03
5383.00,1.03
5382.00,1.02
5381.00,1.02
5380.00,1.02
5379.00,1.01
5378.00,1.01
5377.00,1.01
5376.00,1.00
5375.00,1.00
5374.00,0.99
5373.00,0.99
5372.00,0.99
5371.00,0.98
5370.00,0.98
5369.00,0.98
5368.00,0.97
5367.00,0.97
5366.00,0.96
5365.00,0.96
5364.00,0.95
5363.00,0.95
5362.00,0.94
5361.00,0.94
5360.00,0.93
5359.00,0.92
5358.00,0.92
5357.00,0.91
5356.00,0.91
5355.00,0.90
5354.00,0.89
5353.00,0.89
5352.00,0.88
5351.00,0.87
5350.00,0.87
5349.00,0.86
5348.00,0.86
5347.00,0.85
5346.00,0.84
5345.00,0.84
5344.00,0.83
5343.00,0.83
5342.00,0.82
5341.00,0.81
5340.00,0.81
5339.00,0.80
5338.00,0.80
5337.00,0.79
5336.00,0.79
5335.00,0.78
5334.00,0.78
5333.00,0.77
5332.00,0.77
5331.00,0.76
5330.00,0.76
5329.00,0.75
5328.00,0.75
5327.00,0.75
5326.00,0.74
5325.00,0.74
5324.00,0.74
5323.00,0.73
5322.00,0.73
5321.00,0.73
5320.00,0.72
5319.00,0.72
5318.00,0.72
5317.00,0.72
5316.00,0.72
5315.00,0.71
5314.00,0.71
5313.00,0.71
5312.00,0.71
5311.00,0.71
5310.00,0.70
5309.00,0.70
5308.00,0.70
5307.00,0.70
5306.00,0.70
5305.00,0.70
5304.00,0.69
5303.00,0.69
5302.00,0.69
5301.00,0.69
5300.00,0.69
5299.00,0.69
5298.00,0.68
5297.00,0.68
5296.00,0.68
5295.00,0.68
5294.00,0.68
5293.00,0.68
5292.00,0.68
5291.00,0.68
5290.00,0.68
5289.00,0.68
5288.00,0.68
5287.00,0.68
5286.00,0.68
5285.00,0.68
5284.00,0.68
5283.00,0.68
5282.00,0.68
5281.00,0.68
5280.00,0.68
5279.00,0.68
5278.00,0.68
5277.00,0.68
5276.00,0.68
5275.00,0.68
5274.00,0.68
5273.00,0.68
5272.00,0.68
5271.00,0.68
5270.00,0.67
5269.00,0.67
5268.00,0.67
5267.00,0.67
5266.00,0.67
5265.00,0.67
5264.00,0.67
5263.00,0.67
5262.00,0.67
5261.00,0.67
5260.00,0.67
5259.00,0.67
5258.00,0.67
5257.00,0.67
5256.00,0.67
5255.00,0.67
5254.00,0.67
5253.00,0.67
5252.00,0.67
5251.00,0.67
5250.00,0.67
5249.00,0.68
5248.00,0.68
5247.00,0.68
5246.00,0.68
5245.00,0.68
5244.00,0.68
5243.00,0.68
5242.00,0.68
5241.00,0.68
5240.00,0.68
5239.00,0.68
5238.00,0.68
5237.00,0.68
5236.00,0.68
5235.00,0.68
5234.00,0.68
5233.00,0.68
5232.00,0.68
5231.00,0.68
5230.00,0.68
5229.00,0.68
5228.00,0.68
5227.00,0.68
5226.00,0.68
5225.00,0.68
5224.00,0.68
5223.00,0.68
5222.00,0.68
5221.00,0.68
5220.00,0.68
5219.00,0.68
5218.00,0.68
5217.00,0.68
5216.00,0.68
5215.00,0.68
5214.00,0.68
5213.00,0.68
5212.00,0.68
5211.00,0.68
5210.00,0.68
5209.00,0.68
5208.00,0.68
5207.00,0.68
5206.00,0.69
5205.00,0.69
5204.00,0.69
5203.00,0.69
5202.00,0.69
5201.00,0.69
5200.00,0.69
5199.00,0.69
5198.00,0.69
5197.00,0.69
5196.00,0.69
5195.00,0.69
5194.00,0.69
5193.00,0.69
5192.00,0.69
5191.00,0.69
5190.00,0.69
5189.00,0.69
5188.00,0.69
5187.00,0.69
5186.00,0.69
5185.00,0.69
5184.00,0.69
5183.00,0.69
5182.00,0.69
5181.00,0.69
5180.00,0.69
5179.00,0.69
5178.00,0.69
5177.00,0.69
5176.00,0.69
5175.00,0.69
5174.00,0.69
5173.00,0.69
5172.00,0.69
5171.00,0.70
5170.00,0.70
5169.00,0.70
5168.00,0.70
5167.00,0.70
5166.00,0.70
5165.00,0.70
5164.00,0.70
5163.00,0.70
5162.00,0.70
5161.00,0.70
5160.00,0.70
5159.00,0.70
5158.00,0.70
5157.00,0.70
5156.00,0.71
5155.00,0.71
5154.00,0.71
5153.00,0.71
5152.00,0.71
5151.00,0.71
5150.00,0.71
5149.00,0.71
5148.00,0.71
5147.00,0.71
5146.00,0.71
5145.00,0.71
5144.00,0.71
5143.00,0.71
5142.00,0.71
5141.00,0.71
5140.00,0.71
5139.00,0.71
5138.00,0.71
5137.00,0.71
5136.00,0.71
5135.00,0.71
5134.00,0.71
5133.00,0.71
5132.00,0.71
5131.00,0.71
5130.00,0.71
5129.00,0.71
5128.00,0.71
5127.00,0.71
5126.00,0.71
5125.00,0.71
5124.00,0.71
5123.00,0.72
5122.00,0.72
5121.00,0.72
5120.00,0.72
5119.00,0.72
5118.00,0.72
5117.00,0.72
5116.00,0.72
5115.00,0.72
5114.00,0.72
5113.00,0.72
5112.00,0.72
5111.00,0.72
5110.00,0.72
5109.00,0.72
5108.00,0.72
5107.00,0.72
5106.00,0.72
5105.00,0.72
5104.00,0.72
5103.00,0.72
5102.00,0.72
5101.00,0.72
5100.00,0.72
5099.00,0.72
5098.00,0.72
5097.00,0.73
5096.00,0.73
5095.00,0.73
5094.00,0.73
5093.00,0.73
5092.00,0.73
5091.00,0.73
5090.00,0.73
5089.00,0.73
5088.00,0.73
5087.00,0.73
5086.00,0.73
5085.00,0.73
5084.00,0.73
5083.00,0.73
5082.00,0.73
5081.00,0.73
5080.00,0.73
5079.00,0.73
5078.00,0.73
5077.00,0.73
5076.00,0.73
5075.00,0.73
5074.00,0.73
5073.00,0.73
5072.00,0.73
5071.00,0.73
5070.00,0.73
5069.00,0.73
5068.00,0.73
5067.00,0.73
5066.00,0.73
5065.00,0.74
5064.00,0.74
5063.00,0.74
5062.00,0.74
5061.00,0.74
5060.00,0.74
5059.00,0.74
5058.00,0.74
5057.00,0.74
5056.00,0.74
5055.00,0.74
5054.00,0.74
5053.00,0.74
5052.00,0.74
5051.00,0.74
5050.00,0.74
5049.00,0.74
5048.00,0.74
5047.00,0.75
5046.00,0.75
5045.00,0.75
5044.00,0.75
5043.00,0.75
5042.00,0.75
5041.00,0.75
5040.00,0.75
5039.00,0.75
5038.00,0.75
5037.00,0.75
5036.00,0.75
5035.00,0.75
5034.00,0.75
5033.00,0.75
5032.00,0.75
5031.00,0.75
5030.00,0.75
5029.00,0.75
5028.00,0.75
5027.00,0.75
5026.00,0.75
5025.00,0.75
5024.00,0.75
5023.00,0.75
5022.00,0.75
5021.00,0.75
5020.00,0.75
5019.00,0.75
5018.00,0.75
5017.00,0.75
5016.00,0.75
5015.00,0.75
5014.00,0.75
5013.00,0.75
5012.00,0.75
5011.00,0.76
5010.00,0.76
5009.00,0.76
5008.00,0.76
5007.00,0.76
5006.00,0.76
5005.00,0.76
5004.00,0.76
5003.00,0.76
5002.00,0.76
5001.00,0.76
5000.00,0.76
4999.00,0.76
4998.00,0.76
4997.00,0.76
4996.00,0.76
4995.00,0.76
4994.00,0.76
4993.00,0.76
4992.00,0.76
4991.00,0.76
4990.00,0.76
4989.00,0.76
4988.00,0.76
4987.00,0.76
4986.00,0.76
4985.00,0.76
4984.00,0.76
4983.00,0.76
4982.00,0.76
4981.00,0.76
4980.00,0.76
4979.00,0.76
4978.00,0.76
4977.00,0.76
4976.00,0.76
4975.00,0.76
4974.00,0.76
4973.00,0.76
4972.00,0.76
4971.00,0.76
4970.00,0.76
4969.00,0.76
4968.00,0.76
4967.00,0.77
4966.00,0.77
4965.00,0.77
4964.00,0.77
4963.00,0.77
4962.00,0.77
4961.00,0.77
4960.00,0.77
4959.00,0.77
4958.00,0.77
4957.00,0.77
4956.00,0.77
4955.00,0.77
4954.00,0.77
4953.00,0.77
4952.00,0.77
4951.00,0.77
4950.00,0.77
4949.00,0.77
4948.00,0.77
4947.00,0.77
4946.00,0.77
4945.00,0.77
4944.00,0.77
4943.00,0.77
4942.00,0.77
4941.00,0.77
4940.00,0.77
4939.00,0.77
4938.00,0.77
4937.00,0.77
4936.00,0.77
4935.00,0.77
4934.00,0.77
4933.00,0.78
4932.00,0.78
4931.00,0.78
4930.00,0.78
4929.00,0.78
4928.00,0.78
4927.00,0.78
4926.00,0.78
4925.00,0.78
4924.00,0.78
4923.00,0.78
4922.00,0.78
4921.00,0.78
4920.00,0.78
4919.00,0.78
4918.00,0.79
4917.00,0.79
4916.00,0.79
4915.00,0.79
4914.00,0.79
4913.00,0.79
4912.00,0.79
4911.00,0.79
4910.00,0.79
4909.00,0.79
4908.00,0.79
4907.00,0.79
4906.00,0.79
4905.00,0.79
4904.00,0.79
4903.00,0.79
4902.00,0.79
4901.00,0.79
4900.00,0.80
4899.00,0.80
4898.00,0.80
4897.00,0.80
4896.00,0.80
4895.00,0.80
4894.00,0.80
4893.00,0.80
4892.00,0.80
4891.00,0.80
4890.00,0.80
4889.00,0.80
4888.00,0.80
4887.00,0.80
4886.00,0.80
4885.00,0.80
4884.00,0.80
4883.00,0.80
4882.00,0.80
4881.00,0.80
4880.00,0.80
4879.00,0.80
4878.00,0.80
4877.00,0.80
4876.00,0.80
4875.00,0.80
4874.00,0.80
4873.00,0.80
4872.00,0.80
4871.00,0.80
4870.00,0.80
4869.00,0.80
4868.00,0.80
4867.00,0.81
4866.00,0.81
4865.00,0.81
4864.00,0.81
4863.00,0.81
4862.00,0.81
4861.00,0.81
4860.00,0.81
4859.00,0.81
4858.00,0.81
4857.00,0.81
4856.00,0.81
4855.00,0.81
4854.00,0.81
4853.00,0.81
4852.00,0.81
4851.00,0.81
4850.00,0.81
4849.00,0.81
4848.00,0.81
4847.00,0.81
4846.00,0.81
4845.00,0.81
4844.00,0.81
4843.00,0.81
4842.00,0.81
4841.00,0.81
4840.00,0.81
4839.00,0.81
4838.00,0.81
4837.00,0.81
4836.00,0.82
4835.00,0.82
4834.00,0.82
4833.00,0.82
4832.00,0.82
4831.00,0.82
4830.00,0.82
4829.00,0.82
4828.00,0.82
4827.00,0.83
4826.00,0.83
4825.00,0.83
4824.00,0.83
4823.00,0.83
4822.00,0.83
4821.00,0.83
4820.00,0.83
4819.00,0.83
4818.00,0.83
4817.00,0.83
4816.00,0.83
4815.00,0.83
4814.00,0.83
4813.00,0.83
4812.00,0.83
4811.00,0.83
4810.00,0.83
4809.00,0.83
4808.00,0.83
4807.00,0.83
4806.00,0.83
4805.00,0.83
4804.00,0.83
4803.00,0.83
4802.00,0.83
4801.00,0.83
4800.00,0.83
4799.00,0.83
4798.00,0.83
4797.00,0.83
4796.00,0.83
4795.00,0.83
4794.00,0.83
4793.00,0.83
4792.00,0.83
4791.00,0.83
4790.00,0.83
4789.00,0.84
4788.00,0.84
4787.00,0.84
4786.00,0.84
4785.00,0.84
4784.00,0.84
4783.00,0.84
4782.00,0.84
4781.00,0.84
4780.00,0.84
4779.00,0.85
4778.00,0.85
4777.00,0.85
4776.00,0.85
4775.00,0.85
4774.00,0.85
4773.00,0.85
4772.00,0.85
4771.00,0.85
4770.00,0.85
4769.00,0.85
4768.00,0.85
4767.00,0.85
4766.00,0.85
4765.00,0.85
4764.00,0.86
4763.00,0.86
4762.00,0.86
4761.00,0.86
4760.00,0.86
4759.00,0.86
4758.00,0.86
4757.00,0.86
4756.00,0.86
4755.00,0.86
4754.00,0.86
4753.00,0.86
4752.00,0.87
4751.00,0.87
4750.00,0.87
4749.00,0.87
4748.00,0.87
4747.00,0.87
4746.00,0.87
4745.00,0.87
4744.00,0.87
4743.00,0.87
4742.00,0.87
4741.00,0.87
4740.00,0.88
4739.00,0.88
4738.00,0.88
4737.00,0.88
4736.00,0.88
4735.00,0.88
4734.00,0.88
4733.00,0.88
4732.00,0.89
4731.00,0.89
4730.00,0.89
4729.00,0.89
4728.00,0.89
4727.00,0.89
4726.00,0.89
4725.00,0.89
4724.00,0.89
4723.00,0.89
4722.00,0.89
4721.00,0.89
4720.00,0.89
4719.00,0.89
4718.00,0.89
4717.00,0.89
4716.00,0.89
4715.00,0.89
4714.00,0.89
4713.00,0.89
4712.00,0.89
4711.00,0.89
4710.00,0.89
4709.00,0.89
4708.00,0.89
4707.00,0.89
4706.00,0.89
4705.00,0.90
4704.00,0.90
4703.00,0.90
4702.00,0.90
4701.00,0.90
4700.00,0.90
4699.00,0.90
4698.00,0.90
4697.00,0.90
4696.00,0.90
4695.00,0.90
4694.00,0.90
4693.00,0.91
4692.00,0.91
4691.00,0.91
4690.00,0.91
4689.00,0.91
4688.00,0.91
4687.00,0.91
4686.00,0.91
4685.00,0.91
4684.00,0.91
4683.00,0.91
4682.00,0.91
4681.00,0.91
4680.00,0.91
4679.00,0.91
4678.00,0.91
4677.00,0.91
4676.00,0.91
4675.00,0.91
4674.00,0.91
4673.00,0.91
4672.00,0.91
4671.00,0.91
4670.00,0.91
4669.00,0.91
4668.00,0.91
4667.00,0.91
4666.00,0.91
4665.00,0.91
4664.00,0.92
4663.00,0.92
4662.00,0.92
4661.00,0.92
4660.00,0.92
4659.00,0.92
4658.00,0.92
4657.00,0.92
4656.00,0.92
4655.00,0.92
4654.00,0.92
4653.00,0.92
4652.00,0.92
4651.00,0.92
4650.00,0.93
4649.00,0.93
4648.00,0.93
4647.00,0.93
4646.00,0.93
4645.00,0.93
4644.00,0.93
4643.00,0.93
4642.00,0.93
4641.00,0.94
4640.00,0.94
4639.00,0.94
4638.00,0.94
4637.00,0.94
4636.00,0.94
4635.00,0.94
4634.00,0.94
4633.00,0.95
4632.00,0.95
4631.00,0.95
4630.00,0.95
4629.00,0.95
4628.00,0.95
4627.00,0.95
4626.00,0.95
4625.00,0.96
4624.00,0.96
4623.00,0.96
4622.00,0.96
4621.00,0.96
4620.00,0.96
4619.00,0.96
4618.00,0.96
4617.00,0.96
4616.00,0.96
4615.00,0.96
4614.00,0.96
4613.00,0.96
4612.00,0.96
4611.00,0.96
4610.00,0.96
4609.00,0.96
4608.00,0.96
4607.00,0.96
4606.00,0.96
4605.00,0.96
4604.00,0.96
4603.00,0.96
4602.00,0.96
4601.00,0.96
4600.00,0.96
4599.00,0.96
4598.00,0.96
4597.00,0.96
4596.00,0.96
4595.00,0.96
4594.00,0.96
4593.00,0.96
4592.00,0.96
4591.00,0.96
4590.00,0.96
4589.00,0.96
4588.00,0.96
4587.00,0.96
4586.00,0.96
4585.00,0.96
4584.00,0.96
4583.00,0.97
4582.00,0.97
4581.00,0.97
4580.00,0.97
4579.00,0.97
4578.00,0.97
4577.00,0.97
4576.00,0.97
4575.00,0.97
4574.00,0.97
4573.00,0.97
4572.00,0.97
4571.00,0.97
4570.00,0.97
4569.00,0.97
4568.00,0.97
4567.00,0.97
4566.00,0.97
4565.00,0.97
4564.00,0.97
4563.00,0.97
4562.00,0.98
4561.00,0.98
4560.00,0.98
4559.00,0.98
4558.00,0.98
4557.00,0.98
4556.00,0.98
4555.00,0.98
4554.00,0.98
4553.00,0.99
4552.00,0.99
4551.00,0.99
4550.00,0.99
4549.00,0.99
4548.00,0.99
4547.00,0.99
4546.00,0.99
4545.00,0.99
4544.00,0.99
4543.00,0.99
4542.00,0.99
4541.00,0.99
4540.00,0.99
4539.00,0.99
4538.00,0.99
4537.00,0.99
4536.00,0.99
4535.00,0.99
4534.00,0.99
4533.00,0.99
4532.00,0.99
4531.00,0.99
4530.00,0.99
4529.00,0.99
4528.00,0.99
4527.00,0.99
4526.00,0.99
4525.00,0.99
4524.00,0.99
4523.00,0.99
4522.00,0.99
4521.00,0.99
4520.00,0.99
4519.00,0.99
4518.00,1.00
4517.00,1.00
4516.00,1.00
4515.00,1.00
4514.00,1.00
4513.00,1.00
4512.00,1.00
4511.00,1.00
4510.00,1.00
4509.00,1.00
4508.00,1.00
4507.00,1.00
4506.00,1.00
4505.00,1.00
4504.00,1.00
4503.00,1.00
4502.00,0.99
4501.00,0.99
4500.00,0.99
4499.00,0.99
4498.00,0.99
4497.00,0.99
4496.00,0.99
4495.00,0.99
4494.00,0.99
4493.00,0.99
4492.00,0.99
4491.00,0.99
4490.00,0.99
4489.00,0.99
4488.00,0.99
4487.00,0.99
4486.00,0.99
4485.00,0.99
4484.00,0.99
4483.00,0.99
4482.00,0.99
4481.00,0.99
4480.00,0.99
4479.00,0.99
4478.00,0.99
4477.00,0.99
4476.00,0.99
4475.00,0.99
4474.00,0.99
4473.00,0.99
4472.00,0.99
4471.00,0.99
4470.00,0.99
4469.00,0.99
4468.00,0.99
4467.00,0.99
4466.00,0.99
4465.00,0.99
4464.00,0.99
4463.00,0.99
4462.00,0.99
4461.00,0.99
4460.00,0.98
4459.00,0.98
4458.00,0.98
4457.00,0.98
4456.00,0.98
4455.00,0.98
4454.00,0.98
4453.00,0.98
4452.00,0.98
4451.00,0.98
4450.00,0.97
4449.00,0.97
4448.00,0.97
4447.00,0.97
4446.00,0.97
4445.00,0.97
4444.00,0.97
4443.00,0.97
4442.00,0.97
4441.00,0.97
4440.00,0.97
4439.00,0.97
4438.00,0.97
4437.00,0.96
4436.00,0.96
4435.00,0.96
4434.00,0.96
4433.00,0.96
4432.00,0.96
4431.00,0.96
4430.00,0.96
4429.00,0.96
4428.00,0.96
4427.00,0.96
4426.00,0.96
4425.00,0.96
4424.00,0.96
4423.00,0.96
4422.00,0.96
4421.00,0.96
4420.00,0.96
4419.00,0.96
4418.00,0.96
4417.00,0.96
4416.00,0.96
4415.00,0.96
4414.00,0.96
4413.00,0.96
4412.00,0.96
4411.00,0.96
4410.00,0.96
4409.00,0.96
4408.00,0.96
4407.00,0.96
4406.00,0.96
4405.00,0.96
4404.00,0.96
4403.00,0.96
4402.00,0.97
4401.00,0.97
4400.00,0.97
4399.00,0.97
4398.00,0.97
4397.00,0.97
4396.00,0.97
4395.00,0.97
4394.00,0.97
4393.00,0.97
4392.00,0.98
4391.00,0.98
4390.00,0.98
4389.00,0.98
4388.00,0.98
4387.00,0.98
4386.00,0.98
4385.00,0.98
4384.00,0.99
4383.00,0.99
4382.00,0.99
4381.00,0.99
4380.00,0.99
4379.00,0.99
4378.00,0.99
4377.00,0.99
4376.00,0.99
4375.00,0.99
4374.00,0.99
4373.00,0.99
4372.00,0.99
4371.00,0.99
4370.00,0.99
4369.00,0.99
4368.00,0.99
4367.00,0.99
4366.00,0.99
4365.00,0.98
4364.00,0.98
4363.00,0.98
4362.00,0.98
4361.00,0.98
4360.00,0.98
4359.00,0.98
4358.00,0.98
4357.00,0.98
4356.00,0.98
4355.00,0.98
4354.00,0.98
4353.00,0.98
4352.00,0.97
4351.00,0.97
4350.00,0.97
4349.00,0.97
4348.00,0.97
4347.00,0.97
4346.00,0.97
4345.00,0.97
4344.00,0.97
4343.00,0.97
4342.00,0.97
4341.00,0.97
4340.00,0.97
4339.00,0.98
4338.00,0.98
4337.00,0.98
4336.00,0.98
4335.00,0.98
4334.00,0.98
4333.00,0.98
4332.00,0.98
4331.00,0.98
4330.00,0.98
4329.00,0.98
4328.00,0.98
4327.00,0.98
4326.00,0.98
4325.00,0.98
4324.00,0.98
4323.00,0.98
4322.00,0.98
4321.00,0.98
4320.00,0.98
4319.00,0.98
4318.00,0.99
4317.00,0.99
4316.00,0.99
4315.00,0.99
4314.00,0.99
4313.00,0.99
4312.00,0.99
4311.00,0.99
4310.00,0.99
4309.00,0.99
4308.00,0.99
4307.00,1.00
4306.00,1.00
4305.00,1.00
4304.00,1.00
4303.00,1.00
4302.00,1.00
4301.00,1.00
4300.00,1.00
4299.00,1.00
4298.00,1.00
4297.00,1.00
4296.00,1.00
4295.00,1.00
4294.00,1.00
4293.00,1.00
4292.00,1.00
4291.00,1.00
4290.00,1.00
4289.00,1.00
4288.00,1.00
4287.00,1.00
4286.00,1.00
4285.00,1.00
4284.00,1.00
4283.00,1.01
4282.00,1.01
4281.00,1.01
4280.00,1.01
4279.00,1.01
4278.00,1.01
4277.00,1.01
4276.00,1.01
4275.00,1.02
4274.00,1.02
4273.00,1.02
4272.00,1.02
4271.00,1.02
4270.00,1.02
4269.00,1.02
4268.00,1.03
4267.00,1.03
4266.00,1.03
4265.00,1.03
4264.00,1.03
4263.00,1.03
4262.00,1.03
4261.00,1.03
4260.00,1.03
4259.00,1.03
4258.00,1.03
4257.00,1.02
4256.00,1.02
4255.00,1.02
4254.00,1.02
4253.00,1.02
4252.00,1.02
4251.00,1.02
4250.00,1.01
4249.00,1.01
4248.00,1.01
4247.00,1.01
4246.00,1.01
4245.00,1.01
4244.00,1.01
4243.00,1.01
4242.00,1.01
4241.00,1.01
4240.00,1.01
4239.00,1.02
4238.00,1.02
4237.00,1.02
4236.00,1.02
4235.00,1.02
4234.00,1.02
4233.00,1.02
4232.00,1.02
4231.00,1.02
4230.00,1.03
4229.00,1.03
4228.00,1.03
4227.00,1.03
4226.00,1.03
4225.00,1.03
4224.00,1.03
4223.00,1.03
4222.00,1.03
4221.00,1.03
4220.00,1.03
4219.00,1.03
4218.00,1.04
4217.00,1.04
4216.00,1.04
4215.00,1.04
4214.00,1.04
4213.00,1.04
4212.00,1.04
4211.00,1.04
4210.00,1.04
4209.00,1.04
4208.00,1.04
4207.00,1.04
4206.00,1.04
4205.00,1.04
4204.00,1.04
4203.00,1.05
4202.00,1.05
4201.00,1.05
4200.00,1.05
4199.00,1.05
4198.00,1.05
4197.00,1.05
4196.00,1.05
4195.00,1.04
4194.00,1.04
4193.00,1.04
4192.00,1.04
4191.00,1.04
4190.00,1.04
4189.00,1.04
4188.00,1.04
4187.00,1.04
4186.00,1.04
4185.00,1.04
4184.00,1.04
4183.00,1.04
4182.00,1.05
4181.00,1.05
4180.00,1.05
4179.00,1.05
4178.00,1.05
4177.00,1.05
4176.00,1.05
4175.00,1.05
4174.00,1.05
4173.00,1.05
4172.00,1.05
4171.00,1.05
4170.00,1.05
4169.00,1.05
4168.00,1.05
4167.00,1.05
4166.00,1.05
4165.00,1.05
4164.00,1.05
4163.00,1.05
4162.00,1.05
4161.00,1.06
4160.00,1.06
4159.00,1.06
4158.00,1.06
4157.00,1.06
4156.00,1.06
4155.00,1.06
4154.00,1.06
4153.00,1.06
4152.00,1.06
4151.00,1.06
4150.00,1.06
4149.00,1.06
4148.00,1.06
4147.00,1.06
4146.00,1.06
4145.00,1.06
4144.00,1.06
4143.00,1.06
4142.00,1.06
4141.00,1.06
4140.00,1.05
4139.00,1.05
4138.00,1.05
4137.00,1.05
4136.00,1.05
4135.00,1.06
4134.00,1.06
4133.00,1.06
4132.00,1.06
4131.00,1.06
4130.00,1.06
4129.00,1.06
4128.00,1.06
4127.00,1.06
4126.00,1.06
4125.00,1.06
4124.00,1.06
4123.00,1.06
4122.00,1.06
4121.00,1.07
4120.00,1.07
4119.00,1.07
4118.00,1.07
4117.00,1.07
4116.00,1.07
4115.00,1.07
4114.00,1.07
4113.00,1.07
4112.00,1.07
4111.00,1.07
4110.00,1.07
4109.00,1.07
4108.00,1.07
4107.00,1.07
4106.00,1.07
4105.00,1.07
4104.00,1.07
4103.00,1.07
4102.00,1.07
4101.00,1.07
4100.00,1.07
4099.00,1.07
4098.00,1.07
4097.00,1.07
4096.00,1.07
4095.00,1.07
4094.00,1.07
4093.00,1.07
4092.00,1.07
4091.00,1.07
4090.00,1.07
4089.00,1.07
4088.00,1.07
4087.00,1.07
4086.00,1.07
4085.00,1.07
4084.00,1.07
4083.00,1.07
4082.00,1.08
4081.00,1.08
4080.00,1.08
4079.00,1.08
4078.00,1.08
4077.00,1.08
4076.00,1.08
4075.00,1.09
4074.00,1.09
4073.00,1.09
4072.00,1.09
4071.00,1.09
4070.00,1.09
4069.00,1.09
4068.00,1.09
4067.00,1.09
4066.00,1.09
4065.00,1.09
4064.00,1.09
4063.00,1.10
4062.00,1.10
4061.00,1.10
4060.00,1.10
4059.00,1.10
4058.00,1.10
4057.00,1.10
4056.00,1.10
4055.00,1.10
4054.00,1.10
4053.00,1.10
4052.00,1.10
4051.00,1.10
4050.00,1.10
4049.00,1.10
4048.00,1.10
4047.00,1.10
4046.00,1.10
4045.00,1.09
4044.00,1.09
4043.00,1.09
4042.00,1.09
4041.00,1.09
4040.00,1.09
4039.00,1.09
4038.00,1.09
4037.00,1.09
4036.00,1.08
4035.00,1.08
4034.00,1.08
4033.00,1.08
4032.00,1.08
4031.00,1.08
4030.00,1.08
4029.00,1.08
4028.00,1.08
4027.00,1.08
4026.00,1.08
4025.00,1.08
4024.00,1.07
4023.00,1.07
4022.00,1.07
4021.00,1.08
4020.00,1.08
4019.00,1.08
4018.00,1.08
4017.00,1.08
4016.00,1.08
4015.00,1.08
4014.00,1.08
4013.00,1.08
4012.00,1.09
4011.00,1.09
4010.00,1.09
4009.00,1.09
4008.00,1.09
4007.00,1.10
4006.00,1.10
4005.00,1.10
4004.00,1.10
4003.00,1.11
4002.00,1.11
4001.00,1.11
4000.00,1.11
