创建为新数据集,样品 091 用户 Administrator 日期 星期六, 七月 21 2018
cm-1,%T
10000.00,1.37
9999.00,1.37
9998.00,1.37
9997.00,1.37
9996.00,1.37
9995.00,1.36
9994.00,1.36
9993.00,1.36
9992.00,1.36
9991.00,1.36
9990.00,1.35
9989.00,1.35
9988.00,1.35
9987.00,1.35
9986.00,1.35
9985.00,1.34
9984.00,1.34
9983.00,1.34
9982.00,1.34
9981.00,1.34
9980.00,1.34
9979.00,1.34
9978.00,1.33
9977.00,1.33
9976.00,1.33
9975.00,1.33
9974.00,1.33
9973.00,1.33
9972.00,1.33
9971.00,1.33
9970.00,1.33
9969.00,1.33
9968.00,1.33
9967.00,1.33
9966.00,1.33
9965.00,1.33
9964.00,1.33
9963.00,1.33
9962.00,1.33
9961.00,1.33
9960.00,1.33
9959.00,1.33
9958.00,1.33
9957.00,1.33
9956.00,1.33
9955.00,1.33
9954.00,1.33
9953.00,1.32
9952.00,1.32
9951.00,1.32
9950.00,1.32
9949.00,1.32
9948.00,1.32
9947.00,1.32
9946.00,1.32
9945.00,1.31
9944.00,1.31
9943.00,1.31
9942.00,1.31
9941.00,1.31
9940.00,1.31
9939.00,1.31
9938.00,1.31
9937.00,1.31
9936.00,1.31
9935.00,1.31
9934.00,1.31
9933.00,1.31
9932.00,1.31
9931.00,1.31
9930.00,1.31
9929.00,1.31
9928.00,1.31
9927.00,1.32
9926.00,1.32
9925.00,1.32
9924.00,1.32
9923.00,1.32
9922.00,1.32
9921.00,1.32
9920.00,1.32
9919.00,1.32
9918.00,1.32
9917.00,1.32
9916.00,1.32
9915.00,1.32
9914.00,1.32
9913.00,1.32
9912.00,1.32
9911.00,1.32
9910.00,1.32
9909.00,1.32
9908.00,1.32
9907.00,1.32
9906.00,1.32
9905.00,1.32
9904.00,1.32
9903.00,1.31
9902.00,1.31
9901.00,1.31
9900.00,1.32
9899.00,1.32
9898.00,1.32
9897.00,1.32
9896.00,1.32
9895.00,1.32
9894.00,1.33
9893.00,1.33
9892.00,1.33
9891.00,1.33
9890.00,1.34
9889.00,1.34
9888.00,1.34
9887.00,1.35
9886.00,1.35
9885.00,1.35
9884.00,1.36
9883.00,1.36
9882.00,1.36
9881.00,1.36
9880.00,1.37
9879.00,1.37
9878.00,1.37
9877.00,1.37
9876.00,1.37
9875.00,1.37
9874.00,1.37
9873.00,1.37
9872.00,1.36
9871.00,1.36
9870.00,1.36
9869.00,1.36
9868.00,1.35
9867.00,1.35
9866.00,1.35
9865.00,1.34
9864.00,1.34
9863.00,1.34
9862.00,1.33
9861.00,1.33
9860.00,1.32
9859.00,1.32
9858.00,1.32
9857.00,1.32
9856.00,1.31
9855.00,1.31
9854.00,1.31
9853.00,1.31
9852.00,1.31
9851.00,1.31
9850.00,1.31
9849.00,1.31
9848.00,1.31
9847.00,1.31
9846.00,1.31
9845.00,1.31
9844.00,1.31
9843.00,1.31
9842.00,1.31
9841.00,1.30
9840.00,1.30
9839.00,1.30
9838.00,1.30
9837.00,1.30
9836.00,1.30
9835.00,1.30
9834.00,1.30
9833.00,1.30
9832.00,1.30
9831.00,1.30
9830.00,1.30
9829.00,1.30
9828.00,1.30
9827.00,1.31
9826.00,1.31
9825.00,1.31
9824.00,1.31
9823.00,1.31
9822.00,1.32
9821.00,1.32
9820.00,1.32
9819.00,1.32
9818.00,1.33
9817.00,1.33
9816.00,1.33
9815.00,1.33
9814.00,1.33
9813.00,1.34
9812.00,1.34
9811.00,1.34
9810.00,1.34
9809.00,1.34
9808.00,1.34
9807.00,1.35
9806.00,1.35
9805.00,1.35
9804.00,1.35
9803.00,1.35
9802.00,1.35
9801.00,1.35
9800.00,1.36
9799.00,1.36
9798.00,1.36
9797.00,1.36
9796.00,1.36
9795.00,1.36
9794.00,1.36
9793.00,1.36
9792.00,1.36
9791.00,1.36
9790.00,1.36
9789.00,1.36
9788.00,1.36
9787.00,1.35
9786.00,1.35
9785.00,1.35
9784.00,1.35
9783.00,1.35
9782.00,1.35
9781.00,1.35
9780.00,1.35
9779.00,1.35
9778.00,1.35
9777.00,1.35
9776.00,1.35
9775.00,1.35
9774.00,1.35
9773.00,1.35
9772.00,1.35
9771.00,1.35
9770.00,1.34
9769.00,1.34
9768.00,1.34
9767.00,1.34
9766.00,1.34
9765.00,1.33
9764.00,1.33
9763.00,1.33
9762.00,1.33
9761.00,1.33
9760.00,1.33
9759.00,1.32
9758.00,1.32
9757.00,1.32
9756.00,1.32
9755.00,1.32
9754.00,1.32
9753.00,1.32
9752.00,1.32
9751.00,1.32
9750.00,1.32
9749.00,1.32
9748.00,1.32
9747.00,1.31
9746.00,1.31
9745.00,1.31
9744.00,1.31
9743.00,1.31
9742.00,1.31
9741.00,1.31
9740.00,1.31
9739.00,1.31
9738.00,1.31
9737.00,1.31
9736.00,1.31
9735.00,1.31
9734.00,1.31
9733.00,1.31
9732.00,1.31
9731.00,1.31
9730.00,1.31
9729.00,1.31
9728.00,1.31
9727.00,1.31
9726.00,1.31
9725.00,1.31
9724.00,1.31
9723.00,1.31
9722.00,1.31
9721.00,1.31
9720.00,1.31
9719.00,1.31
9718.00,1.31
9717.00,1.32
9716.00,1.32
9715.00,1.32
9714.00,1.32
9713.00,1.32
9712.00,1.32
9711.00,1.33
9710.00,1.33
9709.00,1.33
9708.00,1.33
9707.00,1.33
9706.00,1.33
9705.00,1.33
9704.00,1.34
9703.00,1.34
9702.00,1.34
9701.00,1.34
9700.00,1.33
9699.00,1.33
9698.00,1.33
9697.00,1.33
9696.00,1.33
9695.00,1.33
9694.00,1.33
9693.00,1.33
9692.00,1.33
9691.00,1.33
9690.00,1.33
9689.00,1.33
9688.00,1.33
9687.00,1.33
9686.00,1.33
9685.00,1.34
9684.00,1.34
9683.00,1.34
9682.00,1.34
9681.00,1.34
9680.00,1.34
9679.00,1.34
9678.00,1.34
9677.00,1.34
9676.00,1.34
9675.00,1.33
9674.00,1.33
9673.00,1.33
9672.00,1.33
9671.00,1.32
9670.00,1.32
9669.00,1.32
9668.00,1.31
9667.00,1.31
9666.00,1.31
9665.00,1.31
9664.00,1.30
9663.00,1.30
9662.00,1.30
9661.00,1.30
9660.00,1.31
9659.00,1.31
9658.00,1.31
9657.00,1.31
9656.00,1.31
9655.00,1.31
9654.00,1.32
9653.00,1.32
9652.00,1.32
9651.00,1.32
9650.00,1.32
9649.00,1.32
9648.00,1.32
9647.00,1.33
9646.00,1.33
9645.00,1.33
9644.00,1.33
9643.00,1.33
9642.00,1.33
9641.00,1.33
9640.00,1.33
9639.00,1.34
9638.00,1.34
9637.00,1.34
9636.00,1.34
9635.00,1.34
9634.00,1.35
9633.00,1.35
9632.00,1.35
9631.00,1.35
9630.00,1.35
9629.00,1.35
9628.00,1.35
9627.00,1.35
9626.00,1.35
9625.00,1.35
9624.00,1.35
9623.00,1.34
9622.00,1.34
9621.00,1.34
9620.00,1.33
9619.00,1.33
9618.00,1.33
9617.00,1.33
9616.00,1.32
9615.00,1.32
9614.00,1.32
9613.00,1.32
9612.00,1.32
9611.00,1.31
9610.00,1.31
9609.00,1.31
9608.00,1.31
9607.00,1.31
9606.00,1.31
9605.00,1.31
9604.00,1.31
9603.00,1.31
9602.00,1.31
9601.00,1.31
9600.00,1.31
9599.00,1.31
9598.00,1.31
9597.00,1.31
9596.00,1.31
9595.00,1.32
9594.00,1.32
9593.00,1.32
9592.00,1.32
9591.00,1.32
9590.00,1.32
9589.00,1.32
9588.00,1.32
9587.00,1.32
9586.00,1.32
9585.00,1.32
9584.00,1.32
9583.00,1.32
9582.00,1.32
9581.00,1.32
9580.00,1.32
9579.00,1.31
9578.00,1.31
9577.00,1.31
9576.00,1.31
9575.00,1.30
9574.00,1.30
9573.00,1.30
9572.00,1.30
9571.00,1.30
9570.00,1.30
9569.00,1.29
9568.00,1.29
9567.00,1.30
9566.00,1.30
9565.00,1.30
9564.00,1.30
9563.00,1.30
9562.00,1.30
9561.00,1.31
9560.00,1.31
9559.00,1.31
9558.00,1.31
9557.00,1.32
9556.00,1.32
9555.00,1.32
9554.00,1.32
9553.00,1.32
9552.00,1.32
9551.00,1.33
9550.00,1.33
9549.00,1.33
9548.00,1.33
9547.00,1.33
9546.00,1.33
9545.00,1.33
9544.00,1.33
9543.00,1.33
9542.00,1.33
9541.00,1.33
9540.00,1.33
9539.00,1.34
9538.00,1.34
9537.00,1.34
9536.00,1.34
9535.00,1.34
9534.00,1.34
9533.00,1.34
9532.00,1.34
9531.00,1.35
9530.00,1.35
9529.00,1.34
9528.00,1.34
9527.00,1.34
9526.00,1.34
9525.00,1.34
9524.00,1.34
9523.00,1.34
9522.00,1.34
9521.00,1.33
9520.00,1.33
9519.00,1.33
9518.00,1.33
9517.00,1.33
9516.00,1.33
9515.00,1.33
9514.00,1.33
9513.00,1.32
9512.00,1.32
9511.00,1.32
9510.00,1.32
9509.00,1.32
9508.00,1.33
9507.00,1.33
9506.00,1.33
9505.00,1.33
9504.00,1.33
9503.00,1.33
9502.00,1.34
9501.00,1.34
9500.00,1.34
9499.00,1.34
9498.00,1.35
9497.00,1.35
9496.00,1.35
9495.00,1.36
9494.00,1.36
9493.00,1.36
9492.00,1.36
9491.00,1.37
9490.00,1.37
9489.00,1.37
9488.00,1.37
9487.00,1.37
9486.00,1.37
9485.00,1.37
9484.00,1.36
9483.00,1.36
9482.00,1.36
9481.00,1.36
9480.00,1.35
9479.00,1.35
9478.00,1.35
9477.00,1.34
9476.00,1.34
9475.00,1.34
9474.00,1.33
9473.00,1.33
9472.00,1.33
9471.00,1.33
9470.00,1.33
9469.00,1.32
9468.00,1.32
9467.00,1.32
9466.00,1.32
9465.00,1.32
9464.00,1.32
9463.00,1.32
9462.00,1.32
9461.00,1.32
9460.00,1.32
9459.00,1.32
9458.00,1.33
9457.00,1.33
9456.00,1.33
9455.00,1.33
9454.00,1.33
9453.00,1.33
9452.00,1.33
9451.00,1.33
9450.00,1.33
9449.00,1.33
9448.00,1.33
9447.00,1.33
9446.00,1.32
9445.00,1.32
9444.00,1.32
9443.00,1.32
9442.00,1.32
9441.00,1.32
9440.00,1.32
9439.00,1.32
9438.00,1.32
9437.00,1.32
9436.00,1.32
9435.00,1.32
9434.00,1.32
9433.00,1.32
9432.00,1.33
9431.00,1.33
9430.00,1.33
9429.00,1.33
9428.00,1.33
9427.00,1.34
9426.00,1.34
9425.00,1.34
9424.00,1.34
9423.00,1.34
9422.00,1.34
9421.00,1.34
9420.00,1.34
9419.00,1.34
9418.00,1.34
9417.00,1.34
9416.00,1.33
9415.00,1.33
9414.00,1.33
9413.00,1.33
9412.00,1.32
9411.00,1.32
9410.00,1.32
9409.00,1.31
9408.00,1.31
9407.00,1.31
9406.00,1.31
9405.00,1.31
9404.00,1.31
9403.00,1.31
9402.00,1.31
9401.00,1.31
9400.00,1.31
9399.00,1.31
9398.00,1.31
9397.00,1.31
9396.00,1.32
9395.00,1.32
9394.00,1.32
9393.00,1.32
9392.00,1.32
9391.00,1.32
9390.00,1.32
9389.00,1.32
9388.00,1.32
9387.00,1.32
9386.00,1.32
9385.00,1.32
9384.00,1.32
9383.00,1.32
9382.00,1.32
9381.00,1.32
9380.00,1.32
9379.00,1.33
9378.00,1.33
9377.00,1.33
9376.00,1.33
9375.00,1.33
9374.00,1.33
9373.00,1.33
9372.00,1.33
9371.00,1.33
9370.00,1.33
9369.00,1.33
9368.00,1.33
9367.00,1.33
9366.00,1.33
9365.00,1.33
9364.00,1.33
9363.00,1.33
9362.00,1.33
9361.00,1.33
9360.00,1.33
9359.00,1.33
9358.00,1.33
9357.00,1.33
9356.00,1.33
9355.00,1.33
9354.00,1.33
9353.00,1.33
9352.00,1.33
9351.00,1.33
9350.00,1.34
9349.00,1.34
9348.00,1.34
9347.00,1.34
9346.00,1.35
9345.00,1.35
9344.00,1.35
9343.00,1.35
9342.00,1.36
9341.00,1.36
9340.00,1.36
9339.00,1.36
9338.00,1.36
9337.00,1.36
9336.00,1.36
9335.00,1.36
9334.00,1.36
9333.00,1.36
9332.00,1.36
9331.00,1.35
9330.00,1.35
9329.00,1.35
9328.00,1.35
9327.00,1.35
9326.00,1.34
9325.00,1.34
9324.00,1.34
9323.00,1.34
9322.00,1.34
9321.00,1.34
9320.00,1.34
9319.00,1.34
9318.00,1.34
9317.00,1.34
9316.00,1.34
9315.00,1.34
9314.00,1.34
9313.00,1.34
9312.00,1.34
9311.00,1.34
9310.00,1.34
9309.00,1.34
9308.00,1.34
9307.00,1.34
9306.00,1.34
9305.00,1.34
9304.00,1.34
9303.00,1.34
9302.00,1.34
9301.00,1.34
9300.00,1.34
9299.00,1.34
9298.00,1.34
9297.00,1.34
9296.00,1.34
9295.00,1.35
9294.00,1.35
9293.00,1.35
9292.00,1.35
9291.00,1.35
9290.00,1.35
9289.00,1.35
9288.00,1.35
9287.00,1.35
9286.00,1.35
9285.00,1.36
9284.00,1.36
9283.00,1.36
9282.00,1.36
9281.00,1.36
9280.00,1.36
9279.00,1.36
9278.00,1.36
9277.00,1.36
9276.00,1.36
9275.00,1.36
9274.00,1.36
9273.00,1.36
9272.00,1.36
9271.00,1.36
9270.00,1.35
9269.00,1.35
9268.00,1.35
9267.00,1.35
9266.00,1.35
9265.00,1.35
9264.00,1.35
9263.00,1.35
9262.00,1.35
9261.00,1.35
9260.00,1.35
9259.00,1.35
9258.00,1.35
9257.00,1.35
9256.00,1.35
9255.00,1.35
9254.00,1.35
9253.00,1.35
9252.00,1.35
9251.00,1.35
9250.00,1.35
9249.00,1.35
9248.00,1.35
9247.00,1.35
9246.00,1.35
9245.00,1.35
9244.00,1.35
9243.00,1.35
9242.00,1.35
9241.00,1.35
9240.00,1.36
9239.00,1.36
9238.00,1.36
9237.00,1.36
9236.00,1.36
9235.00,1.36
9234.00,1.36
9233.00,1.36
9232.00,1.36
9231.00,1.36
9230.00,1.36
9229.00,1.36
9228.00,1.36
9227.00,1.35
9226.00,1.35
9225.00,1.35
9224.00,1.35
9223.00,1.34
9222.00,1.34
9221.00,1.34
9220.00,1.33
9219.00,1.33
9218.00,1.33
9217.00,1.33
9216.00,1.32
9215.00,1.32
9214.00,1.32
9213.00,1.32
9212.00,1.32
9211.00,1.31
9210.00,1.31
9209.00,1.31
9208.00,1.31
9207.00,1.31
9206.00,1.31
9205.00,1.31
9204.00,1.32
9203.00,1.32
9202.00,1.32
9201.00,1.32
9200.00,1.32
9199.00,1.32
9198.00,1.32
9197.00,1.32
9196.00,1.32
9195.00,1.32
9194.00,1.32
9193.00,1.32
9192.00,1.33
9191.00,1.33
9190.00,1.33
9189.00,1.33
9188.00,1.33
9187.00,1.33
9186.00,1.33
9185.00,1.33
9184.00,1.33
9183.00,1.33
9182.00,1.33
9181.00,1.33
9180.00,1.34
9179.00,1.34
9178.00,1.34
9177.00,1.34
9176.00,1.34
9175.00,1.34
9174.00,1.34
9173.00,1.34
9172.00,1.34
9171.00,1.34
9170.00,1.34
9169.00,1.34
9168.00,1.34
9167.00,1.34
9166.00,1.34
9165.00,1.34
9164.00,1.34
9163.00,1.34
9162.00,1.34
9161.00,1.34
9160.00,1.34
9159.00,1.34
9158.00,1.34
9157.00,1.34
9156.00,1.34
9155.00,1.34
9154.00,1.34
9153.00,1.34
9152.00,1.34
9151.00,1.34
9150.00,1.35
9149.00,1.35
9148.00,1.35
9147.00,1.35
9146.00,1.35
9145.00,1.36
9144.00,1.36
9143.00,1.36
9142.00,1.36
9141.00,1.36
9140.00,1.36
9139.00,1.37
9138.00,1.37
9137.00,1.37
9136.00,1.37
9135.00,1.37
9134.00,1.37
9133.00,1.37
9132.00,1.37
9131.00,1.37
9130.00,1.37
9129.00,1.37
9128.00,1.36
9127.00,1.36
9126.00,1.36
9125.00,1.36
9124.00,1.36
9123.00,1.35
9122.00,1.35
9121.00,1.35
9120.00,1.35
9119.00,1.34
9118.00,1.34
9117.00,1.34
9116.00,1.34
9115.00,1.33
9114.00,1.33
9113.00,1.33
9112.00,1.33
9111.00,1.33
9110.00,1.33
9109.00,1.33
9108.00,1.33
9107.00,1.33
9106.00,1.33
9105.00,1.33
9104.00,1.33
9103.00,1.34
9102.00,1.34
9101.00,1.34
9100.00,1.34
9099.00,1.35
9098.00,1.35
9097.00,1.35
9096.00,1.35
9095.00,1.35
9094.00,1.35
9093.00,1.36
9092.00,1.36
9091.00,1.36
9090.00,1.36
9089.00,1.36
9088.00,1.36
9087.00,1.36
9086.00,1.36
9085.00,1.36
9084.00,1.36
9083.00,1.36
9082.00,1.36
9081.00,1.36
9080.00,1.36
9079.00,1.36
9078.00,1.36
9077.00,1.36
9076.00,1.36
9075.00,1.36
9074.00,1.36
9073.00,1.35
9072.00,1.35
9071.00,1.35
9070.00,1.35
9069.00,1.35
9068.00,1.35
9067.00,1.35
9066.00,1.35
9065.00,1.35
9064.00,1.35
9063.00,1.34
9062.00,1.34
9061.00,1.34
9060.00,1.34
9059.00,1.34
9058.00,1.34
9057.00,1.33
9056.00,1.33
9055.00,1.33
9054.00,1.33
9053.00,1.32
9052.00,1.32
9051.00,1.32
9050.00,1.32
9049.00,1.32
9048.00,1.31
9047.00,1.31
9046.00,1.31
9045.00,1.31
9044.00,1.31
9043.00,1.31
9042.00,1.31
9041.00,1.32
9040.00,1.32
9039.00,1.32
9038.00,1.32
9037.00,1.32
9036.00,1.32
9035.00,1.32
9034.00,1.33
9033.00,1.33
9032.00,1.33
9031.00,1.33
9030.00,1.33
9029.00,1.34
9028.00,1.34
9027.00,1.34
9026.00,1.34
9025.00,1.34
9024.00,1.34
9023.00,1.35
9022.00,1.35
9021.00,1.35
9020.00,1.35
9019.00,1.35
9018.00,1.35
9017.00,1.35
9016.00,1.35
9015.00,1.35
9014.00,1.35
9013.00,1.35
9012.00,1.35
9011.00,1.35
9010.00,1.35
9009.00,1.35
9008.00,1.35
9007.00,1.35
9006.00,1.35
9005.00,1.34
9004.00,1.34
9003.00,1.34
9002.00,1.34
9001.00,1.34
9000.00,1.33
8999.00,1.33
8998.00,1.33
8997.00,1.33
8996.00,1.33
8995.00,1.33
8994.00,1.33
8993.00,1.32
8992.00,1.32
8991.00,1.32
8990.00,1.32
8989.00,1.32
8988.00,1.32
8987.00,1.32
8986.00,1.32
8985.00,1.32
8984.00,1.33
8983.00,1.33
8982.00,1.33
8981.00,1.33
8980.00,1.33
8979.00,1.33
8978.00,1.33
8977.00,1.33
8976.00,1.33
8975.00,1.33
8974.00,1.33
8973.00,1.33
8972.00,1.33
8971.00,1.34
8970.00,1.34
8969.00,1.34
8968.00,1.34
8967.00,1.34
8966.00,1.34
8965.00,1.34
8964.00,1.34
8963.00,1.34
8962.00,1.35
8961.00,1.35
8960.00,1.35
8959.00,1.35
8958.00,1.35
8957.00,1.35
8956.00,1.35
8955.00,1.36
8954.00,1.36
8953.00,1.36
8952.00,1.36
8951.00,1.36
8950.00,1.36
8949.00,1.36
8948.00,1.35
8947.00,1.35
8946.00,1.35
8945.00,1.35
8944.00,1.35
8943.00,1.35
8942.00,1.35
8941.00,1.34
8940.00,1.34
8939.00,1.34
8938.00,1.34
8937.00,1.34
8936.00,1.34
8935.00,1.34
8934.00,1.34
8933.00,1.34
8932.00,1.33
8931.00,1.33
8930.00,1.33
8929.00,1.33
8928.00,1.33
8927.00,1.33
8926.00,1.33
8925.00,1.33
8924.00,1.33
8923.00,1.33
8922.00,1.33
8921.00,1.33
8920.00,1.34
8919.00,1.34
8918.00,1.34
8917.00,1.34
8916.00,1.34
8915.00,1.34
8914.00,1.34
8913.00,1.34
8912.00,1.34
8911.00,1.33
8910.00,1.33
8909.00,1.33
8908.00,1.33
8907.00,1.33
8906.00,1.33
8905.00,1.33
8904.00,1.33
8903.00,1.33
8902.00,1.33
8901.00,1.33
8900.00,1.33
8899.00,1.33
8898.00,1.33
8897.00,1.33
8896.00,1.33
8895.00,1.34
8894.00,1.34
8893.00,1.34
8892.00,1.34
8891.00,1.34
8890.00,1.34
8889.00,1.35
8888.00,1.35
8887.00,1.35
8886.00,1.35
8885.00,1.35
8884.00,1.35
8883.00,1.35
8882.00,1.35
8881.00,1.35
8880.00,1.36
8879.00,1.36
8878.00,1.36
8877.00,1.36
8876.00,1.36
8875.00,1.36
8874.00,1.36
8873.00,1.36
8872.00,1.36
8871.00,1.35
8870.00,1.35
8869.00,1.35
8868.00,1.35
8867.00,1.35
8866.00,1.35
8865.00,1.35
8864.00,1.35
8863.00,1.35
8862.00,1.35
8861.00,1.35
8860.00,1.35
8859.00,1.35
8858.00,1.35
8857.00,1.35
8856.00,1.35
8855.00,1.35
8854.00,1.35
8853.00,1.35
8852.00,1.35
8851.00,1.35
8850.00,1.35
8849.00,1.35
8848.00,1.35
8847.00,1.35
8846.00,1.35
8845.00,1.35
8844.00,1.35
8843.00,1.35
8842.00,1.35
8841.00,1.35
8840.00,1.35
8839.00,1.35
8838.00,1.34
8837.00,1.34
8836.00,1.34
8835.00,1.34
8834.00,1.34
8833.00,1.34
8832.00,1.34
8831.00,1.34
8830.00,1.34
8829.00,1.34
8828.00,1.34
8827.00,1.34
8826.00,1.34
8825.00,1.34
8824.00,1.34
8823.00,1.35
8822.00,1.35
8821.00,1.35
8820.00,1.35
8819.00,1.35
8818.00,1.35
8817.00,1.35
8816.00,1.35
8815.00,1.35
8814.00,1.35
8813.00,1.35
8812.00,1.35
8811.00,1.35
8810.00,1.35
8809.00,1.35
8808.00,1.35
8807.00,1.35
8806.00,1.35
8805.00,1.35
8804.00,1.35
8803.00,1.35
8802.00,1.35
8801.00,1.35
8800.00,1.35
8799.00,1.35
8798.00,1.34
8797.00,1.34
8796.00,1.34
8795.00,1.34
8794.00,1.34
8793.00,1.34
8792.00,1.33
8791.00,1.33
8790.00,1.33
8789.00,1.33
8788.00,1.33
8787.00,1.32
8786.00,1.32
8785.00,1.32
8784.00,1.32
8783.00,1.32
8782.00,1.32
8781.00,1.32
8780.00,1.32
8779.00,1.32
8778.00,1.32
8777.00,1.32
8776.00,1.32
8775.00,1.32
8774.00,1.32
8773.00,1.32
8772.00,1.32
8771.00,1.32
8770.00,1.33
8769.00,1.33
8768.00,1.32
8767.00,1.32
8766.00,1.32
8765.00,1.32
8764.00,1.32
8763.00,1.32
8762.00,1.32
8761.00,1.32
8760.00,1.32
8759.00,1.32
8758.00,1.32
8757.00,1.32
8756.00,1.32
8755.00,1.32
8754.00,1.32
8753.00,1.32
8752.00,1.32
8751.00,1.32
8750.00,1.32
8749.00,1.32
8748.00,1.32
8747.00,1.32
8746.00,1.32
8745.00,1.32
8744.00,1.32
8743.00,1.32
8742.00,1.32
8741.00,1.32
8740.00,1.32
8739.00,1.32
8738.00,1.32
8737.00,1.32
8736.00,1.32
8735.00,1.32
8734.00,1.32
8733.00,1.33
8732.00,1.33
8731.00,1.33
8730.00,1.33
8729.00,1.33
8728.00,1.33
8727.00,1.33
8726.00,1.33
8725.00,1.33
8724.00,1.33
8723.00,1.33
8722.00,1.33
8721.00,1.33
8720.00,1.33
8719.00,1.33
8718.00,1.32
8717.00,1.32
8716.00,1.32
8715.00,1.32
8714.00,1.32
8713.00,1.32
8712.00,1.32
8711.00,1.32
8710.00,1.32
8709.00,1.32
8708.00,1.32
8707.00,1.32
8706.00,1.32
8705.00,1.32
8704.00,1.32
8703.00,1.32
8702.00,1.32
8701.00,1.32
8700.00,1.32
8699.00,1.31
8698.00,1.31
8697.00,1.31
8696.00,1.31
8695.00,1.31
8694.00,1.31
8693.00,1.31
8692.00,1.31
8691.00,1.31
8690.00,1.31
8689.00,1.31
8688.00,1.31
8687.00,1.31
8686.00,1.31
8685.00,1.31
8684.00,1.30
8683.00,1.30
8682.00,1.30
8681.00,1.30
8680.00,1.30
8679.00,1.30
8678.00,1.30
8677.00,1.29
8676.00,1.29
8675.00,1.29
8674.00,1.29
8673.00,1.28
8672.00,1.28
8671.00,1.28
8670.00,1.28
8669.00,1.28
8668.00,1.28
8667.00,1.28
8666.00,1.27
8665.00,1.27
8664.00,1.27
8663.00,1.27
8662.00,1.27
8661.00,1.27
8660.00,1.27
8659.00,1.27
8658.00,1.27
8657.00,1.27
8656.00,1.27
8655.00,1.27
8654.00,1.27
8653.00,1.27
8652.00,1.27
8651.00,1.28
8650.00,1.28
8649.00,1.28
8648.00,1.28
8647.00,1.28
8646.00,1.28
8645.00,1.28
8644.00,1.28
8643.00,1.28
8642.00,1.27
8641.00,1.27
8640.00,1.27
8639.00,1.27
8638.00,1.27
8637.00,1.27
8636.00,1.27
8635.00,1.27
8634.00,1.27
8633.00,1.27
8632.00,1.27
8631.00,1.27
8630.00,1.28
8629.00,1.28
8628.00,1.28
8627.00,1.28
8626.00,1.28
8625.00,1.28
8624.00,1.28
8623.00,1.28
8622.00,1.28
8621.00,1.28
8620.00,1.28
8619.00,1.28
8618.00,1.28
8617.00,1.28
8616.00,1.28
8615.00,1.28
8614.00,1.28
8613.00,1.28
8612.00,1.28
8611.00,1.28
8610.00,1.28
8609.00,1.28
8608.00,1.28
8607.00,1.28
8606.00,1.28
8605.00,1.28
8604.00,1.28
8603.00,1.28
8602.00,1.28
8601.00,1.28
8600.00,1.28
8599.00,1.28
8598.00,1.28
8597.00,1.28
8596.00,1.28
8595.00,1.28
8594.00,1.28
8593.00,1.28
8592.00,1.28
8591.00,1.28
8590.00,1.28
8589.00,1.28
8588.00,1.28
8587.00,1.28
8586.00,1.28
8585.00,1.28
8584.00,1.28
8583.00,1.28
8582.00,1.28
8581.00,1.27
8580.00,1.27
8579.00,1.27
8578.00,1.27
8577.00,1.27
8576.00,1.27
8575.00,1.26
8574.00,1.26
8573.00,1.26
8572.00,1.26
8571.00,1.26
8570.00,1.26
8569.00,1.26
8568.00,1.25
8567.00,1.25
8566.00,1.25
8565.00,1.25
8564.00,1.25
8563.00,1.25
8562.00,1.25
8561.00,1.25
8560.00,1.25
8559.00,1.25
8558.00,1.25
8557.00,1.25
8556.00,1.25
8555.00,1.26
8554.00,1.26
8553.00,1.26
8552.00,1.26
8551.00,1.26
8550.00,1.26
8549.00,1.27
8548.00,1.27
8547.00,1.27
8546.00,1.27
8545.00,1.27
8544.00,1.27
8543.00,1.28
8542.00,1.28
8541.00,1.28
8540.00,1.28
8539.00,1.28
8538.00,1.28
8537.00,1.28
8536.00,1.28
8535.00,1.27
8534.00,1.27
8533.00,1.27
8532.00,1.27
8531.00,1.27
8530.00,1.26
8529.00,1.26
8528.00,1.26
8527.00,1.26
8526.00,1.26
8525.00,1.25
8524.00,1.25
8523.00,1.25
8522.00,1.25
8521.00,1.25
8520.00,1.25
8519.00,1.25
8518.00,1.25
8517.00,1.25
8516.00,1.25
8515.00,1.25
8514.00,1.25
8513.00,1.25
8512.00,1.26
8511.00,1.26
8510.00,1.26
8509.00,1.26
8508.00,1.26
8507.00,1.26
8506.00,1.26
8505.00,1.27
8504.00,1.27
8503.00,1.27
8502.00,1.27
8501.00,1.27
8500.00,1.27
8499.00,1.27
8498.00,1.27
8497.00,1.27
8496.00,1.27
8495.00,1.27
8494.00,1.27
8493.00,1.27
8492.00,1.27
8491.00,1.27
8490.00,1.27
8489.00,1.27
8488.00,1.27
8487.00,1.27
8486.00,1.27
8485.00,1.26
8484.00,1.26
8483.00,1.26
8482.00,1.26
8481.00,1.25
8480.00,1.25
8479.00,1.25
8478.00,1.25
8477.00,1.24
8476.00,1.24
8475.00,1.24
8474.00,1.24
8473.00,1.24
8472.00,1.23
8471.00,1.23
8470.00,1.23
8469.00,1.23
8468.00,1.23
8467.00,1.23
8466.00,1.23
8465.00,1.23
8464.00,1.23
8463.00,1.23
8462.00,1.23
8461.00,1.23
8460.00,1.23
8459.00,1.23
8458.00,1.23
8457.00,1.23
8456.00,1.23
8455.00,1.23
8454.00,1.23
8453.00,1.23
8452.00,1.23
8451.00,1.23
8450.00,1.23
8449.00,1.23
8448.00,1.23
8447.00,1.23
8446.00,1.23
8445.00,1.22
8444.00,1.22
8443.00,1.22
8442.00,1.22
8441.00,1.22
8440.00,1.22
8439.00,1.22
8438.00,1.22
8437.00,1.22
8436.00,1.22
8435.00,1.22
8434.00,1.22
8433.00,1.22
8432.00,1.22
8431.00,1.22
8430.00,1.23
8429.00,1.23
8428.00,1.23
8427.00,1.23
8426.00,1.23
8425.00,1.23
8424.00,1.23
8423.00,1.23
8422.00,1.23
8421.00,1.23
8420.00,1.23
8419.00,1.24
8418.00,1.24
8417.00,1.24
8416.00,1.24
8415.00,1.24
8414.00,1.24
8413.00,1.24
8412.00,1.25
8411.00,1.25
8410.00,1.25
8409.00,1.25
8408.00,1.25
8407.00,1.25
8406.00,1.25
8405.00,1.25
8404.00,1.25
8403.00,1.25
8402.00,1.26
8401.00,1.26
8400.00,1.26
8399.00,1.26
8398.00,1.26
8397.00,1.26
8396.00,1.26
8395.00,1.26
8394.00,1.26
8393.00,1.26
8392.00,1.26
8391.00,1.26
8390.00,1.26
8389.00,1.26
8388.00,1.26
8387.00,1.26
8386.00,1.26
8385.00,1.26
8384.00,1.26
8383.00,1.26
8382.00,1.26
8381.00,1.26
8380.00,1.25
8379.00,1.25
8378.00,1.25
8377.00,1.25
8376.00,1.25
8375.00,1.25
8374.00,1.25
8373.00,1.24
8372.00,1.24
8371.00,1.24
8370.00,1.24
8369.00,1.24
8368.00,1.24
8367.00,1.25
8366.00,1.25
8365.00,1.25
8364.00,1.25
8363.00,1.25
8362.00,1.25
8361.00,1.25
8360.00,1.26
8359.00,1.26
8358.00,1.26
8357.00,1.26
8356.00,1.26
8355.00,1.26
8354.00,1.27
8353.00,1.27
8352.00,1.27
8351.00,1.27
8350.00,1.27
8349.00,1.27
8348.00,1.27
8347.00,1.27
8346.00,1.27
8345.00,1.27
8344.00,1.26
8343.00,1.26
8342.00,1.26
8341.00,1.26
8340.00,1.26
8339.00,1.26
8338.00,1.26
8337.00,1.25
8336.00,1.25
8335.00,1.25
8334.00,1.25
8333.00,1.25
8332.00,1.25
8331.00,1.25
8330.00,1.25
8329.00,1.25
8328.00,1.25
8327.00,1.26
8326.00,1.26
8325.00,1.26
8324.00,1.26
8323.00,1.26
8322.00,1.26
8321.00,1.26
8320.00,1.26
8319.00,1.26
8318.00,1.26
8317.00,1.26
8316.00,1.26
8315.00,1.26
8314.00,1.26
8313.00,1.26
8312.00,1.26
8311.00,1.26
8310.00,1.26
8309.00,1.26
8308.00,1.26
8307.00,1.26
8306.00,1.26
8305.00,1.26
8304.00,1.26
8303.00,1.26
8302.00,1.26
8301.00,1.27
8300.00,1.27
8299.00,1.27
8298.00,1.27
8297.00,1.27
8296.00,1.27
8295.00,1.27
8294.00,1.27
8293.00,1.28
8292.00,1.28
8291.00,1.28
8290.00,1.28
8289.00,1.28
8288.00,1.28
8287.00,1.28
8286.00,1.28
8285.00,1.28
8284.00,1.28
8283.00,1.28
8282.00,1.28
8281.00,1.28
8280.00,1.28
8279.00,1.28
8278.00,1.28
8277.00,1.28
8276.00,1.28
8275.00,1.28
8274.00,1.28
8273.00,1.28
8272.00,1.28
8271.00,1.28
8270.00,1.28
8269.00,1.28
8268.00,1.28
8267.00,1.29
8266.00,1.29
8265.00,1.29
8264.00,1.29
8263.00,1.29
8262.00,1.29
8261.00,1.29
8260.00,1.29
8259.00,1.29
8258.00,1.29
8257.00,1.29
8256.00,1.29
8255.00,1.29
8254.00,1.29
8253.00,1.28
8252.00,1.28
8251.00,1.28
8250.00,1.28
8249.00,1.28
8248.00,1.28
8247.00,1.28
8246.00,1.28
8245.00,1.28
8244.00,1.28
8243.00,1.28
8242.00,1.28
8241.00,1.28
8240.00,1.27
8239.00,1.27
8238.00,1.27
8237.00,1.28
8236.00,1.28
8235.00,1.28
8234.00,1.28
8233.00,1.28
8232.00,1.28
8231.00,1.28
8230.00,1.28
8229.00,1.28
8228.00,1.28
8227.00,1.28
8226.00,1.28
8225.00,1.28
8224.00,1.28
8223.00,1.28
8222.00,1.28
8221.00,1.28
8220.00,1.28
8219.00,1.28
8218.00,1.29
8217.00,1.29
8216.00,1.29
8215.00,1.29
8214.00,1.29
8213.00,1.29
8212.00,1.30
8211.00,1.30
8210.00,1.30
8209.00,1.30
8208.00,1.30
8207.00,1.31
8206.00,1.31
8205.00,1.31
8204.00,1.31
8203.00,1.31
8202.00,1.31
8201.00,1.31
8200.00,1.31
8199.00,1.31
8198.00,1.31
8197.00,1.31
8196.00,1.31
8195.00,1.31
8194.00,1.30
8193.00,1.30
8192.00,1.30
8191.00,1.30
8190.00,1.30
8189.00,1.30
8188.00,1.30
8187.00,1.30
8186.00,1.30
8185.00,1.30
8184.00,1.30
8183.00,1.30
8182.00,1.30
8181.00,1.30
8180.00,1.31
8179.00,1.31
8178.00,1.31
8177.00,1.31
8176.00,1.31
8175.00,1.31
8174.00,1.31
8173.00,1.31
8172.00,1.31
8171.00,1.31
8170.00,1.31
8169.00,1.31
8168.00,1.31
8167.00,1.31
8166.00,1.31
8165.00,1.31
8164.00,1.31
8163.00,1.31
8162.00,1.31
8161.00,1.31
8160.00,1.30
8159.00,1.30
8158.00,1.30
8157.00,1.30
8156.00,1.30
8155.00,1.30
8154.00,1.30
8153.00,1.30
8152.00,1.30
8151.00,1.30
8150.00,1.30
8149.00,1.30
8148.00,1.30
8147.00,1.30
8146.00,1.30
8145.00,1.30
8144.00,1.30
8143.00,1.30
8142.00,1.30
8141.00,1.30
8140.00,1.30
8139.00,1.31
8138.00,1.31
8137.00,1.31
8136.00,1.31
8135.00,1.31
8134.00,1.31
8133.00,1.31
8132.00,1.31
8131.00,1.31
8130.00,1.31
8129.00,1.31
8128.00,1.31
8127.00,1.31
8126.00,1.31
8125.00,1.31
8124.00,1.31
8123.00,1.31
8122.00,1.31
8121.00,1.31
8120.00,1.31
8119.00,1.31
8118.00,1.31
8117.00,1.31
8116.00,1.31
8115.00,1.31
8114.00,1.31
8113.00,1.31
8112.00,1.31
8111.00,1.31
8110.00,1.31
8109.00,1.31
8108.00,1.31
8107.00,1.31
8106.00,1.31
8105.00,1.31
8104.00,1.32
8103.00,1.32
8102.00,1.32
8101.00,1.32
8100.00,1.32
8099.00,1.32
8098.00,1.32
8097.00,1.32
8096.00,1.32
8095.00,1.32
8094.00,1.32
8093.00,1.32
8092.00,1.32
8091.00,1.32
8090.00,1.32
8089.00,1.32
8088.00,1.32
8087.00,1.32
8086.00,1.32
8085.00,1.32
8084.00,1.32
8083.00,1.32
8082.00,1.32
8081.00,1.32
8080.00,1.32
8079.00,1.32
8078.00,1.32
8077.00,1.32
8076.00,1.32
8075.00,1.32
8074.00,1.32
8073.00,1.32
8072.00,1.32
8071.00,1.32
8070.00,1.32
8069.00,1.32
8068.00,1.32
8067.00,1.32
8066.00,1.32
8065.00,1.32
8064.00,1.32
8063.00,1.32
8062.00,1.32
8061.00,1.32
8060.00,1.32
8059.00,1.32
8058.00,1.32
8057.00,1.32
8056.00,1.32
8055.00,1.33
8054.00,1.33
8053.00,1.33
8052.00,1.33
8051.00,1.33
8050.00,1.33
8049.00,1.33
8048.00,1.33
8047.00,1.33
8046.00,1.33
8045.00,1.33
8044.00,1.33
8043.00,1.33
8042.00,1.33
8041.00,1.33
8040.00,1.33
8039.00,1.33
8038.00,1.33
8037.00,1.33
8036.00,1.33
8035.00,1.33
8034.00,1.33
8033.00,1.33
8032.00,1.33
8031.00,1.33
8030.00,1.33
8029.00,1.33
8028.00,1.33
8027.00,1.33
8026.00,1.33
8025.00,1.33
8024.00,1.32
8023.00,1.32
8022.00,1.32
8021.00,1.32
8020.00,1.32
8019.00,1.32
8018.00,1.32
8017.00,1.32
8016.00,1.32
8015.00,1.32
8014.00,1.32
8013.00,1.32
8012.00,1.32
8011.00,1.32
8010.00,1.32
8009.00,1.32
8008.00,1.32
8007.00,1.33
8006.00,1.33
8005.00,1.33
8004.00,1.33
8003.00,1.33
8002.00,1.33
8001.00,1.33
8000.00,1.34
7999.00,1.34
7998.00,1.34
7997.00,1.34
7996.00,1.34
7995.00,1.34
7994.00,1.34
7993.00,1.33
7992.00,1.33
7991.00,1.33
7990.00,1.33
7989.00,1.33
7988.00,1.33
7987.00,1.33
7986.00,1.33
7985.00,1.33
7984.00,1.33
7983.00,1.33
7982.00,1.33
7981.00,1.33
7980.00,1.33
7979.00,1.33
7978.00,1.33
7977.00,1.33
7976.00,1.33
7975.00,1.33
7974.00,1.33
7973.00,1.33
7972.00,1.33
7971.00,1.33
7970.00,1.33
7969.00,1.33
7968.00,1.33
7967.00,1.33
7966.00,1.33
7965.00,1.33
7964.00,1.34
7963.00,1.34
7962.00,1.34
7961.00,1.34
7960.00,1.34
7959.00,1.34
7958.00,1.34
7957.00,1.34
7956.00,1.34
7955.00,1.34
7954.00,1.34
7953.00,1.34
7952.00,1.34
7951.00,1.34
7950.00,1.34
7949.00,1.34
7948.00,1.34
7947.00,1.34
7946.00,1.34
7945.00,1.34
7944.00,1.34
7943.00,1.34
7942.00,1.34
7941.00,1.34
7940.00,1.34
7939.00,1.34
7938.00,1.34
7937.00,1.34
7936.00,1.34
7935.00,1.34
7934.00,1.34
7933.00,1.34
7932.00,1.34
7931.00,1.34
7930.00,1.34
7929.00,1.34
7928.00,1.34
7927.00,1.34
7926.00,1.34
7925.00,1.34
7924.00,1.34
7923.00,1.34
7922.00,1.34
7921.00,1.34
7920.00,1.34
7919.00,1.34
7918.00,1.34
7917.00,1.34
7916.00,1.34
7915.00,1.34
7914.00,1.34
7913.00,1.34
7912.00,1.35
7911.00,1.35
7910.00,1.35
7909.00,1.35
7908.00,1.35
7907.00,1.35
7906.00,1.35
7905.00,1.35
7904.00,1.35
7903.00,1.35
7902.00,1.35
7901.00,1.35
7900.00,1.34
7899.00,1.34
7898.00,1.34
7897.00,1.34
7896.00,1.34
7895.00,1.34
7894.00,1.34
7893.00,1.34
7892.00,1.34
7891.00,1.34
7890.00,1.33
7889.00,1.33
7888.00,1.33
7887.00,1.33
7886.00,1.33
7885.00,1.33
7884.00,1.33
7883.00,1.33
7882.00,1.33
7881.00,1.33
7880.00,1.33
7879.00,1.33
7878.00,1.33
7877.00,1.33
7876.00,1.33
7875.00,1.33
7874.00,1.33
7873.00,1.33
7872.00,1.33
7871.00,1.33
7870.00,1.33
7869.00,1.33
7868.00,1.33
7867.00,1.33
7866.00,1.33
7865.00,1.33
7864.00,1.33
7863.00,1.33
7862.00,1.33
7861.00,1.33
7860.00,1.33
7859.00,1.33
7858.00,1.33
7857.00,1.33
7856.00,1.34
7855.00,1.34
7854.00,1.34
7853.00,1.34
7852.00,1.34
7851.00,1.34
7850.00,1.34
7849.00,1.34
7848.00,1.35
7847.00,1.35
7846.00,1.35
7845.00,1.35
7844.00,1.35
7843.00,1.35
7842.00,1.35
7841.00,1.35
7840.00,1.35
7839.00,1.35
7838.00,1.35
7837.00,1.35
7836.00,1.35
7835.00,1.35
7834.00,1.35
7833.00,1.35
7832.00,1.35
7831.00,1.35
7830.00,1.35
7829.00,1.35
7828.00,1.35
7827.00,1.35
7826.00,1.35
7825.00,1.35
7824.00,1.35
7823.00,1.35
7822.00,1.35
7821.00,1.35
7820.00,1.35
7819.00,1.35
7818.00,1.35
7817.00,1.35
7816.00,1.35
7815.00,1.35
7814.00,1.35
7813.00,1.35
7812.00,1.34
7811.00,1.34
7810.00,1.34
7809.00,1.34
7808.00,1.34
7807.00,1.35
7806.00,1.35
7805.00,1.35
7804.00,1.35
7803.00,1.35
7802.00,1.35
7801.00,1.35
7800.00,1.35
7799.00,1.35
7798.00,1.35
7797.00,1.35
7796.00,1.35
7795.00,1.35
7794.00,1.35
7793.00,1.35
7792.00,1.35
7791.00,1.35
7790.00,1.35
7789.00,1.35
7788.00,1.35
7787.00,1.35
7786.00,1.35
7785.00,1.35
7784.00,1.35
7783.00,1.35
7782.00,1.35
7781.00,1.35
7780.00,1.35
7779.00,1.35
7778.00,1.35
7777.00,1.35
7776.00,1.35
7775.00,1.35
7774.00,1.35
7773.00,1.35
7772.00,1.35
7771.00,1.35
7770.00,1.35
7769.00,1.35
7768.00,1.35
7767.00,1.36
7766.00,1.36
7765.00,1.36
7764.00,1.36
7763.00,1.36
7762.00,1.36
7761.00,1.36
7760.00,1.36
7759.00,1.36
7758.00,1.36
7757.00,1.36
7756.00,1.36
7755.00,1.36
7754.00,1.36
7753.00,1.36
7752.00,1.36
7751.00,1.36
7750.00,1.36
7749.00,1.36
7748.00,1.36
7747.00,1.37
7746.00,1.37
7745.00,1.37
7744.00,1.37
7743.00,1.37
7742.00,1.37
7741.00,1.37
7740.00,1.37
7739.00,1.37
7738.00,1.37
7737.00,1.37
7736.00,1.37
7735.00,1.37
7734.00,1.37
7733.00,1.37
7732.00,1.37
7731.00,1.37
7730.00,1.37
7729.00,1.37
7728.00,1.37
7727.00,1.37
7726.00,1.37
7725.00,1.37
7724.00,1.37
7723.00,1.37
7722.00,1.37
7721.00,1.37
7720.00,1.37
7719.00,1.37
7718.00,1.37
7717.00,1.37
7716.00,1.37
7715.00,1.37
7714.00,1.37
7713.00,1.37
7712.00,1.37
7711.00,1.37
7710.00,1.37
7709.00,1.37
7708.00,1.37
7707.00,1.37
7706.00,1.37
7705.00,1.37
7704.00,1.37
7703.00,1.37
7702.00,1.37
7701.00,1.37
7700.00,1.37
7699.00,1.37
7698.00,1.37
7697.00,1.37
7696.00,1.37
7695.00,1.37
7694.00,1.37
7693.00,1.37
7692.00,1.37
7691.00,1.37
7690.00,1.37
7689.00,1.37
7688.00,1.37
7687.00,1.37
7686.00,1.37
7685.00,1.37
7684.00,1.37
7683.00,1.37
7682.00,1.37
7681.00,1.37
7680.00,1.37
7679.00,1.37
7678.00,1.37
7677.00,1.37
7676.00,1.37
7675.00,1.36
7674.00,1.36
7673.00,1.36
7672.00,1.36
7671.00,1.36
7670.00,1.36
7669.00,1.36
7668.00,1.36
7667.00,1.36
7666.00,1.36
7665.00,1.36
7664.00,1.36
7663.00,1.36
7662.00,1.36
7661.00,1.36
7660.00,1.36
7659.00,1.36
7658.00,1.37
7657.00,1.37
7656.00,1.37
7655.00,1.37
7654.00,1.37
7653.00,1.37
7652.00,1.37
7651.00,1.37
7650.00,1.37
7649.00,1.37
7648.00,1.37
7647.00,1.37
7646.00,1.37
7645.00,1.37
7644.00,1.37
7643.00,1.37
7642.00,1.37
7641.00,1.37
7640.00,1.37
7639.00,1.37
7638.00,1.37
7637.00,1.37
7636.00,1.37
7635.00,1.37
7634.00,1.37
7633.00,1.37
7632.00,1.37
7631.00,1.37
7630.00,1.36
7629.00,1.36
7628.00,1.36
7627.00,1.36
7626.00,1.36
7625.00,1.36
7624.00,1.36
7623.00,1.36
7622.00,1.36
7621.00,1.36
7620.00,1.36
7619.00,1.36
7618.00,1.36
7617.00,1.36
7616.00,1.36
7615.00,1.36
7614.00,1.36
7613.00,1.36
7612.00,1.36
7611.00,1.36
7610.00,1.36
7609.00,1.36
7608.00,1.36
7607.00,1.36
7606.00,1.36
7605.00,1.36
7604.00,1.36
7603.00,1.36
7602.00,1.36
7601.00,1.36
7600.00,1.36
7599.00,1.36
7598.00,1.36
7597.00,1.36
7596.00,1.37
7595.00,1.37
7594.00,1.37
7593.00,1.37
7592.00,1.37
7591.00,1.37
7590.00,1.37
7589.00,1.37
7588.00,1.37
7587.00,1.37
7586.00,1.37
7585.00,1.37
7584.00,1.37
7583.00,1.37
7582.00,1.37
7581.00,1.37
7580.00,1.37
7579.00,1.37
7578.00,1.37
7577.00,1.37
7576.00,1.37
7575.00,1.37
7574.00,1.37
7573.00,1.37
7572.00,1.37
7571.00,1.37
7570.00,1.37
7569.00,1.37
7568.00,1.37
7567.00,1.37
7566.00,1.37
7565.00,1.37
7564.00,1.37
7563.00,1.37
7562.00,1.37
7561.00,1.37
7560.00,1.37
7559.00,1.37
7558.00,1.37
7557.00,1.37
7556.00,1.37
7555.00,1.37
7554.00,1.37
7553.00,1.37
7552.00,1.37
7551.00,1.37
7550.00,1.37
7549.00,1.36
7548.00,1.36
7547.00,1.36
7546.00,1.36
7545.00,1.36
7544.00,1.36
7543.00,1.36
7542.00,1.36
7541.00,1.36
7540.00,1.36
7539.00,1.36
7538.00,1.36
7537.00,1.35
7536.00,1.35
7535.00,1.35
7534.00,1.35
7533.00,1.35
7532.00,1.35
7531.00,1.35
7530.00,1.35
7529.00,1.35
7528.00,1.35
7527.00,1.35
7526.00,1.35
7525.00,1.35
7524.00,1.35
7523.00,1.35
7522.00,1.35
7521.00,1.35
7520.00,1.35
7519.00,1.35
7518.00,1.35
7517.00,1.35
7516.00,1.35
7515.00,1.35
7514.00,1.35
7513.00,1.35
7512.00,1.34
7511.00,1.34
7510.00,1.34
7509.00,1.34
7508.00,1.34
7507.00,1.34
7506.00,1.34
7505.00,1.34
7504.00,1.34
7503.00,1.34
7502.00,1.33
7501.00,1.33
7500.00,1.33
7499.00,1.33
7498.00,1.33
7497.00,1.33
7496.00,1.33
7495.00,1.33
7494.00,1.33
7493.00,1.33
7492.00,1.33
7491.00,1.33
7490.00,1.33
7489.00,1.33
7488.00,1.33
7487.00,1.33
7486.00,1.33
7485.00,1.33
7484.00,1.33
7483.00,1.33
7482.00,1.33
7481.00,1.33
7480.00,1.33
7479.00,1.33
7478.00,1.33
7477.00,1.33
7476.00,1.33
7475.00,1.33
7474.00,1.33
7473.00,1.33
7472.00,1.33
7471.00,1.33
7470.00,1.33
7469.00,1.34
7468.00,1.34
7467.00,1.34
7466.00,1.34
7465.00,1.34
7464.00,1.34
7463.00,1.34
7462.00,1.34
7461.00,1.33
7460.00,1.33
7459.00,1.33
7458.00,1.33
7457.00,1.33
7456.00,1.33
7455.00,1.33
7454.00,1.33
7453.00,1.33
7452.00,1.33
7451.00,1.33
7450.00,1.33
7449.00,1.33
7448.00,1.33
7447.00,1.33
7446.00,1.33
7445.00,1.32
7444.00,1.32
7443.00,1.32
7442.00,1.32
7441.00,1.32
7440.00,1.32
7439.00,1.32
7438.00,1.32
7437.00,1.32
7436.00,1.32
7435.00,1.32
7434.00,1.32
7433.00,1.32
7432.00,1.32
7431.00,1.32
7430.00,1.32
7429.00,1.32
7428.00,1.32
7427.00,1.32
7426.00,1.32
7425.00,1.31
7424.00,1.31
7423.00,1.31
7422.00,1.31
7421.00,1.31
7420.00,1.31
7419.00,1.31
7418.00,1.31
7417.00,1.31
7416.00,1.31
7415.00,1.31
7414.00,1.31
7413.00,1.31
7412.00,1.31
7411.00,1.31
7410.00,1.31
7409.00,1.31
7408.00,1.31
7407.00,1.31
7406.00,1.31
7405.00,1.30
7404.00,1.30
7403.00,1.30
7402.00,1.30
7401.00,1.30
7400.00,1.30
7399.00,1.30
7398.00,1.30
7397.00,1.29
7396.00,1.29
7395.00,1.29
7394.00,1.29
7393.00,1.29
7392.00,1.29
7391.00,1.29
7390.00,1.29
7389.00,1.29
7388.00,1.29
7387.00,1.29
7386.00,1.29
7385.00,1.29
7384.00,1.29
7383.00,1.29
7382.00,1.29
7381.00,1.29
7380.00,1.29
7379.00,1.29
7378.00,1.29
7377.00,1.29
7376.00,1.29
7375.00,1.29
7374.00,1.29
7373.00,1.29
7372.00,1.29
7371.00,1.29
7370.00,1.29
7369.00,1.29
7368.00,1.29
7367.00,1.29
7366.00,1.29
7365.00,1.28
7364.00,1.28
7363.00,1.28
7362.00,1.28
7361.00,1.28
7360.00,1.28
7359.00,1.28
7358.00,1.28
7357.00,1.28
7356.00,1.28
7355.00,1.28
7354.00,1.27
7353.00,1.27
7352.00,1.27
7351.00,1.27
7350.00,1.27
7349.00,1.27
7348.00,1.27
7347.00,1.27
7346.00,1.27
7345.00,1.27
7344.00,1.27
7343.00,1.27
7342.00,1.27
7341.00,1.27
7340.00,1.27
7339.00,1.27
7338.00,1.27
7337.00,1.27
7336.00,1.27
7335.00,1.27
7334.00,1.27
7333.00,1.27
7332.00,1.27
7331.00,1.27
7330.00,1.27
7329.00,1.27
7328.00,1.27
7327.00,1.27
7326.00,1.26
7325.00,1.26
7324.00,1.26
7323.00,1.26
7322.00,1.26
7321.00,1.26
7320.00,1.26
7319.00,1.26
7318.00,1.26
7317.00,1.25
7316.00,1.25
7315.00,1.25
7314.00,1.25
7313.00,1.25
7312.00,1.25
7311.00,1.25
7310.00,1.25
7309.00,1.25
7308.00,1.25
7307.00,1.25
7306.00,1.24
7305.00,1.24
7304.00,1.24
7303.00,1.24
7302.00,1.24
7301.00,1.24
7300.00,1.24
7299.00,1.24
7298.00,1.24
7297.00,1.24
7296.00,1.24
7295.00,1.24
7294.00,1.24
7293.00,1.24
7292.00,1.24
7291.00,1.24
7290.00,1.24
7289.00,1.24
7288.00,1.24
7287.00,1.24
7286.00,1.24
7285.00,1.24
7284.00,1.24
7283.00,1.24
7282.00,1.24
7281.00,1.24
7280.00,1.24
7279.00,1.24
7278.00,1.24
7277.00,1.24
7276.00,1.24
7275.00,1.24
7274.00,1.23
7273.00,1.23
7272.00,1.23
7271.00,1.23
7270.00,1.23
7269.00,1.23
7268.00,1.22
7267.00,1.22
7266.00,1.22
7265.00,1.22
7264.00,1.21
7263.00,1.21
7262.00,1.21
7261.00,1.21
7260.00,1.21
7259.00,1.20
7258.00,1.20
7257.00,1.20
7256.00,1.20
7255.00,1.20
7254.00,1.20
7253.00,1.19
7252.00,1.19
7251.00,1.19
7250.00,1.19
7249.00,1.19
7248.00,1.19
7247.00,1.18
7246.00,1.18
7245.00,1.18
7244.00,1.18
7243.00,1.17
7242.00,1.17
7241.00,1.17
7240.00,1.17
7239.00,1.16
7238.00,1.16
7237.00,1.16
7236.00,1.15
7235.00,1.15
7234.00,1.15
7233.00,1.15
7232.00,1.14
7231.00,1.14
7230.00,1.14
7229.00,1.13
7228.00,1.13
7227.00,1.13
7226.00,1.13
7225.00,1.12
7224.00,1.12
7223.00,1.12
7222.00,1.12
7221.00,1.11
7220.00,1.11
7219.00,1.11
7218.00,1.11
7217.00,1.10
7216.00,1.10
7215.00,1.10
7214.00,1.09
7213.00,1.09
7212.00,1.09
7211.00,1.08
7210.00,1.08
7209.00,1.07
7208.00,1.07
7207.00,1.07
7206.00,1.06
7205.00,1.06
7204.00,1.05
7203.00,1.05
7202.00,1.04
7201.00,1.04
7200.00,1.03
7199.00,1.03
7198.00,1.03
7197.00,1.02
7196.00,1.02
7195.00,1.01
7194.00,1.01
7193.00,1.01
7192.00,1.00
7191.00,1.00
7190.00,1.00
7189.00,0.99
7188.00,0.99
7187.00,0.99
7186.00,0.98
7185.00,0.98
7184.00,0.98
7183.00,0.98
7182.00,0.97
7181.00,0.97
7180.00,0.97
7179.00,0.96
7178.00,0.96
7177.00,0.96
7176.00,0.96
7175.00,0.95
7174.00,0.95
7173.00,0.95
7172.00,0.95
7171.00,0.94
7170.00,0.94
7169.00,0.94
7168.00,0.93
7167.00,0.93
7166.00,0.93
7165.00,0.92
7164.00,0.92
7163.00,0.92
7162.00,0.91
7161.00,0.91
7160.00,0.91
7159.00,0.90
7158.00,0.90
7157.00,0.90
7156.00,0.89
7155.00,0.89
7154.00,0.89
7153.00,0.88
7152.00,0.88
7151.00,0.88
7150.00,0.87
7149.00,0.87
7148.00,0.87
7147.00,0.86
7146.00,0.86
7145.00,0.86
7144.00,0.86
7143.00,0.85
7142.00,0.85
7141.00,0.85
7140.00,0.84
7139.00,0.84
7138.00,0.84
7137.00,0.84
7136.00,0.83
7135.00,0.83
7134.00,0.83
7133.00,0.82
7132.00,0.82
7131.00,0.82
7130.00,0.82
7129.00,0.81
7128.00,0.81
7127.00,0.81
7126.00,0.81
7125.00,0.80
7124.00,0.80
7123.00,0.80
7122.00,0.80
7121.00,0.79
7120.00,0.79
7119.00,0.79
7118.00,0.78
7117.00,0.78
7116.00,0.78
7115.00,0.78
7114.00,0.77
7113.00,0.77
7112.00,0.77
7111.00,0.77
7110.00,0.76
7109.00,0.76
7108.00,0.76
7107.00,0.76
7106.00,0.75
7105.00,0.75
7104.00,0.75
7103.00,0.75
7102.00,0.75
7101.00,0.74
7100.00,0.74
7099.00,0.74
7098.00,0.74
7097.00,0.74
7096.00,0.73
7095.00,0.73
7094.00,0.73
7093.00,0.73
7092.00,0.73
7091.00,0.73
7090.00,0.72
7089.00,0.72
7088.00,0.72
7087.00,0.72
7086.00,0.72
7085.00,0.72
7084.00,0.72
7083.00,0.72
7082.00,0.72
7081.00,0.71
7080.00,0.71
7079.00,0.71
7078.00,0.71
7077.00,0.71
7076.00,0.71
7075.00,0.70
7074.00,0.70
7073.00,0.70
7072.00,0.70
7071.00,0.69
7070.00,0.69
7069.00,0.69
7068.00,0.69
7067.00,0.68
7066.00,0.68
7065.00,0.68
7064.00,0.68
7063.00,0.67
7062.00,0.67
7061.00,0.67
7060.00,0.67
7059.00,0.67
7058.00,0.67
7057.00,0.66
7056.00,0.66
7055.00,0.66
7054.00,0.66
7053.00,0.66
7052.00,0.66
7051.00,0.66
7050.00,0.66
7049.00,0.66
7048.00,0.66
7047.00,0.66
7046.00,0.66
7045.00,0.65
7044.00,0.65
7043.00,0.65
7042.00,0.65
7041.00,0.65
7040.00,0.65
7039.00,0.65
7038.00,0.65
7037.00,0.65
7036.00,0.65
7035.00,0.64
7034.00,0.64
7033.00,0.64
7032.00,0.64
7031.00,0.64
7030.00,0.64
7029.00,0.64
7028.00,0.64
7027.00,0.64
7026.00,0.64
7025.00,0.63
7024.00,0.63
7023.00,0.63
7022.00,0.63
7021.00,0.63
7020.00,0.63
7019.00,0.63
7018.00,0.63
7017.00,0.63
7016.00,0.63
7015.00,0.63
7014.00,0.63
7013.00,0.63
7012.00,0.62
7011.00,0.62
7010.00,0.62
7009.00,0.62
7008.00,0.62
7007.00,0.62
7006.00,0.62
7005.00,0.62
7004.00,0.62
7003.00,0.62
7002.00,0.62
7001.00,0.62
7000.00,0.62
6999.00,0.62
6998.00,0.61
6997.00,0.61
6996.00,0.61
6995.00,0.61
6994.00,0.61
6993.00,0.61
6992.00,0.60
6991.00,0.60
6990.00,0.60
6989.00,0.60
6988.00,0.60
6987.00,0.60
6986.00,0.60
6985.00,0.60
6984.00,0.59
6983.00,0.59
6982.00,0.59
6981.00,0.59
6980.00,0.59
6979.00,0.59
6978.00,0.59
6977.00,0.59
6976.00,0.59
6975.00,0.59
6974.00,0.59
6973.00,0.59
6972.00,0.59
6971.00,0.59
6970.00,0.59
6969.00,0.59
6968.00,0.59
6967.00,0.59
6966.00,0.59
6965.00,0.58
6964.00,0.58
6963.00,0.58
6962.00,0.58
6961.00,0.58
6960.00,0.58
6959.00,0.58
6958.00,0.58
6957.00,0.58
6956.00,0.58
6955.00,0.58
6954.00,0.58
6953.00,0.58
6952.00,0.58
6951.00,0.58
6950.00,0.58
6949.00,0.58
6948.00,0.58
6947.00,0.58
6946.00,0.58
6945.00,0.58
6944.00,0.58
6943.00,0.58
6942.00,0.58
6941.00,0.58
6940.00,0.58
6939.00,0.58
6938.00,0.58
6937.00,0.58
6936.00,0.58
6935.00,0.58
6934.00,0.58
6933.00,0.58
6932.00,0.58
6931.00,0.58
6930.00,0.58
6929.00,0.58
6928.00,0.58
6927.00,0.58
6926.00,0.58
6925.00,0.58
6924.00,0.58
6923.00,0.58
6922.00,0.58
6921.00,0.58
6920.00,0.58
6919.00,0.58
6918.00,0.58
6917.00,0.58
6916.00,0.58
6915.00,0.58
6914.00,0.58
6913.00,0.58
6912.00,0.58
6911.00,0.58
6910.00,0.57
6909.00,0.57
6908.00,0.57
6907.00,0.57
6906.00,0.57
6905.00,0.57
6904.00,0.57
6903.00,0.57
6902.00,0.57
6901.00,0.57
6900.00,0.57
6899.00,0.57
6898.00,0.57
6897.00,0.57
6896.00,0.57
6895.00,0.57
6894.00,0.57
6893.00,0.57
6892.00,0.57
6891.00,0.57
6890.00,0.57
6889.00,0.57
6888.00,0.57
6887.00,0.57
6886.00,0.57
6885.00,0.57
6884.00,0.57
6883.00,0.57
6882.00,0.57
6881.00,0.57
6880.00,0.57
6879.00,0.57
6878.00,0.57
6877.00,0.57
6876.00,0.57
6875.00,0.57
6874.00,0.57
6873.00,0.57
6872.00,0.57
6871.00,0.57
6870.00,0.57
6869.00,0.57
6868.00,0.57
6867.00,0.57
6866.00,0.57
6865.00,0.57
6864.00,0.57
6863.00,0.57
6862.00,0.57
6861.00,0.57
6860.00,0.57
6859.00,0.57
6858.00,0.57
6857.00,0.57
6856.00,0.57
6855.00,0.57
6854.00,0.57
6853.00,0.58
6852.00,0.58
6851.00,0.58
6850.00,0.58
6849.00,0.58
6848.00,0.58
6847.00,0.58
6846.00,0.58
6845.00,0.58
6844.00,0.58
6843.00,0.58
6842.00,0.58
6841.00,0.58
6840.00,0.58
6839.00,0.58
6838.00,0.58
6837.00,0.58
6836.00,0.58
6835.00,0.58
6834.00,0.58
6833.00,0.58
6832.00,0.58
6831.00,0.58
6830.00,0.58
6829.00,0.58
6828.00,0.58
6827.00,0.58
6826.00,0.59
6825.00,0.59
6824.00,0.59
6823.00,0.59
6822.00,0.59
6821.00,0.59
6820.00,0.59
6819.00,0.59
6818.00,0.59
6817.00,0.59
6816.00,0.59
6815.00,0.59
6814.00,0.59
6813.00,0.59
6812.00,0.59
6811.00,0.59
6810.00,0.59
6809.00,0.59
6808.00,0.59
6807.00,0.59
6806.00,0.59
6805.00,0.59
6804.00,0.59
6803.00,0.59
6802.00,0.59
6801.00,0.59
6800.00,0.59
6799.00,0.59
6798.00,0.59
6797.00,0.59
6796.00,0.59
6795.00,0.59
6794.00,0.59
6793.00,0.59
6792.00,0.59
6791.00,0.59
6790.00,0.59
6789.00,0.60
6788.00,0.60
6787.00,0.60
6786.00,0.60
6785.00,0.60
6784.00,0.60
6783.00,0.60
6782.00,0.60
6781.00,0.60
6780.00,0.60
6779.00,0.60
6778.00,0.60
6777.00,0.60
6776.00,0.60
6775.00,0.61
6774.00,0.61
6773.00,0.61
6772.00,0.61
6771.00,0.61
6770.00,0.61
6769.00,0.61
6768.00,0.61
6767.00,0.61
6766.00,0.61
6765.00,0.61
6764.00,0.61
6763.00,0.61
6762.00,0.61
6761.00,0.61
6760.00,0.61
6759.00,0.61
6758.00,0.61
6757.00,0.61
6756.00,0.61
6755.00,0.61
6754.00,0.61
6753.00,0.61
6752.00,0.61
6751.00,0.61
6750.00,0.62
6749.00,0.62
6748.00,0.62
6747.00,0.62
6746.00,0.62
6745.00,0.62
6744.00,0.62
6743.00,0.62
6742.00,0.63
6741.00,0.63
6740.00,0.63
6739.00,0.63
6738.00,0.63
6737.00,0.63
6736.00,0.63
6735.00,0.63
6734.00,0.64
6733.00,0.64
6732.00,0.64
6731.00,0.64
6730.00,0.64
6729.00,0.64
6728.00,0.64
6727.00,0.64
6726.00,0.64
6725.00,0.64
6724.00,0.64
6723.00,0.64
6722.00,0.65
6721.00,0.65
6720.00,0.65
6719.00,0.65
6718.00,0.65
6717.00,0.65
6716.00,0.65
6715.00,0.65
6714.00,0.65
6713.00,0.65
6712.00,0.66
6711.00,0.66
6710.00,0.66
6709.00,0.66
6708.00,0.66
6707.00,0.66
6706.00,0.66
6705.00,0.66
6704.00,0.66
6703.00,0.66
6702.00,0.67
6701.00,0.67
6700.00,0.67
6699.00,0.67
6698.00,0.67
6697.00,0.67
6696.00,0.67
6695.00,0.67
6694.00,0.67
6693.00,0.68
6692.00,0.68
6691.00,0.68
6690.00,0.68
6689.00,0.68
6688.00,0.68
6687.00,0.68
6686.00,0.68
6685.00,0.68
6684.00,0.68
6683.00,0.68
6682.00,0.69
6681.00,0.69
6680.00,0.69
6679.00,0.69
6678.00,0.69
6677.00,0.69
6676.00,0.69
6675.00,0.69
6674.00,0.69
6673.00,0.69
6672.00,0.69
6671.00,0.69
6670.00,0.69
6669.00,0.69
6668.00,0.69
6667.00,0.69
6666.00,0.70
6665.00,0.70
6664.00,0.70
6663.00,0.70
6662.00,0.70
6661.00,0.70
6660.00,0.70
6659.00,0.71
6658.00,0.71
6657.00,0.71
6656.00,0.71
6655.00,0.71
6654.00,0.71
6653.00,0.72
6652.00,0.72
6651.00,0.72
6650.00,0.72
6649.00,0.72
6648.00,0.72
6647.00,0.72
6646.00,0.72
6645.00,0.72
6644.00,0.73
6643.00,0.73
6642.00,0.73
6641.00,0.73
6640.00,0.73
6639.00,0.73
6638.00,0.73
6637.00,0.73
6636.00,0.73
6635.00,0.73
6634.00,0.73
6633.00,0.74
6632.00,0.74
6631.00,0.74
6630.00,0.74
6629.00,0.74
6628.00,0.74
6627.00,0.74
6626.00,0.75
6625.00,0.75
6624.00,0.75
6623.00,0.75
6622.00,0.75
6621.00,0.75
6620.00,0.76
6619.00,0.76
6618.00,0.76
6617.00,0.76
6616.00,0.76
6615.00,0.76
6614.00,0.76
6613.00,0.76
6612.00,0.76
6611.00,0.77
6610.00,0.77
6609.00,0.77
6608.00,0.77
6607.00,0.77
6606.00,0.77
6605.00,0.77
6604.00,0.77
6603.00,0.77
6602.00,0.77
6601.00,0.78
6600.00,0.78
6599.00,0.78
6598.00,0.78
6597.00,0.78
6596.00,0.78
6595.00,0.78
6594.00,0.78
6593.00,0.78
6592.00,0.78
6591.00,0.79
6590.00,0.79
6589.00,0.79
6588.00,0.79
6587.00,0.79
6586.00,0.79
6585.00,0.79
6584.00,0.79
6583.00,0.80
6582.00,0.80
6581.00,0.80
6580.00,0.80
6579.00,0.80
6578.00,0.80
6577.00,0.80
6576.00,0.80
6575.00,0.81
6574.00,0.81
6573.00,0.81
6572.00,0.81
6571.00,0.81
6570.00,0.81
6569.00,0.81
6568.00,0.81
6567.00,0.82
6566.00,0.82
6565.00,0.82
6564.00,0.82
6563.00,0.82
6562.00,0.82
6561.00,0.82
6560.00,0.82
6559.00,0.82
6558.00,0.83
6557.00,0.83
6556.00,0.83
6555.00,0.83
6554.00,0.83
6553.00,0.83
6552.00,0.83
6551.00,0.83
6550.00,0.83
6549.00,0.83
6548.00,0.83
6547.00,0.83
6546.00,0.83
6545.00,0.84
6544.00,0.84
6543.00,0.84
6542.00,0.84
6541.00,0.84
6540.00,0.84
6539.00,0.84
6538.00,0.84
6537.00,0.84
6536.00,0.84
6535.00,0.84
6534.00,0.85
6533.00,0.85
6532.00,0.85
6531.00,0.85
6530.00,0.85
6529.00,0.85
6528.00,0.85
6527.00,0.85
6526.00,0.86
6525.00,0.86
6524.00,0.86
6523.00,0.86
6522.00,0.86
6521.00,0.86
6520.00,0.86
6519.00,0.86
6518.00,0.86
6517.00,0.86
6516.00,0.87
6515.00,0.87
6514.00,0.87
6513.00,0.87
6512.00,0.87
6511.00,0.87
6510.00,0.87
6509.00,0.87
6508.00,0.87
6507.00,0.87
6506.00,0.87
6505.00,0.87
6504.00,0.87
6503.00,0.87
6502.00,0.87
6501.00,0.88
6500.00,0.88
6499.00,0.88
6498.00,0.88
6497.00,0.88
6496.00,0.88
6495.00,0.88
6494.00,0.88
6493.00,0.88
6492.00,0.88
6491.00,0.89
6490.00,0.89
6489.00,0.89
6488.00,0.89
6487.00,0.89
6486.00,0.89
6485.00,0.89
6484.00,0.89
6483.00,0.90
6482.00,0.90
6481.00,0.90
6480.00,0.90
6479.00,0.90
6478.00,0.90
6477.00,0.90
6476.00,0.90
6475.00,0.90
6474.00,0.91
6473.00,0.91
6472.00,0.91
6471.00,0.91
6470.00,0.91
6469.00,0.91
6468.00,0.91
6467.00,0.91
6466.00,0.91
6465.00,0.91
6464.00,0.91
6463.00,0.91
6462.00,0.91
6461.00,0.91
6460.00,0.91
6459.00,0.92
6458.00,0.92
6457.00,0.92
6456.00,0.92
6455.00,0.92
6454.00,0.92
6453.00,0.92
6452.00,0.92
6451.00,0.92
6450.00,0.93
6449.00,0.93
6448.00,0.93
6447.00,0.93
6446.00,0.93
6445.00,0.93
6444.00,0.93
6443.00,0.93
6442.00,0.93
6441.00,0.93
6440.00,0.93
6439.00,0.93
6438.00,0.93
6437.00,0.94
6436.00,0.94
6435.00,0.94
6434.00,0.94
6433.00,0.94
6432.00,0.94
6431.00,0.94
6430.00,0.94
6429.00,0.94
6428.00,0.94
6427.00,0.94
6426.00,0.94
6425.00,0.94
6424.00,0.94
6423.00,0.94
6422.00,0.95
6421.00,0.95
6420.00,0.95
6419.00,0.95
6418.00,0.95
6417.00,0.95
6416.00,0.95
6415.00,0.95
6414.00,0.95
6413.00,0.96
6412.00,0.96
6411.00,0.96
6410.00,0.96
6409.00,0.96
6408.00,0.96
6407.00,0.96
6406.00,0.96
6405.00,0.96
6404.00,0.96
6403.00,0.96
6402.00,0.97
6401.00,0.97
6400.00,0.97
6399.00,0.97
6398.00,0.97
6397.00,0.97
6396.00,0.97
6395.00,0.97
6394.00,0.97
6393.00,0.97
6392.00,0.97
6391.00,0.97
6390.00,0.97
6389.00,0.98
6388.00,0.98
6387.00,0.98
6386.00,0.98
6385.00,0.98
6384.00,0.98
6383.00,0.98
6382.00,0.98
6381.00,0.98
6380.00,0.98
6379.00,0.98
6378.00,0.99
6377.00,0.99
6376.00,0.99
6375.00,0.99
6374.00,0.99
6373.00,0.99
6372.00,0.99
6371.00,0.99
6370.00,0.99
6369.00,0.99
6368.00,0.99
6367.00,0.99
6366.00,1.00
6365.00,1.00
6364.00,1.00
6363.00,1.00
6362.00,1.00
6361.00,1.00
6360.00,1.00
6359.00,1.00
6358.00,1.01
6357.00,1.01
6356.00,1.01
6355.00,1.01
6354.00,1.01
6353.00,1.01
6352.00,1.01
6351.00,1.01
6350.00,1.02
6349.00,1.02
6348.00,1.02
6347.00,1.02
6346.00,1.02
6345.00,1.02
6344.00,1.02
6343.00,1.02
6342.00,1.02
6341.00,1.03
6340.00,1.03
6339.00,1.03
6338.00,1.03
6337.00,1.03
6336.00,1.03
6335.00,1.03
6334.00,1.03
6333.00,1.03
6332.00,1.03
6331.00,1.03
6330.00,1.03
6329.00,1.03
6328.00,1.04
6327.00,1.04
6326.00,1.04
6325.00,1.04
6324.00,1.04
6323.00,1.04
6322.00,1.04
6321.00,1.04
6320.00,1.04
6319.00,1.04
6318.00,1.04
6317.00,1.04
6316.00,1.04
6315.00,1.04
6314.00,1.05
6313.00,1.05
6312.00,1.05
6311.00,1.05
6310.00,1.05
6309.00,1.05
6308.00,1.05
6307.00,1.05
6306.00,1.06
6305.00,1.06
6304.00,1.06
6303.00,1.06
6302.00,1.06
6301.00,1.06
6300.00,1.06
6299.00,1.06
6298.00,1.07
6297.00,1.07
6296.00,1.07
6295.00,1.07
6294.00,1.07
6293.00,1.07
6292.00,1.07
6291.00,1.08
6290.00,1.08
6289.00,1.08
6288.00,1.08
6287.00,1.08
6286.00,1.08
6285.00,1.08
6284.00,1.09
6283.00,1.09
6282.00,1.09
6281.00,1.09
6280.00,1.09
6279.00,1.09
6278.00,1.09
6277.00,1.09
6276.00,1.09
6275.00,1.09
6274.00,1.09
6273.00,1.09
6272.00,1.10
6271.00,1.10
6270.00,1.10
6269.00,1.10
6268.00,1.10
6267.00,1.10
6266.00,1.10
6265.00,1.10
6264.00,1.10
6263.00,1.11
6262.00,1.11
6261.00,1.11
6260.00,1.11
6259.00,1.11
6258.00,1.11
6257.00,1.11
6256.00,1.11
6255.00,1.12
6254.00,1.12
6253.00,1.12
6252.00,1.12
6251.00,1.12
6250.00,1.12
6249.00,1.12
6248.00,1.12
6247.00,1.13
6246.00,1.13
6245.00,1.13
6244.00,1.13
6243.00,1.13
6242.00,1.13
6241.00,1.13
6240.00,1.13
6239.00,1.13
6238.00,1.14
6237.00,1.14
6236.00,1.14
6235.00,1.14
6234.00,1.14
6233.00,1.14
6232.00,1.14
6231.00,1.14
6230.00,1.14
6229.00,1.14
6228.00,1.15
6227.00,1.15
6226.00,1.15
6225.00,1.15
6224.00,1.15
6223.00,1.15
6222.00,1.15
6221.00,1.15
6220.00,1.15
6219.00,1.15
6218.00,1.15
6217.00,1.15
6216.00,1.15
6215.00,1.15
6214.00,1.15
6213.00,1.16
6212.00,1.16
6211.00,1.16
6210.00,1.16
6209.00,1.16
6208.00,1.16
6207.00,1.16
6206.00,1.16
6205.00,1.17
6204.00,1.17
6203.00,1.17
6202.00,1.17
6201.00,1.17
6200.00,1.17
6199.00,1.17
6198.00,1.18
6197.00,1.18
6196.00,1.18
6195.00,1.18
6194.00,1.18
6193.00,1.18
6192.00,1.19
6191.00,1.19
6190.00,1.19
6189.00,1.19
6188.00,1.19
6187.00,1.19
6186.00,1.20
6185.00,1.20
6184.00,1.20
6183.00,1.20
6182.00,1.20
6181.00,1.20
6180.00,1.20
6179.00,1.21
6178.00,1.21
6177.00,1.21
6176.00,1.21
6175.00,1.21
6174.00,1.21
6173.00,1.21
6172.00,1.21
6171.00,1.21
6170.00,1.21
6169.00,1.22
6168.00,1.22
6167.00,1.22
6166.00,1.22
6165.00,1.22
6164.00,1.22
6163.00,1.22
6162.00,1.22
6161.00,1.22
6160.00,1.22
6159.00,1.22
6158.00,1.22
6157.00,1.22
6156.00,1.22
6155.00,1.23
6154.00,1.23
6153.00,1.23
6152.00,1.23
6151.00,1.23
6150.00,1.23
6149.00,1.23
6148.00,1.23
6147.00,1.24
6146.00,1.24
6145.00,1.24
6144.00,1.24
6143.00,1.24
6142.00,1.24
6141.00,1.25
6140.00,1.25
6139.00,1.25
6138.00,1.25
6137.00,1.25
6136.00,1.25
6135.00,1.25
6134.00,1.25
6133.00,1.26
6132.00,1.26
6131.00,1.26
6130.00,1.26
6129.00,1.26
6128.00,1.26
6127.00,1.26
6126.00,1.26
6125.00,1.26
6124.00,1.27
6123.00,1.27
6122.00,1.27
6121.00,1.27
6120.00,1.27
6119.00,1.27
6118.00,1.27
6117.00,1.27
6116.00,1.27
6115.00,1.27
6114.00,1.27
6113.00,1.28
6112.00,1.28
6111.00,1.28
6110.00,1.28
6109.00,1.28
6108.00,1.28
6107.00,1.28
6106.00,1.28
6105.00,1.28
6104.00,1.28
6103.00,1.29
6102.00,1.29
6101.00,1.29
6100.00,1.29
6099.00,1.29
6098.00,1.29
6097.00,1.30
6096.00,1.30
6095.00,1.30
6094.00,1.30
6093.00,1.30
6092.00,1.30
6091.00,1.30
6090.00,1.31
6089.00,1.31
6088.00,1.31
6087.00,1.31
6086.00,1.31
6085.00,1.31
6084.00,1.31
6083.00,1.31
6082.00,1.31
6081.00,1.32
6080.00,1.32
6079.00,1.32
6078.00,1.32
6077.00,1.32
6076.00,1.32
6075.00,1.32
6074.00,1.32
6073.00,1.32
6072.00,1.32
6071.00,1.32
6070.00,1.32
6069.00,1.32
6068.00,1.33
6067.00,1.33
6066.00,1.33
6065.00,1.33
6064.00,1.33
6063.00,1.33
6062.00,1.33
6061.00,1.33
6060.00,1.33
6059.00,1.33
6058.00,1.34
6057.00,1.34
6056.00,1.34
6055.00,1.34
6054.00,1.34
6053.00,1.34
6052.00,1.34
6051.00,1.34
6050.00,1.34
6049.00,1.34
6048.00,1.34
6047.00,1.34
6046.00,1.35
6045.00,1.35
6044.00,1.35
6043.00,1.35
6042.00,1.35
6041.00,1.35
6040.00,1.35
6039.00,1.35
6038.00,1.35
6037.00,1.35
6036.00,1.35
6035.00,1.35
6034.00,1.35
6033.00,1.35
6032.00,1.35
6031.00,1.35
6030.00,1.35
6029.00,1.35
6028.00,1.35
6027.00,1.35
6026.00,1.35
6025.00,1.35
6024.00,1.35
6023.00,1.35
6022.00,1.35
6021.00,1.35
6020.00,1.35
6019.00,1.35
6018.00,1.35
6017.00,1.36
6016.00,1.36
6015.00,1.36
6014.00,1.36
6013.00,1.36
6012.00,1.36
6011.00,1.36
6010.00,1.36
6009.00,1.36
6008.00,1.36
6007.00,1.36
6006.00,1.36
6005.00,1.36
6004.00,1.36
6003.00,1.36
6002.00,1.35
6001.00,1.35
6000.00,1.35
5999.00,1.35
5998.00,1.35
5997.00,1.35
5996.00,1.35
5995.00,1.35
5994.00,1.35
5993.00,1.35
5992.00,1.35
5991.00,1.35
5990.00,1.34
5989.00,1.34
5988.00,1.34
5987.00,1.34
5986.00,1.34
5985.00,1.34
5984.00,1.34
5983.00,1.33
5982.00,1.33
5981.00,1.33
5980.00,1.33
5979.00,1.33
5978.00,1.32
5977.00,1.32
5976.00,1.32
5975.00,1.31
5974.00,1.31
5973.00,1.31
5972.00,1.30
5971.00,1.30
5970.00,1.30
5969.00,1.29
5968.00,1.29
5967.00,1.28
5966.00,1.28
5965.00,1.27
5964.00,1.27
5963.00,1.26
5962.00,1.26
5961.00,1.25
5960.00,1.25
5959.00,1.24
5958.00,1.24
5957.00,1.23
5956.00,1.23
5955.00,1.22
5954.00,1.22
5953.00,1.22
5952.00,1.21
5951.00,1.21
5950.00,1.21
5949.00,1.20
5948.00,1.20
5947.00,1.20
5946.00,1.20
5945.00,1.20
5944.00,1.20
5943.00,1.19
5942.00,1.19
5941.00,1.19
5940.00,1.19
5939.00,1.19
5938.00,1.19
5937.00,1.19
5936.00,1.19
5935.00,1.19
5934.00,1.19
5933.00,1.19
5932.00,1.18
5931.00,1.18
5930.00,1.18
5929.00,1.18
5928.00,1.18
5927.00,1.18
5926.00,1.17
5925.00,1.17
5924.00,1.17
5923.00,1.17
5922.00,1.17
5921.00,1.16
5920.00,1.16
5919.00,1.16
5918.00,1.16
5917.00,1.16
5916.00,1.15
5915.00,1.15
5914.00,1.15
5913.00,1.15
5912.00,1.15
5911.00,1.15
5910.00,1.14
5909.00,1.14
5908.00,1.14
5907.00,1.14
5906.00,1.14
5905.00,1.14
5904.00,1.14
5903.00,1.14
5902.00,1.14
5901.00,1.14
5900.00,1.14
5899.00,1.14
5898.00,1.14
5897.00,1.15
5896.00,1.15
5895.00,1.15
5894.00,1.15
5893.00,1.15
5892.00,1.15
5891.00,1.16
5890.00,1.16
5889.00,1.16
5888.00,1.16
5887.00,1.17
5886.00,1.17
5885.00,1.17
5884.00,1.17
5883.00,1.18
5882.00,1.18
5881.00,1.18
5880.00,1.18
5879.00,1.19
5878.00,1.19
5877.00,1.19
5876.00,1.19
5875.00,1.19
5874.00,1.19
5873.00,1.20
5872.00,1.20
5871.00,1.20
5870.00,1.20
5869.00,1.20
5868.00,1.20
5867.00,1.20
5866.00,1.20
5865.00,1.21
5864.00,1.21
5863.00,1.21
5862.00,1.21
5861.00,1.21
5860.00,1.21
5859.00,1.21
5858.00,1.21
5857.00,1.21
5856.00,1.21
5855.00,1.21
5854.00,1.21
5853.00,1.21
5852.00,1.21
5851.00,1.22
5850.00,1.22
5849.00,1.22
5848.00,1.22
5847.00,1.22
5846.00,1.22
5845.00,1.22
5844.00,1.22
5843.00,1.22
5842.00,1.22
5841.00,1.22
5840.00,1.22
5839.00,1.22
5838.00,1.22
5837.00,1.22
5836.00,1.22
5835.00,1.22
5834.00,1.22
5833.00,1.22
5832.00,1.22
5831.00,1.22
5830.00,1.22
5829.00,1.21
5828.00,1.21
5827.00,1.21
5826.00,1.21
5825.00,1.21
5824.00,1.21
5823.00,1.21
5822.00,1.21
5821.00,1.21
5820.00,1.21
5819.00,1.21
5818.00,1.21
5817.00,1.21
5816.00,1.21
5815.00,1.21
5814.00,1.21
5813.00,1.21
5812.00,1.21
5811.00,1.21
5810.00,1.21
5809.00,1.21
5808.00,1.21
5807.00,1.21
5806.00,1.21
5805.00,1.21
5804.00,1.21
5803.00,1.21
5802.00,1.21
5801.00,1.21
5800.00,1.21
5799.00,1.21
5798.00,1.21
5797.00,1.20
5796.00,1.20
5795.00,1.20
5794.00,1.20
5793.00,1.20
5792.00,1.20
5791.00,1.19
5790.00,1.19
5789.00,1.19
5788.00,1.19
5787.00,1.19
5786.00,1.18
5785.00,1.18
5784.00,1.18
5783.00,1.18
5782.00,1.18
5781.00,1.18
5780.00,1.18
5779.00,1.18
5778.00,1.18
5777.00,1.17
5776.00,1.17
5775.00,1.17
5774.00,1.17
5773.00,1.17
5772.00,1.17
5771.00,1.18
5770.00,1.18
5769.00,1.18
5768.00,1.18
5767.00,1.18
5766.00,1.18
5765.00,1.18
5764.00,1.18
5763.00,1.18
5762.00,1.18
5761.00,1.19
5760.00,1.19
5759.00,1.19
5758.00,1.19
5757.00,1.19
5756.00,1.19
5755.00,1.20
5754.00,1.20
5753.00,1.20
5752.00,1.20
5751.00,1.20
5750.00,1.21
5749.00,1.21
5748.00,1.21
5747.00,1.21
5746.00,1.22
5745.00,1.22
5744.00,1.22
5743.00,1.22
5742.00,1.22
5741.00,1.22
5740.00,1.23
5739.00,1.23
5738.00,1.23
5737.00,1.23
5736.00,1.23
5735.00,1.23
5734.00,1.24
5733.00,1.24
5732.00,1.24
5731.00,1.24
5730.00,1.24
5729.00,1.24
5728.00,1.24
5727.00,1.24
5726.00,1.24
5725.00,1.24
5724.00,1.24
5723.00,1.24
5722.00,1.24
5721.00,1.24
5720.00,1.24
5719.00,1.24
5718.00,1.24
5717.00,1.24
5716.00,1.24
5715.00,1.24
5714.00,1.23
5713.00,1.23
5712.00,1.23
5711.00,1.23
5710.00,1.23
5709.00,1.23
5708.00,1.23
5707.00,1.23
5706.00,1.23
5705.00,1.22
5704.00,1.22
5703.00,1.22
5702.00,1.22
5701.00,1.22
5700.00,1.22
5699.00,1.22
5698.00,1.22
5697.00,1.21
5696.00,1.21
5695.00,1.21
5694.00,1.21
5693.00,1.21
5692.00,1.21
5691.00,1.21
5690.00,1.21
5689.00,1.21
5688.00,1.21
5687.00,1.21
5686.00,1.21
5685.00,1.20
5684.00,1.20
5683.00,1.20
5682.00,1.20
5681.00,1.20
5680.00,1.20
5679.00,1.20
5678.00,1.20
5677.00,1.20
5676.00,1.20
5675.00,1.20
5674.00,1.20
5673.00,1.20
5672.00,1.20
5671.00,1.19
5670.00,1.19
5669.00,1.19
5668.00,1.19
5667.00,1.19
5666.00,1.19
5665.00,1.19
5664.00,1.19
5663.00,1.20
5662.00,1.20
5661.00,1.20
5660.00,1.20
5659.00,1.20
5658.00,1.20
5657.00,1.20
5656.00,1.20
5655.00,1.20
5654.00,1.20
5653.00,1.21
5652.00,1.21
5651.00,1.21
5650.00,1.21
5649.00,1.21
5648.00,1.21
5647.00,1.21
5646.00,1.21
5645.00,1.21
5644.00,1.21
5643.00,1.21
5642.00,1.21
5641.00,1.21
5640.00,1.22
5639.00,1.22
5638.00,1.22
5637.00,1.22
5636.00,1.22
5635.00,1.22
5634.00,1.22
5633.00,1.22
5632.00,1.22
5631.00,1.22
5630.00,1.23
5629.00,1.23
5628.00,1.23
5627.00,1.23
5626.00,1.23
5625.00,1.23
5624.00,1.23
5623.00,1.23
5622.00,1.24
5621.00,1.24
5620.00,1.24
5619.00,1.24
5618.00,1.24
5617.00,1.24
5616.00,1.24
5615.00,1.24
5614.00,1.24
5613.00,1.24
5612.00,1.24
5611.00,1.25
5610.00,1.25
5609.00,1.25
5608.00,1.25
5607.00,1.25
5606.00,1.25
5605.00,1.25
5604.00,1.25
5603.00,1.26
5602.00,1.26
5601.00,1.26
5600.00,1.26
5599.00,1.26
5598.00,1.26
5597.00,1.26
5596.00,1.27
5595.00,1.27
5594.00,1.27
5593.00,1.27
5592.00,1.27
5591.00,1.27
5590.00,1.27
5589.00,1.27
5588.00,1.28
5587.00,1.28
5586.00,1.28
5585.00,1.28
5584.00,1.28
5583.00,1.28
5582.00,1.28
5581.00,1.28
5580.00,1.29
5579.00,1.29
5578.00,1.29
5577.00,1.29
5576.00,1.29
5575.00,1.29
5574.00,1.29
5573.00,1.29
5572.00,1.29
5571.00,1.30
5570.00,1.30
5569.00,1.30
5568.00,1.30
5567.00,1.30
5566.00,1.30
5565.00,1.30
5564.00,1.30
5563.00,1.30
5562.00,1.30
5561.00,1.30
5560.00,1.30
5559.00,1.30
5558.00,1.30
5557.00,1.30
5556.00,1.30
5555.00,1.31
5554.00,1.31
5553.00,1.31
5552.00,1.31
5551.00,1.31
5550.00,1.31
5549.00,1.31
5548.00,1.31
5547.00,1.31
5546.00,1.31
5545.00,1.31
5544.00,1.32
5543.00,1.32
5542.00,1.32
5541.00,1.32
5540.00,1.32
5539.00,1.32
5538.00,1.32
5537.00,1.32
5536.00,1.32
5535.00,1.32
5534.00,1.32
5533.00,1.32
5532.00,1.33
5531.00,1.33
5530.00,1.33
5529.00,1.33
5528.00,1.33
5527.00,1.33
5526.00,1.33
5525.00,1.33
5524.00,1.33
5523.00,1.33
5522.00,1.33
5521.00,1.33
5520.00,1.33
5519.00,1.33
5518.00,1.33
5517.00,1.33
5516.00,1.33
5515.00,1.33
5514.00,1.33
5513.00,1.33
5512.00,1.34
5511.00,1.34
5510.00,1.34
5509.00,1.34
5508.00,1.34
5507.00,1.34
5506.00,1.34
5505.00,1.34
5504.00,1.34
5503.00,1.34
5502.00,1.34
5501.00,1.34
5500.00,1.34
5499.00,1.34
5498.00,1.34
5497.00,1.34
5496.00,1.34
5495.00,1.34
5494.00,1.34
5493.00,1.35
5492.00,1.35
5491.00,1.35
5490.00,1.35
5489.00,1.35
5488.00,1.35
5487.00,1.35
5486.00,1.35
5485.00,1.35
5484.00,1.35
5483.00,1.36
5482.00,1.36
5481.00,1.36
5480.00,1.36
5479.00,1.36
5478.00,1.36
5477.00,1.36
5476.00,1.36
5475.00,1.36
5474.00,1.36
5473.00,1.36
5472.00,1.36
5471.00,1.36
5470.00,1.37
5469.00,1.37
5468.00,1.37
5467.00,1.37
5466.00,1.37
5465.00,1.37
5464.00,1.37
5463.00,1.37
5462.00,1.37
5461.00,1.37
5460.00,1.37
5459.00,1.37
5458.00,1.37
5457.00,1.37
5456.00,1.37
5455.00,1.37
5454.00,1.37
5453.00,1.37
5452.00,1.37
5451.00,1.37
5450.00,1.37
5449.00,1.37
5448.00,1.37
5447.00,1.37
5446.00,1.37
5445.00,1.37
5444.00,1.37
5443.00,1.37
5442.00,1.37
5441.00,1.37
5440.00,1.37
5439.00,1.37
5438.00,1.37
5437.00,1.37
5436.00,1.37
5435.00,1.37
5434.00,1.37
5433.00,1.37
5432.00,1.37
5431.00,1.37
5430.00,1.37
5429.00,1.37
5428.00,1.37
5427.00,1.37
5426.00,1.37
5425.00,1.37
5424.00,1.37
5423.00,1.37
5422.00,1.37
5421.00,1.37
5420.00,1.37
5419.00,1.37
5418.00,1.37
5417.00,1.37
5416.00,1.36
5415.00,1.36
5414.00,1.36
5413.00,1.36
5412.00,1.36
5411.00,1.36
5410.00,1.36
5409.00,1.36
5408.00,1.36
5407.00,1.36
5406.00,1.36
5405.00,1.36
5404.00,1.36
5403.00,1.36
5402.00,1.36
5401.00,1.36
5400.00,1.36
5399.00,1.36
5398.00,1.36
5397.00,1.36
5396.00,1.36
5395.00,1.35
5394.00,1.35
5393.00,1.35
5392.00,1.35
5391.00,1.35
5390.00,1.34
5389.00,1.34
5388.00,1.34
5387.00,1.34
5386.00,1.33
5385.00,1.33
5384.00,1.33
5383.00,1.33
5382.00,1.32
5381.00,1.32
5380.00,1.32
5379.00,1.31
5378.00,1.31
5377.00,1.30
5376.00,1.30
5375.00,1.30
5374.00,1.29
5373.00,1.29
5372.00,1.28
5371.00,1.28
5370.00,1.27
5369.00,1.27
5368.00,1.26
5367.00,1.26
5366.00,1.25
5365.00,1.25
5364.00,1.24
5363.00,1.24
5362.00,1.23
5361.00,1.22
5360.00,1.22
5359.00,1.21
5358.00,1.20
5357.00,1.20
5356.00,1.19
5355.00,1.18
5354.00,1.17
5353.00,1.17
5352.00,1.16
5351.00,1.15
5350.00,1.14
5349.00,1.13
5348.00,1.12
5347.00,1.11
5346.00,1.10
5345.00,1.09
5344.00,1.08
5343.00,1.07
5342.00,1.06
5341.00,1.05
5340.00,1.04
5339.00,1.03
5338.00,1.02
5337.00,1.01
5336.00,1.00
5335.00,0.99
5334.00,0.98
5333.00,0.97
5332.00,0.96
5331.00,0.95
5330.00,0.94
5329.00,0.93
5328.00,0.92
5327.00,0.91
5326.00,0.90
5325.00,0.89
5324.00,0.89
5323.00,0.88
5322.00,0.87
5321.00,0.86
5320.00,0.85
5319.00,0.84
5318.00,0.83
5317.00,0.82
5316.00,0.81
5315.00,0.80
5314.00,0.79
5313.00,0.79
5312.00,0.78
5311.00,0.77
5310.00,0.76
5309.00,0.75
5308.00,0.74
5307.00,0.73
5306.00,0.73
5305.00,0.72
5304.00,0.71
5303.00,0.70
5302.00,0.69
5301.00,0.69
5300.00,0.68
5299.00,0.67
5298.00,0.67
5297.00,0.66
5296.00,0.65
5295.00,0.65
5294.00,0.64
5293.00,0.64
5292.00,0.63
5291.00,0.63
5290.00,0.63
5289.00,0.62
5288.00,0.62
5287.00,0.61
5286.00,0.61
5285.00,0.61
5284.00,0.61
5283.00,0.60
5282.00,0.60
5281.00,0.60
5280.00,0.60
5279.00,0.59
5278.00,0.59
5277.00,0.59
5276.00,0.59
5275.00,0.59
5274.00,0.59
5273.00,0.59
5272.00,0.58
5271.00,0.58
5270.00,0.58
5269.00,0.58
5268.00,0.58
5267.00,0.58
5266.00,0.58
5265.00,0.58
5264.00,0.57
5263.00,0.57
5262.00,0.57
5261.00,0.57
5260.00,0.57
5259.00,0.57
5258.00,0.57
5257.00,0.57
5256.00,0.57
5255.00,0.57
5254.00,0.57
5253.00,0.57
5252.00,0.56
5251.00,0.56
5250.00,0.56
5249.00,0.56
5248.00,0.56
5247.00,0.56
5246.00,0.56
5245.00,0.56
5244.00,0.56
5243.00,0.56
5242.00,0.56
5241.00,0.56
5240.00,0.56
5239.00,0.56
5238.00,0.56
5237.00,0.56
5236.00,0.56
5235.00,0.56
5234.00,0.56
5233.00,0.56
5232.00,0.56
5231.00,0.56
5230.00,0.56
5229.00,0.57
5228.00,0.57
5227.00,0.57
5226.00,0.57
5225.00,0.57
5224.00,0.57
5223.00,0.57
5222.00,0.57
5221.00,0.57
5220.00,0.57
5219.00,0.57
5218.00,0.57
5217.00,0.57
5216.00,0.57
5215.00,0.57
5214.00,0.57
5213.00,0.57
5212.00,0.57
5211.00,0.57
5210.00,0.57
5209.00,0.57
5208.00,0.57
5207.00,0.57
5206.00,0.57
5205.00,0.57
5204.00,0.57
5203.00,0.57
5202.00,0.57
5201.00,0.57
5200.00,0.57
5199.00,0.57
5198.00,0.57
5197.00,0.58
5196.00,0.58
5195.00,0.58
5194.00,0.58
5193.00,0.58
5192.00,0.58
5191.00,0.58
5190.00,0.58
5189.00,0.58
5188.00,0.58
5187.00,0.58
5186.00,0.58
5185.00,0.58
5184.00,0.58
5183.00,0.58
5182.00,0.58
5181.00,0.58
5180.00,0.58
5179.00,0.58
5178.00,0.58
5177.00,0.58
5176.00,0.58
5175.00,0.58
5174.00,0.58
5173.00,0.58
5172.00,0.58
5171.00,0.58
5170.00,0.58
5169.00,0.58
5168.00,0.58
5167.00,0.58
5166.00,0.58
5165.00,0.58
5164.00,0.58
5163.00,0.58
5162.00,0.59
5161.00,0.59
5160.00,0.59
5159.00,0.59
5158.00,0.59
5157.00,0.59
5156.00,0.59
5155.00,0.59
5154.00,0.59
5153.00,0.59
5152.00,0.59
5151.00,0.60
5150.00,0.60
5149.00,0.60
5148.00,0.60
5147.00,0.60
5146.00,0.60
5145.00,0.60
5144.00,0.60
5143.00,0.60
5142.00,0.60
5141.00,0.60
5140.00,0.60
5139.00,0.60
5138.00,0.60
5137.00,0.60
5136.00,0.60
5135.00,0.60
5134.00,0.60
5133.00,0.59
5132.00,0.59
5131.00,0.59
5130.00,0.59
5129.00,0.59
5128.00,0.59
5127.00,0.59
5126.00,0.60
5125.00,0.60
5124.00,0.60
5123.00,0.60
5122.00,0.60
5121.00,0.60
5120.00,0.60
5119.00,0.60
5118.00,0.60
5117.00,0.60
5116.00,0.60
5115.00,0.60
5114.00,0.61
5113.00,0.61
5112.00,0.61
5111.00,0.61
5110.00,0.61
5109.00,0.61
5108.00,0.61
5107.00,0.61
5106.00,0.61
5105.00,0.61
5104.00,0.61
5103.00,0.61
5102.00,0.61
5101.00,0.61
5100.00,0.62
5099.00,0.62
5098.00,0.62
5097.00,0.62
5096.00,0.62
5095.00,0.62
5094.00,0.62
5093.00,0.62
5092.00,0.62
5091.00,0.62
5090.00,0.62
5089.00,0.62
5088.00,0.62
5087.00,0.62
5086.00,0.62
5085.00,0.62
5084.00,0.62
5083.00,0.62
5082.00,0.62
5081.00,0.63
5080.00,0.63
5079.00,0.63
5078.00,0.63
5077.00,0.63
5076.00,0.63
5075.00,0.63
5074.00,0.63
5073.00,0.63
5072.00,0.64
5071.00,0.64
5070.00,0.64
5069.00,0.64
5068.00,0.64
5067.00,0.64
5066.00,0.64
5065.00,0.64
5064.00,0.64
5063.00,0.64
5062.00,0.64
5061.00,0.64
5060.00,0.64
5059.00,0.64
5058.00,0.64
5057.00,0.64
5056.00,0.64
5055.00,0.64
5054.00,0.64
5053.00,0.64
5052.00,0.65
5051.00,0.65
5050.00,0.65
5049.00,0.65
5048.00,0.65
5047.00,0.65
5046.00,0.65
5045.00,0.65
5044.00,0.65
5043.00,0.65
5042.00,0.65
5041.00,0.66
5040.00,0.66
5039.00,0.66
5038.00,0.66
5037.00,0.66
5036.00,0.66
5035.00,0.66
5034.00,0.66
5033.00,0.67
5032.00,0.67
5031.00,0.67
5030.00,0.67
5029.00,0.67
5028.00,0.67
5027.00,0.67
5026.00,0.67
5025.00,0.67
5024.00,0.67
5023.00,0.67
5022.00,0.67
5021.00,0.68
5020.00,0.68
5019.00,0.68
5018.00,0.68
5017.00,0.68
5016.00,0.68
5015.00,0.68
5014.00,0.68
5013.00,0.68
5012.00,0.69
5011.00,0.69
5010.00,0.69
5009.00,0.69
5008.00,0.69
5007.00,0.69
5006.00,0.70
5005.00,0.70
5004.00,0.70
5003.00,0.70
5002.00,0.70
5001.00,0.70
5000.00,0.71
4999.00,0.71
4998.00,0.71
4997.00,0.71
4996.00,0.71
4995.00,0.71
4994.00,0.71
4993.00,0.71
4992.00,0.71
4991.00,0.71
4990.00,0.71
4989.00,0.71
4988.00,0.71
4987.00,0.72
4986.00,0.72
4985.00,0.72
4984.00,0.72
4983.00,0.72
4982.00,0.72
4981.00,0.72
4980.00,0.72
4979.00,0.72
4978.00,0.72
4977.00,0.72
4976.00,0.72
4975.00,0.72
4974.00,0.72
4973.00,0.72
4972.00,0.73
4971.00,0.73
4970.00,0.73
4969.00,0.73
4968.00,0.73
4967.00,0.73
4966.00,0.73
4965.00,0.74
4964.00,0.74
4963.00,0.74
4962.00,0.74
4961.00,0.74
4960.00,0.74
4959.00,0.74
4958.00,0.75
4957.00,0.75
4956.00,0.75
4955.00,0.75
4954.00,0.75
4953.00,0.75
4952.00,0.75
4951.00,0.76
4950.00,0.76
4949.00,0.76
4948.00,0.76
4947.00,0.76
4946.00,0.76
4945.00,0.76
4944.00,0.76
4943.00,0.77
4942.00,0.77
4941.00,0.77
4940.00,0.77
4939.00,0.77
4938.00,0.77
4937.00,0.77
4936.00,0.77
4935.00,0.77
4934.00,0.77
4933.00,0.77
4932.00,0.77
4931.00,0.77
4930.00,0.78
4929.00,0.78
4928.00,0.78
4927.00,0.78
4926.00,0.78
4925.00,0.78
4924.00,0.78
4923.00,0.78
4922.00,0.78
4921.00,0.78
4920.00,0.79
4919.00,0.79
4918.00,0.79
4917.00,0.79
4916.00,0.79
4915.00,0.79
4914.00,0.80
4913.00,0.80
4912.00,0.80
4911.00,0.80
4910.00,0.80
4909.00,0.80
4908.00,0.81
4907.00,0.81
4906.00,0.81
4905.00,0.81
4904.00,0.81
4903.00,0.81
4902.00,0.81
4901.00,0.81
4900.00,0.82
4899.00,0.82
4898.00,0.82
4897.00,0.82
4896.00,0.82
4895.00,0.82
4894.00,0.82
4893.00,0.82
4892.00,0.82
4891.00,0.82
4890.00,0.82
4889.00,0.83
4888.00,0.83
4887.00,0.83
4886.00,0.83
4885.00,0.83
4884.00,0.83
4883.00,0.83
4882.00,0.83
4881.00,0.83
4880.00,0.83
4879.00,0.83
4878.00,0.83
4877.00,0.84
4876.00,0.84
4875.00,0.84
4874.00,0.84
4873.00,0.84
4872.00,0.84
4871.00,0.84
4870.00,0.84
4869.00,0.84
4868.00,0.85
4867.00,0.85
4866.00,0.85
4865.00,0.85
4864.00,0.85
4863.00,0.85
4862.00,0.85
4861.00,0.86
4860.00,0.86
4859.00,0.86
4858.00,0.86
4857.00,0.86
4856.00,0.86
4855.00,0.86
4854.00,0.86
4853.00,0.86
4852.00,0.86
4851.00,0.86
4850.00,0.86
4849.00,0.86
4848.00,0.86
4847.00,0.86
4846.00,0.87
4845.00,0.87
4844.00,0.87
4843.00,0.87
4842.00,0.87
4841.00,0.87
4840.00,0.87
4839.00,0.87
4838.00,0.87
4837.00,0.87
4836.00,0.88
4835.00,0.88
4834.00,0.88
4833.00,0.88
4832.00,0.88
4831.00,0.88
4830.00,0.89
4829.00,0.89
4828.00,0.89
4827.00,0.89
4826.00,0.89
4825.00,0.89
4824.00,0.90
4823.00,0.90
4822.00,0.90
4821.00,0.90
4820.00,0.90
4819.00,0.90
4818.00,0.90
4817.00,0.91
4816.00,0.91
4815.00,0.91
4814.00,0.91
4813.00,0.91
4812.00,0.91
4811.00,0.92
4810.00,0.92
4809.00,0.92
4808.00,0.92
4807.00,0.92
4806.00,0.92
4805.00,0.93
4804.00,0.93
4803.00,0.93
4802.00,0.93
4801.00,0.93
4800.00,0.94
4799.00,0.94
4798.00,0.94
4797.00,0.94
4796.00,0.94
4795.00,0.94
4794.00,0.95
4793.00,0.95
4792.00,0.95
4791.00,0.95
4790.00,0.95
4789.00,0.95
4788.00,0.95
4787.00,0.96
4786.00,0.96
4785.00,0.96
4784.00,0.96
4783.00,0.96
4782.00,0.96
4781.00,0.97
4780.00,0.97
4779.00,0.97
4778.00,0.97
4777.00,0.97
4776.00,0.98
4775.00,0.98
4774.00,0.98
4773.00,0.98
4772.00,0.99
4771.00,0.99
4770.00,0.99
4769.00,0.99
4768.00,0.99
4767.00,1.00
4766.00,1.00
4765.00,1.00
4764.00,1.00
4763.00,1.00
4762.00,1.00
4761.00,1.00
4760.00,1.01
4759.00,1.01
4758.00,1.01
4757.00,1.01
4756.00,1.01
4755.00,1.01
4754.00,1.01
4753.00,1.01
4752.00,1.02
4751.00,1.02
4750.00,1.02
4749.00,1.02
4748.00,1.02
4747.00,1.02
4746.00,1.02
4745.00,1.03
4744.00,1.03
4743.00,1.03
4742.00,1.03
4741.00,1.04
4740.00,1.04
4739.00,1.04
4738.00,1.04
4737.00,1.05
4736.00,1.05
4735.00,1.05
4734.00,1.05
4733.00,1.06
4732.00,1.06
4731.00,1.06
4730.00,1.06
4729.00,1.07
4728.00,1.07
4727.00,1.07
4726.00,1.07
4725.00,1.07
4724.00,1.07
4723.00,1.08
4722.00,1.08
4721.00,1.08
4720.00,1.08
4719.00,1.08
4718.00,1.08
4717.00,1.09
4716.00,1.09
4715.00,1.09
4714.00,1.09
4713.00,1.09
4712.00,1.10
4711.00,1.10
4710.00,1.10
4709.00,1.10
4708.00,1.11
4707.00,1.11
4706.00,1.11
4705.00,1.11
4704.00,1.12
4703.00,1.12
4702.00,1.12
4701.00,1.12
4700.00,1.12
4699.00,1.13
4698.00,1.13
4697.00,1.13
4696.00,1.13
4695.00,1.13
4694.00,1.13
4693.00,1.13
4692.00,1.14
4691.00,1.14
4690.00,1.14
4689.00,1.14
4688.00,1.14
4687.00,1.14
4686.00,1.14
4685.00,1.14
4684.00,1.15
4683.00,1.15
4682.00,1.15
4681.00,1.15
4680.00,1.15
4679.00,1.15
4678.00,1.16
4677.00,1.16
4676.00,1.16
4675.00,1.16
4674.00,1.16
4673.00,1.17
4672.00,1.17
4671.00,1.17
4670.00,1.17
4669.00,1.18
4668.00,1.18
4667.00,1.18
4666.00,1.18
4665.00,1.18
4664.00,1.19
4663.00,1.19
4662.00,1.19
4661.00,1.19
4660.00,1.19
4659.00,1.20
4658.00,1.20
4657.00,1.20
4656.00,1.20
4655.00,1.20
4654.00,1.20
4653.00,1.20
4652.00,1.20
4651.00,1.21
4650.00,1.21
4649.00,1.21
4648.00,1.21
4647.00,1.21
4646.00,1.21
4645.00,1.21
4644.00,1.22
4643.00,1.22
4642.00,1.22
4641.00,1.22
4640.00,1.23
4639.00,1.23
4638.00,1.23
4637.00,1.23
4636.00,1.23
4635.00,1.24
4634.00,1.24
4633.00,1.24
4632.00,1.24
4631.00,1.24
4630.00,1.24
4629.00,1.25
4628.00,1.25
4627.00,1.25
4626.00,1.25
4625.00,1.25
4624.00,1.25
4623.00,1.25
4622.00,1.25
4621.00,1.26
4620.00,1.26
4619.00,1.26
4618.00,1.26
4617.00,1.26
4616.00,1.26
4615.00,1.26
4614.00,1.27
4613.00,1.27
4612.00,1.27
4611.00,1.27
4610.00,1.27
4609.00,1.27
4608.00,1.27
4607.00,1.28
4606.00,1.28
4605.00,1.28
4604.00,1.28
4603.00,1.28
4602.00,1.28
4601.00,1.28
4600.00,1.28
4599.00,1.28
4598.00,1.29
4597.00,1.29
4596.00,1.29
4595.00,1.29
4594.00,1.29
4593.00,1.29
4592.00,1.29
4591.00,1.29
4590.00,1.29
4589.00,1.29
4588.00,1.29
4587.00,1.29
4586.00,1.29
4585.00,1.30
4584.00,1.30
4583.00,1.30
4582.00,1.30
4581.00,1.30
4580.00,1.30
4579.00,1.30
4578.00,1.30
4577.00,1.30
4576.00,1.30
4575.00,1.30
4574.00,1.30
4573.00,1.30
4572.00,1.30
4571.00,1.31
4570.00,1.31
4569.00,1.31
4568.00,1.31
4567.00,1.31
4566.00,1.31
4565.00,1.32
4564.00,1.32
4563.00,1.32
4562.00,1.32
4561.00,1.32
4560.00,1.32
4559.00,1.32
4558.00,1.32
4557.00,1.33
4556.00,1.33
4555.00,1.33
4554.00,1.33
4553.00,1.33
4552.00,1.33
4551.00,1.33
4550.00,1.33
4549.00,1.33
4548.00,1.34
4547.00,1.34
4546.00,1.34
4545.00,1.34
4544.00,1.34
4543.00,1.34
4542.00,1.35
4541.00,1.35
4540.00,1.35
4539.00,1.35
4538.00,1.35
4537.00,1.35
4536.00,1.35
4535.00,1.36
4534.00,1.36
4533.00,1.36
4532.00,1.36
4531.00,1.36
4530.00,1.36
4529.00,1.36
4528.00,1.36
4527.00,1.36
4526.00,1.36
4525.00,1.36
4524.00,1.36
4523.00,1.36
4522.00,1.36
4521.00,1.36
4520.00,1.36
4519.00,1.36
4518.00,1.36
4517.00,1.36
4516.00,1.36
4515.00,1.36
4514.00,1.37
4513.00,1.37
4512.00,1.37
4511.00,1.37
4510.00,1.37
4509.00,1.37
4508.00,1.37
4507.00,1.37
4506.00,1.37
4505.00,1.37
4504.00,1.37
4503.00,1.37
4502.00,1.37
4501.00,1.37
4500.00,1.37
4499.00,1.37
4498.00,1.37
4497.00,1.37
4496.00,1.37
4495.00,1.37
4494.00,1.36
4493.00,1.36
4492.00,1.36
4491.00,1.36
4490.00,1.36
4489.00,1.36
4488.00,1.36
4487.00,1.36
4486.00,1.36
4485.00,1.36
4484.00,1.36
4483.00,1.36
4482.00,1.36
4481.00,1.36
4480.00,1.35
4479.00,1.35
4478.00,1.35
4477.00,1.35
4476.00,1.35
4475.00,1.35
4474.00,1.35
4473.00,1.34
4472.00,1.34
4471.00,1.34
4470.00,1.34
4469.00,1.34
4468.00,1.34
4467.00,1.33
4466.00,1.33
4465.00,1.33
4464.00,1.33
4463.00,1.32
4462.00,1.32
4461.00,1.32
4460.00,1.31
4459.00,1.31
4458.00,1.31
4457.00,1.30
4456.00,1.30
4455.00,1.29
4454.00,1.29
4453.00,1.28
4452.00,1.28
4451.00,1.27
4450.00,1.27
4449.00,1.26
4448.00,1.25
4447.00,1.25
4446.00,1.24
4445.00,1.23
4444.00,1.23
4443.00,1.22
4442.00,1.21
4441.00,1.20
4440.00,1.20
4439.00,1.19
4438.00,1.18
4437.00,1.17
4436.00,1.17
4435.00,1.16
4434.00,1.15
4433.00,1.15
4432.00,1.14
4431.00,1.13
4430.00,1.13
4429.00,1.12
4428.00,1.12
4427.00,1.11
4426.00,1.11
4425.00,1.10
4424.00,1.10
4423.00,1.10
4422.00,1.09
4421.00,1.09
4420.00,1.08
4419.00,1.08
4418.00,1.08
4417.00,1.08
4416.00,1.07
4415.00,1.07
4414.00,1.07
4413.00,1.07
4412.00,1.07
4411.00,1.06
4410.00,1.06
4409.00,1.06
4408.00,1.06
4407.00,1.06
4406.00,1.06
4405.00,1.06
4404.00,1.06
4403.00,1.07
4402.00,1.07
4401.00,1.07
4400.00,1.07
4399.00,1.08
4398.00,1.08
4397.00,1.08
4396.00,1.09
4395.00,1.09
4394.00,1.09
4393.00,1.10
4392.00,1.10
4391.00,1.10
4390.00,1.11
4389.00,1.11
4388.00,1.11
4387.00,1.12
4386.00,1.12
4385.00,1.12
4384.00,1.12
4383.00,1.13
4382.00,1.13
4381.00,1.13
4380.00,1.13
4379.00,1.14
4378.00,1.14
4377.00,1.14
4376.00,1.14
4375.00,1.14
4374.00,1.14
4373.00,1.14
4372.00,1.14
4371.00,1.14
4370.00,1.14
4369.00,1.14
4368.00,1.14
4367.00,1.14
4366.00,1.14
4365.00,1.14
4364.00,1.14
4363.00,1.13
4362.00,1.13
4361.00,1.13
4360.00,1.13
4359.00,1.13
4358.00,1.13
4357.00,1.12
4356.00,1.12
4355.00,1.12
4354.00,1.12
4353.00,1.12
4352.00,1.12
4351.00,1.11
4350.00,1.11
4349.00,1.11
4348.00,1.11
4347.00,1.11
4346.00,1.11
4345.00,1.11
4344.00,1.11
4343.00,1.11
4342.00,1.11
4341.00,1.11
4340.00,1.11
4339.00,1.11
4338.00,1.11
4337.00,1.11
4336.00,1.11
4335.00,1.11
4334.00,1.11
4333.00,1.11
4332.00,1.12
4331.00,1.12
4330.00,1.12
4329.00,1.13
4328.00,1.13
4327.00,1.13
4326.00,1.13
4325.00,1.14
4324.00,1.14
4323.00,1.15
4322.00,1.15
4321.00,1.15
4320.00,1.16
4319.00,1.16
4318.00,1.16
4317.00,1.16
4316.00,1.17
4315.00,1.17
4314.00,1.17
4313.00,1.18
4312.00,1.18
4311.00,1.18
4310.00,1.18
4309.00,1.19
4308.00,1.19
4307.00,1.19
4306.00,1.19
4305.00,1.20
4304.00,1.20
4303.00,1.20
4302.00,1.21
4301.00,1.21
4300.00,1.21
4299.00,1.21
4298.00,1.22
4297.00,1.22
4296.00,1.22
4295.00,1.22
4294.00,1.23
4293.00,1.23
4292.00,1.23
4291.00,1.23
4290.00,1.23
4289.00,1.24
4288.00,1.24
4287.00,1.24
4286.00,1.24
4285.00,1.24
4284.00,1.24
4283.00,1.24
4282.00,1.24
4281.00,1.24
4280.00,1.24
4279.00,1.24
4278.00,1.24
4277.00,1.24
4276.00,1.24
4275.00,1.23
4274.00,1.23
4273.00,1.23
4272.00,1.23
4271.00,1.23
4270.00,1.23
4269.00,1.23
4268.00,1.23
4267.00,1.23
4266.00,1.23
4265.00,1.23
4264.00,1.23
4263.00,1.23
4262.00,1.23
4261.00,1.22
4260.00,1.23
4259.00,1.23
4258.00,1.23
4257.00,1.23
4256.00,1.23
4255.00,1.23
4254.00,1.23
4253.00,1.23
4252.00,1.23
4251.00,1.23
4250.00,1.23
4249.00,1.23
4248.00,1.23
4247.00,1.23
4246.00,1.24
4245.00,1.24
4244.00,1.24
4243.00,1.24
4242.00,1.24
4241.00,1.24
4240.00,1.24
4239.00,1.24
4238.00,1.24
4237.00,1.24
4236.00,1.24
4235.00,1.24
4234.00,1.24
4233.00,1.24
4232.00,1.24
4231.00,1.24
4230.00,1.24
4229.00,1.24
4228.00,1.24
4227.00,1.24
4226.00,1.24
4225.00,1.24
4224.00,1.24
4223.00,1.24
4222.00,1.24
4221.00,1.24
4220.00,1.24
4219.00,1.25
4218.00,1.25
4217.00,1.25
4216.00,1.24
4215.00,1.24
4214.00,1.24
4213.00,1.24
4212.00,1.24
4211.00,1.24
4210.00,1.24
4209.00,1.24
4208.00,1.24
4207.00,1.24
4206.00,1.24
4205.00,1.24
4204.00,1.24
4203.00,1.25
4202.00,1.25
4201.00,1.25
4200.00,1.25
4199.00,1.26
4198.00,1.26
4197.00,1.26
4196.00,1.26
4195.00,1.27
4194.00,1.27
4193.00,1.27
4192.00,1.27
4191.00,1.28
4190.00,1.28
4189.00,1.28
4188.00,1.28
4187.00,1.28
4186.00,1.28
4185.00,1.28
4184.00,1.28
4183.00,1.27
4182.00,1.27
4181.00,1.27
4180.00,1.27
4179.00,1.27
4178.00,1.27
4177.00,1.27
4176.00,1.27
4175.00,1.27
4174.00,1.27
4173.00,1.27
4172.00,1.27
4171.00,1.27
4170.00,1.27
4169.00,1.27
4168.00,1.27
4167.00,1.27
4166.00,1.27
4165.00,1.27
4164.00,1.27
4163.00,1.27
4162.00,1.27
4161.00,1.27
4160.00,1.27
4159.00,1.27
4158.00,1.27
4157.00,1.26
4156.00,1.26
4155.00,1.26
4154.00,1.26
4153.00,1.26
4152.00,1.26
4151.00,1.26
4150.00,1.26
4149.00,1.26
4148.00,1.26
4147.00,1.26
4146.00,1.26
4145.00,1.26
4144.00,1.26
4143.00,1.26
4142.00,1.26
4141.00,1.26
4140.00,1.26
4139.00,1.26
4138.00,1.26
4137.00,1.26
4136.00,1.26
4135.00,1.26
4134.00,1.26
4133.00,1.26
4132.00,1.26
4131.00,1.26
4130.00,1.26
4129.00,1.26
4128.00,1.26
4127.00,1.26
4126.00,1.26
4125.00,1.26
4124.00,1.26
4123.00,1.26
4122.00,1.26
4121.00,1.26
4120.00,1.26
4119.00,1.26
4118.00,1.26
4117.00,1.26
4116.00,1.26
4115.00,1.26
4114.00,1.26
4113.00,1.26
4112.00,1.26
4111.00,1.26
4110.00,1.26
4109.00,1.26
4108.00,1.26
4107.00,1.26
4106.00,1.26
4105.00,1.26
4104.00,1.26
4103.00,1.26
4102.00,1.26
4101.00,1.26
4100.00,1.26
4099.00,1.26
4098.00,1.26
4097.00,1.26
4096.00,1.26
4095.00,1.26
4094.00,1.26
4093.00,1.26
4092.00,1.26
4091.00,1.26
4090.00,1.27
4089.00,1.27
4088.00,1.27
4087.00,1.27
4086.00,1.27
4085.00,1.27
4084.00,1.27
4083.00,1.27
4082.00,1.27
4081.00,1.27
4080.00,1.27
4079.00,1.27
4078.00,1.28
4077.00,1.28
4076.00,1.28
4075.00,1.28
4074.00,1.28
4073.00,1.28
4072.00,1.28
4071.00,1.29
4070.00,1.29
4069.00,1.29
4068.00,1.29
4067.00,1.29
4066.00,1.29
4065.00,1.29
4064.00,1.29
4063.00,1.29
4062.00,1.29
4061.00,1.29
4060.00,1.30
4059.00,1.30
4058.00,1.30
4057.00,1.30
4056.00,1.30
4055.00,1.30
4054.00,1.30
4053.00,1.30
4052.00,1.30
4051.00,1.30
4050.00,1.30
4049.00,1.30
4048.00,1.30
4047.00,1.30
4046.00,1.30
4045.00,1.30
4044.00,1.30
4043.00,1.30
4042.00,1.30
4041.00,1.30
4040.00,1.30
4039.00,1.31
4038.00,1.31
4037.00,1.31
4036.00,1.31
4035.00,1.31
4034.00,1.31
4033.00,1.31
4032.00,1.31
4031.00,1.31
4030.00,1.31
4029.00,1.31
4028.00,1.31
4027.00,1.31
4026.00,1.31
4025.00,1.31
4024.00,1.31
4023.00,1.31
4022.00,1.31
4021.00,1.31
4020.00,1.31
4019.00,1.31
4018.00,1.31
4017.00,1.31
4016.00,1.31
4015.00,1.32
4014.00,1.32
4013.00,1.32
4012.00,1.32
4011.00,1.33
4010.00,1.33
4009.00,1.34
4008.00,1.34
4007.00,1.34
4006.00,1.35
4005.00,1.35
4004.00,1.36
4003.00,1.36
4002.00,1.37
4001.00,1.37
4000.00,1.37
