创建为新数据集,样品 094 用户 Administrator 日期 星期六, 七月 21 2018
cm-1,%T
10000.00,1.30
9999.00,1.31
9998.00,1.31
9997.00,1.31
9996.00,1.31
9995.00,1.31
9994.00,1.31
9993.00,1.31
9992.00,1.31
9991.00,1.31
9990.00,1.31
9989.00,1.31
9988.00,1.31
9987.00,1.30
9986.00,1.30
9985.00,1.30
9984.00,1.30
9983.00,1.30
9982.00,1.29
9981.00,1.29
9980.00,1.29
9979.00,1.29
9978.00,1.29
9977.00,1.29
9976.00,1.30
9975.00,1.30
9974.00,1.30
9973.00,1.31
9972.00,1.31
9971.00,1.31
9970.00,1.32
9969.00,1.32
9968.00,1.32
9967.00,1.33
9966.00,1.33
9965.00,1.33
9964.00,1.33
9963.00,1.33
9962.00,1.33
9961.00,1.33
9960.00,1.33
9959.00,1.32
9958.00,1.32
9957.00,1.31
9956.00,1.31
9955.00,1.30
9954.00,1.30
9953.00,1.29
9952.00,1.29
9951.00,1.28
9950.00,1.28
9949.00,1.27
9948.00,1.27
9947.00,1.27
9946.00,1.27
9945.00,1.27
9944.00,1.27
9943.00,1.27
9942.00,1.27
9941.00,1.27
9940.00,1.27
9939.00,1.27
9938.00,1.28
9937.00,1.28
9936.00,1.28
9935.00,1.28
9934.00,1.28
9933.00,1.28
9932.00,1.28
9931.00,1.28
9930.00,1.28
9929.00,1.28
9928.00,1.28
9927.00,1.28
9926.00,1.28
9925.00,1.28
9924.00,1.28
9923.00,1.28
9922.00,1.27
9921.00,1.27
9920.00,1.27
9919.00,1.27
9918.00,1.27
9917.00,1.27
9916.00,1.27
9915.00,1.26
9914.00,1.26
9913.00,1.27
9912.00,1.27
9911.00,1.27
9910.00,1.27
9909.00,1.27
9908.00,1.27
9907.00,1.27
9906.00,1.27
9905.00,1.28
9904.00,1.28
9903.00,1.28
9902.00,1.28
9901.00,1.28
9900.00,1.28
9899.00,1.28
9898.00,1.28
9897.00,1.28
9896.00,1.28
9895.00,1.28
9894.00,1.28
9893.00,1.28
9892.00,1.28
9891.00,1.28
9890.00,1.28
9889.00,1.28
9888.00,1.28
9887.00,1.28
9886.00,1.28
9885.00,1.28
9884.00,1.28
9883.00,1.28
9882.00,1.28
9881.00,1.28
9880.00,1.28
9879.00,1.28
9878.00,1.28
9877.00,1.28
9876.00,1.28
9875.00,1.28
9874.00,1.29
9873.00,1.29
9872.00,1.29
9871.00,1.29
9870.00,1.29
9869.00,1.30
9868.00,1.30
9867.00,1.30
9866.00,1.30
9865.00,1.30
9864.00,1.30
9863.00,1.31
9862.00,1.31
9861.00,1.31
9860.00,1.31
9859.00,1.31
9858.00,1.31
9857.00,1.31
9856.00,1.31
9855.00,1.30
9854.00,1.30
9853.00,1.30
9852.00,1.30
9851.00,1.29
9850.00,1.29
9849.00,1.29
9848.00,1.28
9847.00,1.28
9846.00,1.28
9845.00,1.27
9844.00,1.27
9843.00,1.26
9842.00,1.26
9841.00,1.26
9840.00,1.25
9839.00,1.25
9838.00,1.25
9837.00,1.24
9836.00,1.24
9835.00,1.24
9834.00,1.24
9833.00,1.23
9832.00,1.23
9831.00,1.23
9830.00,1.23
9829.00,1.23
9828.00,1.23
9827.00,1.23
9826.00,1.23
9825.00,1.23
9824.00,1.23
9823.00,1.24
9822.00,1.24
9821.00,1.24
9820.00,1.24
9819.00,1.24
9818.00,1.24
9817.00,1.25
9816.00,1.25
9815.00,1.25
9814.00,1.25
9813.00,1.25
9812.00,1.25
9811.00,1.25
9810.00,1.25
9809.00,1.25
9808.00,1.25
9807.00,1.26
9806.00,1.26
9805.00,1.26
9804.00,1.26
9803.00,1.26
9802.00,1.26
9801.00,1.26
9800.00,1.26
9799.00,1.26
9798.00,1.25
9797.00,1.25
9796.00,1.25
9795.00,1.25
9794.00,1.25
9793.00,1.25
9792.00,1.25
9791.00,1.25
9790.00,1.25
9789.00,1.25
9788.00,1.25
9787.00,1.25
9786.00,1.25
9785.00,1.25
9784.00,1.25
9783.00,1.25
9782.00,1.25
9781.00,1.26
9780.00,1.26
9779.00,1.26
9778.00,1.26
9777.00,1.27
9776.00,1.27
9775.00,1.27
9774.00,1.27
9773.00,1.28
9772.00,1.28
9771.00,1.28
9770.00,1.28
9769.00,1.29
9768.00,1.29
9767.00,1.29
9766.00,1.29
9765.00,1.29
9764.00,1.29
9763.00,1.29
9762.00,1.29
9761.00,1.29
9760.00,1.29
9759.00,1.28
9758.00,1.28
9757.00,1.28
9756.00,1.28
9755.00,1.28
9754.00,1.28
9753.00,1.28
9752.00,1.28
9751.00,1.27
9750.00,1.27
9749.00,1.27
9748.00,1.27
9747.00,1.27
9746.00,1.27
9745.00,1.27
9744.00,1.26
9743.00,1.26
9742.00,1.26
9741.00,1.26
9740.00,1.25
9739.00,1.25
9738.00,1.25
9737.00,1.24
9736.00,1.24
9735.00,1.24
9734.00,1.23
9733.00,1.23
9732.00,1.23
9731.00,1.23
9730.00,1.23
9729.00,1.23
9728.00,1.23
9727.00,1.23
9726.00,1.23
9725.00,1.23
9724.00,1.23
9723.00,1.23
9722.00,1.23
9721.00,1.24
9720.00,1.24
9719.00,1.24
9718.00,1.25
9717.00,1.25
9716.00,1.25
9715.00,1.25
9714.00,1.26
9713.00,1.26
9712.00,1.26
9711.00,1.27
9710.00,1.27
9709.00,1.27
9708.00,1.27
9707.00,1.27
9706.00,1.28
9705.00,1.28
9704.00,1.28
9703.00,1.28
9702.00,1.28
9701.00,1.28
9700.00,1.28
9699.00,1.28
9698.00,1.28
9697.00,1.28
9696.00,1.28
9695.00,1.29
9694.00,1.29
9693.00,1.29
9692.00,1.29
9691.00,1.29
9690.00,1.30
9689.00,1.30
9688.00,1.30
9687.00,1.30
9686.00,1.30
9685.00,1.31
9684.00,1.31
9683.00,1.31
9682.00,1.31
9681.00,1.31
9680.00,1.31
9679.00,1.31
9678.00,1.31
9677.00,1.31
9676.00,1.30
9675.00,1.30
9674.00,1.30
9673.00,1.30
9672.00,1.30
9671.00,1.30
9670.00,1.30
9669.00,1.29
9668.00,1.29
9667.00,1.29
9666.00,1.29
9665.00,1.29
9664.00,1.28
9663.00,1.28
9662.00,1.28
9661.00,1.28
9660.00,1.27
9659.00,1.27
9658.00,1.27
9657.00,1.27
9656.00,1.26
9655.00,1.26
9654.00,1.26
9653.00,1.26
9652.00,1.25
9651.00,1.25
9650.00,1.25
9649.00,1.25
9648.00,1.25
9647.00,1.25
9646.00,1.25
9645.00,1.25
9644.00,1.25
9643.00,1.25
9642.00,1.25
9641.00,1.25
9640.00,1.25
9639.00,1.25
9638.00,1.25
9637.00,1.25
9636.00,1.25
9635.00,1.25
9634.00,1.25
9633.00,1.25
9632.00,1.25
9631.00,1.25
9630.00,1.25
9629.00,1.25
9628.00,1.25
9627.00,1.25
9626.00,1.25
9625.00,1.25
9624.00,1.25
9623.00,1.26
9622.00,1.26
9621.00,1.26
9620.00,1.26
9619.00,1.26
9618.00,1.26
9617.00,1.27
9616.00,1.27
9615.00,1.27
9614.00,1.27
9613.00,1.27
9612.00,1.28
9611.00,1.28
9610.00,1.28
9609.00,1.28
9608.00,1.28
9607.00,1.28
9606.00,1.28
9605.00,1.28
9604.00,1.27
9603.00,1.27
9602.00,1.27
9601.00,1.27
9600.00,1.27
9599.00,1.26
9598.00,1.26
9597.00,1.26
9596.00,1.25
9595.00,1.25
9594.00,1.25
9593.00,1.25
9592.00,1.25
9591.00,1.25
9590.00,1.24
9589.00,1.24
9588.00,1.24
9587.00,1.24
9586.00,1.24
9585.00,1.24
9584.00,1.24
9583.00,1.25
9582.00,1.25
9581.00,1.25
9580.00,1.25
9579.00,1.25
9578.00,1.25
9577.00,1.25
9576.00,1.25
9575.00,1.25
9574.00,1.25
9573.00,1.25
9572.00,1.25
9571.00,1.25
9570.00,1.25
9569.00,1.25
9568.00,1.25
9567.00,1.26
9566.00,1.26
9565.00,1.26
9564.00,1.26
9563.00,1.26
9562.00,1.26
9561.00,1.26
9560.00,1.26
9559.00,1.26
9558.00,1.26
9557.00,1.27
9556.00,1.27
9555.00,1.26
9554.00,1.26
9553.00,1.26
9552.00,1.26
9551.00,1.26
9550.00,1.26
9549.00,1.26
9548.00,1.26
9547.00,1.26
9546.00,1.26
9545.00,1.26
9544.00,1.26
9543.00,1.27
9542.00,1.27
9541.00,1.27
9540.00,1.27
9539.00,1.27
9538.00,1.27
9537.00,1.27
9536.00,1.27
9535.00,1.27
9534.00,1.27
9533.00,1.28
9532.00,1.28
9531.00,1.28
9530.00,1.28
9529.00,1.28
9528.00,1.28
9527.00,1.28
9526.00,1.28
9525.00,1.28
9524.00,1.28
9523.00,1.28
9522.00,1.28
9521.00,1.28
9520.00,1.28
9519.00,1.28
9518.00,1.28
9517.00,1.28
9516.00,1.28
9515.00,1.27
9514.00,1.27
9513.00,1.27
9512.00,1.27
9511.00,1.27
9510.00,1.27
9509.00,1.27
9508.00,1.27
9507.00,1.28
9506.00,1.28
9505.00,1.28
9504.00,1.28
9503.00,1.28
9502.00,1.28
9501.00,1.28
9500.00,1.28
9499.00,1.28
9498.00,1.28
9497.00,1.28
9496.00,1.28
9495.00,1.28
9494.00,1.28
9493.00,1.28
9492.00,1.28
9491.00,1.28
9490.00,1.27
9489.00,1.27
9488.00,1.27
9487.00,1.27
9486.00,1.27
9485.00,1.26
9484.00,1.26
9483.00,1.26
9482.00,1.26
9481.00,1.26
9480.00,1.26
9479.00,1.26
9478.00,1.26
9477.00,1.26
9476.00,1.26
9475.00,1.26
9474.00,1.26
9473.00,1.26
9472.00,1.26
9471.00,1.26
9470.00,1.27
9469.00,1.27
9468.00,1.27
9467.00,1.27
9466.00,1.28
9465.00,1.28
9464.00,1.28
9463.00,1.28
9462.00,1.28
9461.00,1.29
9460.00,1.29
9459.00,1.29
9458.00,1.29
9457.00,1.29
9456.00,1.29
9455.00,1.29
9454.00,1.29
9453.00,1.28
9452.00,1.28
9451.00,1.28
9450.00,1.28
9449.00,1.28
9448.00,1.28
9447.00,1.27
9446.00,1.27
9445.00,1.27
9444.00,1.27
9443.00,1.27
9442.00,1.27
9441.00,1.27
9440.00,1.27
9439.00,1.27
9438.00,1.27
9437.00,1.28
9436.00,1.28
9435.00,1.28
9434.00,1.28
9433.00,1.28
9432.00,1.28
9431.00,1.28
9430.00,1.28
9429.00,1.28
9428.00,1.28
9427.00,1.28
9426.00,1.28
9425.00,1.28
9424.00,1.28
9423.00,1.28
9422.00,1.28
9421.00,1.28
9420.00,1.27
9419.00,1.27
9418.00,1.27
9417.00,1.27
9416.00,1.27
9415.00,1.27
9414.00,1.27
9413.00,1.27
9412.00,1.27
9411.00,1.27
9410.00,1.27
9409.00,1.27
9408.00,1.27
9407.00,1.27
9406.00,1.27
9405.00,1.27
9404.00,1.27
9403.00,1.27
9402.00,1.27
9401.00,1.27
9400.00,1.27
9399.00,1.27
9398.00,1.27
9397.00,1.27
9396.00,1.27
9395.00,1.27
9394.00,1.27
9393.00,1.27
9392.00,1.27
9391.00,1.27
9390.00,1.27
9389.00,1.27
9388.00,1.27
9387.00,1.27
9386.00,1.26
9385.00,1.26
9384.00,1.26
9383.00,1.26
9382.00,1.26
9381.00,1.26
9380.00,1.26
9379.00,1.26
9378.00,1.26
9377.00,1.27
9376.00,1.27
9375.00,1.27
9374.00,1.27
9373.00,1.27
9372.00,1.27
9371.00,1.27
9370.00,1.28
9369.00,1.28
9368.00,1.28
9367.00,1.28
9366.00,1.28
9365.00,1.29
9364.00,1.29
9363.00,1.29
9362.00,1.29
9361.00,1.30
9360.00,1.30
9359.00,1.30
9358.00,1.30
9357.00,1.30
9356.00,1.30
9355.00,1.31
9354.00,1.31
9353.00,1.31
9352.00,1.31
9351.00,1.31
9350.00,1.31
9349.00,1.31
9348.00,1.31
9347.00,1.30
9346.00,1.30
9345.00,1.30
9344.00,1.30
9343.00,1.30
9342.00,1.29
9341.00,1.29
9340.00,1.29
9339.00,1.28
9338.00,1.28
9337.00,1.27
9336.00,1.27
9335.00,1.27
9334.00,1.27
9333.00,1.26
9332.00,1.26
9331.00,1.26
9330.00,1.26
9329.00,1.26
9328.00,1.26
9327.00,1.26
9326.00,1.26
9325.00,1.26
9324.00,1.26
9323.00,1.26
9322.00,1.26
9321.00,1.27
9320.00,1.27
9319.00,1.27
9318.00,1.27
9317.00,1.27
9316.00,1.27
9315.00,1.28
9314.00,1.28
9313.00,1.28
9312.00,1.28
9311.00,1.28
9310.00,1.28
9309.00,1.28
9308.00,1.28
9307.00,1.28
9306.00,1.28
9305.00,1.28
9304.00,1.27
9303.00,1.27
9302.00,1.27
9301.00,1.27
9300.00,1.27
9299.00,1.27
9298.00,1.27
9297.00,1.27
9296.00,1.27
9295.00,1.27
9294.00,1.27
9293.00,1.27
9292.00,1.28
9291.00,1.28
9290.00,1.28
9289.00,1.28
9288.00,1.28
9287.00,1.28
9286.00,1.28
9285.00,1.28
9284.00,1.28
9283.00,1.28
9282.00,1.29
9281.00,1.29
9280.00,1.29
9279.00,1.29
9278.00,1.29
9277.00,1.29
9276.00,1.29
9275.00,1.29
9274.00,1.30
9273.00,1.30
9272.00,1.30
9271.00,1.30
9270.00,1.30
9269.00,1.29
9268.00,1.29
9267.00,1.29
9266.00,1.29
9265.00,1.28
9264.00,1.28
9263.00,1.28
9262.00,1.28
9261.00,1.27
9260.00,1.27
9259.00,1.27
9258.00,1.26
9257.00,1.26
9256.00,1.26
9255.00,1.26
9254.00,1.26
9253.00,1.26
9252.00,1.26
9251.00,1.26
9250.00,1.26
9249.00,1.26
9248.00,1.26
9247.00,1.26
9246.00,1.26
9245.00,1.26
9244.00,1.26
9243.00,1.26
9242.00,1.25
9241.00,1.25
9240.00,1.25
9239.00,1.25
9238.00,1.25
9237.00,1.25
9236.00,1.25
9235.00,1.26
9234.00,1.26
9233.00,1.26
9232.00,1.26
9231.00,1.26
9230.00,1.26
9229.00,1.26
9228.00,1.26
9227.00,1.26
9226.00,1.26
9225.00,1.27
9224.00,1.27
9223.00,1.27
9222.00,1.27
9221.00,1.27
9220.00,1.27
9219.00,1.27
9218.00,1.27
9217.00,1.27
9216.00,1.27
9215.00,1.27
9214.00,1.28
9213.00,1.28
9212.00,1.28
9211.00,1.28
9210.00,1.28
9209.00,1.28
9208.00,1.28
9207.00,1.28
9206.00,1.28
9205.00,1.29
9204.00,1.29
9203.00,1.29
9202.00,1.29
9201.00,1.29
9200.00,1.29
9199.00,1.29
9198.00,1.29
9197.00,1.29
9196.00,1.29
9195.00,1.29
9194.00,1.29
9193.00,1.29
9192.00,1.29
9191.00,1.29
9190.00,1.29
9189.00,1.29
9188.00,1.29
9187.00,1.28
9186.00,1.28
9185.00,1.29
9184.00,1.29
9183.00,1.29
9182.00,1.29
9181.00,1.29
9180.00,1.29
9179.00,1.29
9178.00,1.29
9177.00,1.29
9176.00,1.29
9175.00,1.29
9174.00,1.29
9173.00,1.29
9172.00,1.29
9171.00,1.29
9170.00,1.29
9169.00,1.29
9168.00,1.29
9167.00,1.29
9166.00,1.29
9165.00,1.28
9164.00,1.28
9163.00,1.28
9162.00,1.28
9161.00,1.27
9160.00,1.27
9159.00,1.27
9158.00,1.27
9157.00,1.26
9156.00,1.26
9155.00,1.26
9154.00,1.26
9153.00,1.26
9152.00,1.26
9151.00,1.26
9150.00,1.26
9149.00,1.26
9148.00,1.26
9147.00,1.27
9146.00,1.27
9145.00,1.27
9144.00,1.27
9143.00,1.27
9142.00,1.27
9141.00,1.27
9140.00,1.27
9139.00,1.27
9138.00,1.28
9137.00,1.28
9136.00,1.28
9135.00,1.28
9134.00,1.28
9133.00,1.28
9132.00,1.28
9131.00,1.28
9130.00,1.28
9129.00,1.28
9128.00,1.28
9127.00,1.28
9126.00,1.28
9125.00,1.28
9124.00,1.28
9123.00,1.28
9122.00,1.28
9121.00,1.28
9120.00,1.28
9119.00,1.29
9118.00,1.29
9117.00,1.29
9116.00,1.29
9115.00,1.29
9114.00,1.29
9113.00,1.29
9112.00,1.29
9111.00,1.29
9110.00,1.29
9109.00,1.29
9108.00,1.29
9107.00,1.29
9106.00,1.29
9105.00,1.29
9104.00,1.29
9103.00,1.29
9102.00,1.29
9101.00,1.29
9100.00,1.29
9099.00,1.29
9098.00,1.29
9097.00,1.29
9096.00,1.29
9095.00,1.29
9094.00,1.29
9093.00,1.29
9092.00,1.29
9091.00,1.29
9090.00,1.29
9089.00,1.29
9088.00,1.29
9087.00,1.29
9086.00,1.29
9085.00,1.29
9084.00,1.29
9083.00,1.29
9082.00,1.29
9081.00,1.29
9080.00,1.30
9079.00,1.30
9078.00,1.30
9077.00,1.30
9076.00,1.30
9075.00,1.30
9074.00,1.30
9073.00,1.30
9072.00,1.30
9071.00,1.30
9070.00,1.29
9069.00,1.29
9068.00,1.29
9067.00,1.29
9066.00,1.29
9065.00,1.29
9064.00,1.29
9063.00,1.29
9062.00,1.29
9061.00,1.30
9060.00,1.30
9059.00,1.30
9058.00,1.30
9057.00,1.30
9056.00,1.30
9055.00,1.30
9054.00,1.30
9053.00,1.31
9052.00,1.31
9051.00,1.31
9050.00,1.30
9049.00,1.30
9048.00,1.30
9047.00,1.30
9046.00,1.30
9045.00,1.30
9044.00,1.30
9043.00,1.30
9042.00,1.30
9041.00,1.30
9040.00,1.30
9039.00,1.30
9038.00,1.30
9037.00,1.30
9036.00,1.30
9035.00,1.30
9034.00,1.30
9033.00,1.30
9032.00,1.30
9031.00,1.30
9030.00,1.30
9029.00,1.30
9028.00,1.30
9027.00,1.30
9026.00,1.30
9025.00,1.30
9024.00,1.30
9023.00,1.30
9022.00,1.29
9021.00,1.29
9020.00,1.29
9019.00,1.29
9018.00,1.29
9017.00,1.29
9016.00,1.28
9015.00,1.28
9014.00,1.28
9013.00,1.28
9012.00,1.28
9011.00,1.28
9010.00,1.27
9009.00,1.27
9008.00,1.27
9007.00,1.27
9006.00,1.27
9005.00,1.27
9004.00,1.27
9003.00,1.27
9002.00,1.27
9001.00,1.27
9000.00,1.27
8999.00,1.27
8998.00,1.27
8997.00,1.27
8996.00,1.27
8995.00,1.27
8994.00,1.27
8993.00,1.27
8992.00,1.27
8991.00,1.27
8990.00,1.28
8989.00,1.28
8988.00,1.28
8987.00,1.28
8986.00,1.28
8985.00,1.28
8984.00,1.28
8983.00,1.28
8982.00,1.28
8981.00,1.28
8980.00,1.28
8979.00,1.27
8978.00,1.27
8977.00,1.27
8976.00,1.27
8975.00,1.27
8974.00,1.27
8973.00,1.27
8972.00,1.27
8971.00,1.27
8970.00,1.27
8969.00,1.27
8968.00,1.28
8967.00,1.28
8966.00,1.28
8965.00,1.28
8964.00,1.28
8963.00,1.28
8962.00,1.29
8961.00,1.29
8960.00,1.29
8959.00,1.29
8958.00,1.29
8957.00,1.30
8956.00,1.30
8955.00,1.30
8954.00,1.30
8953.00,1.30
8952.00,1.30
8951.00,1.30
8950.00,1.31
8949.00,1.31
8948.00,1.31
8947.00,1.31
8946.00,1.31
8945.00,1.31
8944.00,1.31
8943.00,1.31
8942.00,1.31
8941.00,1.30
8940.00,1.30
8939.00,1.30
8938.00,1.30
8937.00,1.30
8936.00,1.30
8935.00,1.30
8934.00,1.30
8933.00,1.30
8932.00,1.30
8931.00,1.30
8930.00,1.29
8929.00,1.29
8928.00,1.29
8927.00,1.29
8926.00,1.29
8925.00,1.29
8924.00,1.29
8923.00,1.30
8922.00,1.30
8921.00,1.30
8920.00,1.30
8919.00,1.30
8918.00,1.30
8917.00,1.30
8916.00,1.30
8915.00,1.30
8914.00,1.31
8913.00,1.31
8912.00,1.31
8911.00,1.31
8910.00,1.31
8909.00,1.31
8908.00,1.31
8907.00,1.31
8906.00,1.31
8905.00,1.31
8904.00,1.30
8903.00,1.30
8902.00,1.30
8901.00,1.30
8900.00,1.30
8899.00,1.30
8898.00,1.30
8897.00,1.30
8896.00,1.30
8895.00,1.30
8894.00,1.29
8893.00,1.29
8892.00,1.29
8891.00,1.29
8890.00,1.29
8889.00,1.29
8888.00,1.29
8887.00,1.29
8886.00,1.29
8885.00,1.29
8884.00,1.29
8883.00,1.29
8882.00,1.28
8881.00,1.28
8880.00,1.28
8879.00,1.28
8878.00,1.28
8877.00,1.28
8876.00,1.28
8875.00,1.28
8874.00,1.28
8873.00,1.28
8872.00,1.28
8871.00,1.28
8870.00,1.28
8869.00,1.28
8868.00,1.28
8867.00,1.28
8866.00,1.28
8865.00,1.28
8864.00,1.28
8863.00,1.28
8862.00,1.28
8861.00,1.28
8860.00,1.28
8859.00,1.28
8858.00,1.28
8857.00,1.28
8856.00,1.28
8855.00,1.28
8854.00,1.28
8853.00,1.28
8852.00,1.28
8851.00,1.28
8850.00,1.28
8849.00,1.28
8848.00,1.28
8847.00,1.28
8846.00,1.28
8845.00,1.28
8844.00,1.28
8843.00,1.28
8842.00,1.28
8841.00,1.28
8840.00,1.28
8839.00,1.28
8838.00,1.28
8837.00,1.28
8836.00,1.28
8835.00,1.28
8834.00,1.28
8833.00,1.28
8832.00,1.28
8831.00,1.28
8830.00,1.28
8829.00,1.28
8828.00,1.28
8827.00,1.28
8826.00,1.28
8825.00,1.28
8824.00,1.28
8823.00,1.28
8822.00,1.28
8821.00,1.29
8820.00,1.29
8819.00,1.29
8818.00,1.29
8817.00,1.29
8816.00,1.29
8815.00,1.29
8814.00,1.29
8813.00,1.29
8812.00,1.29
8811.00,1.30
8810.00,1.30
8809.00,1.30
8808.00,1.30
8807.00,1.30
8806.00,1.29
8805.00,1.29
8804.00,1.29
8803.00,1.29
8802.00,1.29
8801.00,1.29
8800.00,1.29
8799.00,1.29
8798.00,1.29
8797.00,1.29
8796.00,1.29
8795.00,1.29
8794.00,1.29
8793.00,1.29
8792.00,1.29
8791.00,1.29
8790.00,1.29
8789.00,1.29
8788.00,1.28
8787.00,1.28
8786.00,1.28
8785.00,1.28
8784.00,1.28
8783.00,1.27
8782.00,1.27
8781.00,1.27
8780.00,1.27
8779.00,1.27
8778.00,1.27
8777.00,1.27
8776.00,1.26
8775.00,1.26
8774.00,1.26
8773.00,1.26
8772.00,1.26
8771.00,1.26
8770.00,1.26
8769.00,1.26
8768.00,1.27
8767.00,1.27
8766.00,1.27
8765.00,1.27
8764.00,1.27
8763.00,1.27
8762.00,1.27
8761.00,1.27
8760.00,1.27
8759.00,1.27
8758.00,1.27
8757.00,1.26
8756.00,1.26
8755.00,1.26
8754.00,1.26
8753.00,1.26
8752.00,1.26
8751.00,1.26
8750.00,1.26
8749.00,1.26
8748.00,1.25
8747.00,1.25
8746.00,1.25
8745.00,1.25
8744.00,1.25
8743.00,1.25
8742.00,1.24
8741.00,1.24
8740.00,1.24
8739.00,1.24
8738.00,1.24
8737.00,1.24
8736.00,1.24
8735.00,1.24
8734.00,1.24
8733.00,1.23
8732.00,1.23
8731.00,1.23
8730.00,1.23
8729.00,1.23
8728.00,1.23
8727.00,1.23
8726.00,1.23
8725.00,1.23
8724.00,1.23
8723.00,1.24
8722.00,1.24
8721.00,1.24
8720.00,1.24
8719.00,1.24
8718.00,1.24
8717.00,1.24
8716.00,1.24
8715.00,1.24
8714.00,1.24
8713.00,1.24
8712.00,1.24
8711.00,1.24
8710.00,1.24
8709.00,1.24
8708.00,1.24
8707.00,1.24
8706.00,1.24
8705.00,1.24
8704.00,1.24
8703.00,1.23
8702.00,1.23
8701.00,1.23
8700.00,1.23
8699.00,1.23
8698.00,1.23
8697.00,1.23
8696.00,1.23
8695.00,1.23
8694.00,1.23
8693.00,1.23
8692.00,1.23
8691.00,1.23
8690.00,1.23
8689.00,1.23
8688.00,1.23
8687.00,1.23
8686.00,1.23
8685.00,1.23
8684.00,1.23
8683.00,1.23
8682.00,1.23
8681.00,1.23
8680.00,1.23
8679.00,1.23
8678.00,1.23
8677.00,1.23
8676.00,1.24
8675.00,1.24
8674.00,1.24
8673.00,1.24
8672.00,1.24
8671.00,1.24
8670.00,1.24
8669.00,1.23
8668.00,1.23
8667.00,1.23
8666.00,1.23
8665.00,1.23
8664.00,1.23
8663.00,1.23
8662.00,1.23
8661.00,1.23
8660.00,1.23
8659.00,1.22
8658.00,1.22
8657.00,1.22
8656.00,1.22
8655.00,1.22
8654.00,1.22
8653.00,1.22
8652.00,1.22
8651.00,1.21
8650.00,1.21
8649.00,1.21
8648.00,1.21
8647.00,1.21
8646.00,1.21
8645.00,1.21
8644.00,1.21
8643.00,1.21
8642.00,1.21
8641.00,1.21
8640.00,1.21
8639.00,1.21
8638.00,1.21
8637.00,1.21
8636.00,1.21
8635.00,1.21
8634.00,1.21
8633.00,1.22
8632.00,1.22
8631.00,1.22
8630.00,1.22
8629.00,1.22
8628.00,1.22
8627.00,1.22
8626.00,1.22
8625.00,1.22
8624.00,1.22
8623.00,1.22
8622.00,1.22
8621.00,1.22
8620.00,1.22
8619.00,1.22
8618.00,1.22
8617.00,1.22
8616.00,1.22
8615.00,1.22
8614.00,1.22
8613.00,1.22
8612.00,1.22
8611.00,1.22
8610.00,1.22
8609.00,1.22
8608.00,1.22
8607.00,1.22
8606.00,1.23
8605.00,1.23
8604.00,1.23
8603.00,1.23
8602.00,1.23
8601.00,1.23
8600.00,1.23
8599.00,1.23
8598.00,1.23
8597.00,1.23
8596.00,1.23
8595.00,1.23
8594.00,1.23
8593.00,1.23
8592.00,1.23
8591.00,1.23
8590.00,1.23
8589.00,1.23
8588.00,1.23
8587.00,1.23
8586.00,1.23
8585.00,1.23
8584.00,1.23
8583.00,1.22
8582.00,1.22
8581.00,1.22
8580.00,1.22
8579.00,1.22
8578.00,1.21
8577.00,1.21
8576.00,1.21
8575.00,1.21
8574.00,1.21
8573.00,1.20
8572.00,1.20
8571.00,1.20
8570.00,1.20
8569.00,1.20
8568.00,1.20
8567.00,1.20
8566.00,1.20
8565.00,1.20
8564.00,1.20
8563.00,1.19
8562.00,1.19
8561.00,1.19
8560.00,1.19
8559.00,1.19
8558.00,1.19
8557.00,1.19
8556.00,1.19
8555.00,1.19
8554.00,1.19
8553.00,1.19
8552.00,1.19
8551.00,1.19
8550.00,1.19
8549.00,1.19
8548.00,1.19
8547.00,1.19
8546.00,1.19
8545.00,1.19
8544.00,1.19
8543.00,1.19
8542.00,1.19
8541.00,1.18
8540.00,1.18
8539.00,1.18
8538.00,1.18
8537.00,1.18
8536.00,1.18
8535.00,1.18
8534.00,1.18
8533.00,1.17
8532.00,1.17
8531.00,1.17
8530.00,1.17
8529.00,1.17
8528.00,1.17
8527.00,1.17
8526.00,1.17
8525.00,1.17
8524.00,1.17
8523.00,1.17
8522.00,1.17
8521.00,1.17
8520.00,1.17
8519.00,1.17
8518.00,1.17
8517.00,1.17
8516.00,1.18
8515.00,1.18
8514.00,1.18
8513.00,1.18
8512.00,1.18
8511.00,1.18
8510.00,1.18
8509.00,1.18
8508.00,1.18
8507.00,1.18
8506.00,1.18
8505.00,1.18
8504.00,1.18
8503.00,1.18
8502.00,1.19
8501.00,1.19
8500.00,1.19
8499.00,1.19
8498.00,1.19
8497.00,1.19
8496.00,1.19
8495.00,1.19
8494.00,1.19
8493.00,1.19
8492.00,1.19
8491.00,1.18
8490.00,1.18
8489.00,1.18
8488.00,1.18
8487.00,1.18
8486.00,1.17
8485.00,1.17
8484.00,1.17
8483.00,1.17
8482.00,1.16
8481.00,1.16
8480.00,1.16
8479.00,1.16
8478.00,1.16
8477.00,1.16
8476.00,1.15
8475.00,1.15
8474.00,1.15
8473.00,1.16
8472.00,1.16
8471.00,1.16
8470.00,1.16
8469.00,1.16
8468.00,1.16
8467.00,1.16
8466.00,1.17
8465.00,1.17
8464.00,1.17
8463.00,1.17
8462.00,1.17
8461.00,1.17
8460.00,1.17
8459.00,1.17
8458.00,1.17
8457.00,1.17
8456.00,1.17
8455.00,1.17
8454.00,1.17
8453.00,1.17
8452.00,1.17
8451.00,1.17
8450.00,1.17
8449.00,1.16
8448.00,1.16
8447.00,1.16
8446.00,1.16
8445.00,1.16
8444.00,1.16
8443.00,1.16
8442.00,1.16
8441.00,1.16
8440.00,1.16
8439.00,1.16
8438.00,1.16
8437.00,1.16
8436.00,1.16
8435.00,1.16
8434.00,1.16
8433.00,1.16
8432.00,1.17
8431.00,1.17
8430.00,1.17
8429.00,1.17
8428.00,1.17
8427.00,1.17
8426.00,1.17
8425.00,1.18
8424.00,1.18
8423.00,1.18
8422.00,1.18
8421.00,1.18
8420.00,1.18
8419.00,1.18
8418.00,1.18
8417.00,1.18
8416.00,1.18
8415.00,1.18
8414.00,1.18
8413.00,1.18
8412.00,1.18
8411.00,1.18
8410.00,1.18
8409.00,1.18
8408.00,1.18
8407.00,1.18
8406.00,1.18
8405.00,1.18
8404.00,1.18
8403.00,1.18
8402.00,1.18
8401.00,1.18
8400.00,1.18
8399.00,1.18
8398.00,1.18
8397.00,1.18
8396.00,1.18
8395.00,1.18
8394.00,1.18
8393.00,1.18
8392.00,1.18
8391.00,1.18
8390.00,1.18
8389.00,1.18
8388.00,1.18
8387.00,1.18
8386.00,1.18
8385.00,1.18
8384.00,1.17
8383.00,1.17
8382.00,1.17
8381.00,1.17
8380.00,1.17
8379.00,1.17
8378.00,1.17
8377.00,1.17
8376.00,1.17
8375.00,1.17
8374.00,1.17
8373.00,1.17
8372.00,1.17
8371.00,1.17
8370.00,1.17
8369.00,1.17
8368.00,1.17
8367.00,1.17
8366.00,1.17
8365.00,1.17
8364.00,1.17
8363.00,1.18
8362.00,1.18
8361.00,1.18
8360.00,1.18
8359.00,1.18
8358.00,1.18
8357.00,1.18
8356.00,1.18
8355.00,1.19
8354.00,1.19
8353.00,1.19
8352.00,1.19
8351.00,1.19
8350.00,1.19
8349.00,1.19
8348.00,1.19
8347.00,1.19
8346.00,1.19
8345.00,1.19
8344.00,1.20
8343.00,1.20
8342.00,1.20
8341.00,1.20
8340.00,1.20
8339.00,1.20
8338.00,1.20
8337.00,1.20
8336.00,1.20
8335.00,1.20
8334.00,1.20
8333.00,1.20
8332.00,1.20
8331.00,1.20
8330.00,1.20
8329.00,1.20
8328.00,1.20
8327.00,1.20
8326.00,1.20
8325.00,1.20
8324.00,1.20
8323.00,1.20
8322.00,1.20
8321.00,1.20
8320.00,1.20
8319.00,1.20
8318.00,1.20
8317.00,1.21
8316.00,1.21
8315.00,1.20
8314.00,1.20
8313.00,1.20
8312.00,1.20
8311.00,1.20
8310.00,1.20
8309.00,1.20
8308.00,1.20
8307.00,1.20
8306.00,1.20
8305.00,1.20
8304.00,1.20
8303.00,1.20
8302.00,1.20
8301.00,1.20
8300.00,1.20
8299.00,1.20
8298.00,1.20
8297.00,1.19
8296.00,1.19
8295.00,1.19
8294.00,1.19
8293.00,1.19
8292.00,1.19
8291.00,1.19
8290.00,1.19
8289.00,1.19
8288.00,1.19
8287.00,1.19
8286.00,1.19
8285.00,1.19
8284.00,1.19
8283.00,1.19
8282.00,1.19
8281.00,1.19
8280.00,1.19
8279.00,1.19
8278.00,1.19
8277.00,1.19
8276.00,1.19
8275.00,1.19
8274.00,1.19
8273.00,1.19
8272.00,1.19
8271.00,1.20
8270.00,1.20
8269.00,1.20
8268.00,1.20
8267.00,1.20
8266.00,1.20
8265.00,1.20
8264.00,1.21
8263.00,1.21
8262.00,1.21
8261.00,1.21
8260.00,1.21
8259.00,1.21
8258.00,1.21
8257.00,1.21
8256.00,1.21
8255.00,1.21
8254.00,1.21
8253.00,1.21
8252.00,1.21
8251.00,1.21
8250.00,1.21
8249.00,1.21
8248.00,1.21
8247.00,1.21
8246.00,1.20
8245.00,1.20
8244.00,1.20
8243.00,1.20
8242.00,1.20
8241.00,1.20
8240.00,1.20
8239.00,1.20
8238.00,1.20
8237.00,1.21
8236.00,1.21
8235.00,1.21
8234.00,1.21
8233.00,1.21
8232.00,1.21
8231.00,1.21
8230.00,1.21
8229.00,1.21
8228.00,1.21
8227.00,1.21
8226.00,1.21
8225.00,1.21
8224.00,1.21
8223.00,1.21
8222.00,1.21
8221.00,1.21
8220.00,1.21
8219.00,1.21
8218.00,1.21
8217.00,1.21
8216.00,1.21
8215.00,1.21
8214.00,1.21
8213.00,1.21
8212.00,1.22
8211.00,1.22
8210.00,1.22
8209.00,1.22
8208.00,1.22
8207.00,1.22
8206.00,1.23
8205.00,1.23
8204.00,1.23
8203.00,1.23
8202.00,1.23
8201.00,1.23
8200.00,1.23
8199.00,1.23
8198.00,1.23
8197.00,1.23
8196.00,1.23
8195.00,1.22
8194.00,1.22
8193.00,1.22
8192.00,1.22
8191.00,1.22
8190.00,1.22
8189.00,1.22
8188.00,1.22
8187.00,1.22
8186.00,1.22
8185.00,1.22
8184.00,1.23
8183.00,1.23
8182.00,1.23
8181.00,1.23
8180.00,1.23
8179.00,1.23
8178.00,1.23
8177.00,1.23
8176.00,1.23
8175.00,1.23
8174.00,1.23
8173.00,1.23
8172.00,1.23
8171.00,1.23
8170.00,1.23
8169.00,1.23
8168.00,1.23
8167.00,1.24
8166.00,1.24
8165.00,1.24
8164.00,1.24
8163.00,1.24
8162.00,1.24
8161.00,1.24
8160.00,1.24
8159.00,1.24
8158.00,1.24
8157.00,1.24
8156.00,1.24
8155.00,1.24
8154.00,1.24
8153.00,1.24
8152.00,1.24
8151.00,1.24
8150.00,1.24
8149.00,1.25
8148.00,1.25
8147.00,1.25
8146.00,1.25
8145.00,1.25
8144.00,1.25
8143.00,1.25
8142.00,1.25
8141.00,1.25
8140.00,1.25
8139.00,1.25
8138.00,1.25
8137.00,1.25
8136.00,1.25
8135.00,1.25
8134.00,1.25
8133.00,1.26
8132.00,1.25
8131.00,1.25
8130.00,1.25
8129.00,1.25
8128.00,1.25
8127.00,1.25
8126.00,1.25
8125.00,1.25
8124.00,1.25
8123.00,1.25
8122.00,1.25
8121.00,1.25
8120.00,1.25
8119.00,1.25
8118.00,1.25
8117.00,1.25
8116.00,1.24
8115.00,1.24
8114.00,1.24
8113.00,1.24
8112.00,1.24
8111.00,1.24
8110.00,1.24
8109.00,1.24
8108.00,1.24
8107.00,1.24
8106.00,1.24
8105.00,1.24
8104.00,1.24
8103.00,1.24
8102.00,1.24
8101.00,1.25
8100.00,1.25
8099.00,1.25
8098.00,1.25
8097.00,1.25
8096.00,1.25
8095.00,1.25
8094.00,1.25
8093.00,1.25
8092.00,1.25
8091.00,1.25
8090.00,1.25
8089.00,1.25
8088.00,1.25
8087.00,1.25
8086.00,1.25
8085.00,1.25
8084.00,1.25
8083.00,1.25
8082.00,1.25
8081.00,1.25
8080.00,1.25
8079.00,1.25
8078.00,1.25
8077.00,1.26
8076.00,1.26
8075.00,1.26
8074.00,1.26
8073.00,1.26
8072.00,1.26
8071.00,1.26
8070.00,1.26
8069.00,1.26
8068.00,1.26
8067.00,1.26
8066.00,1.26
8065.00,1.26
8064.00,1.26
8063.00,1.26
8062.00,1.26
8061.00,1.26
8060.00,1.26
8059.00,1.26
8058.00,1.26
8057.00,1.26
8056.00,1.26
8055.00,1.26
8054.00,1.26
8053.00,1.26
8052.00,1.26
8051.00,1.26
8050.00,1.26
8049.00,1.26
8048.00,1.26
8047.00,1.26
8046.00,1.26
8045.00,1.26
8044.00,1.26
8043.00,1.27
8042.00,1.27
8041.00,1.27
8040.00,1.27
8039.00,1.27
8038.00,1.27
8037.00,1.27
8036.00,1.27
8035.00,1.27
8034.00,1.27
8033.00,1.27
8032.00,1.27
8031.00,1.27
8030.00,1.27
8029.00,1.27
8028.00,1.27
8027.00,1.27
8026.00,1.27
8025.00,1.27
8024.00,1.27
8023.00,1.27
8022.00,1.27
8021.00,1.27
8020.00,1.27
8019.00,1.27
8018.00,1.27
8017.00,1.27
8016.00,1.27
8015.00,1.27
8014.00,1.27
8013.00,1.27
8012.00,1.27
8011.00,1.27
8010.00,1.27
8009.00,1.27
8008.00,1.27
8007.00,1.27
8006.00,1.27
8005.00,1.27
8004.00,1.27
8003.00,1.27
8002.00,1.27
8001.00,1.27
8000.00,1.27
7999.00,1.27
7998.00,1.27
7997.00,1.27
7996.00,1.27
7995.00,1.27
7994.00,1.27
7993.00,1.27
7992.00,1.27
7991.00,1.27
7990.00,1.27
7989.00,1.27
7988.00,1.27
7987.00,1.27
7986.00,1.27
7985.00,1.27
7984.00,1.27
7983.00,1.27
7982.00,1.27
7981.00,1.27
7980.00,1.27
7979.00,1.27
7978.00,1.27
7977.00,1.27
7976.00,1.27
7975.00,1.27
7974.00,1.27
7973.00,1.27
7972.00,1.27
7971.00,1.27
7970.00,1.27
7969.00,1.27
7968.00,1.27
7967.00,1.27
7966.00,1.28
7965.00,1.28
7964.00,1.28
7963.00,1.28
7962.00,1.28
7961.00,1.28
7960.00,1.28
7959.00,1.28
7958.00,1.28
7957.00,1.28
7956.00,1.28
7955.00,1.28
7954.00,1.28
7953.00,1.28
7952.00,1.28
7951.00,1.27
7950.00,1.27
7949.00,1.27
7948.00,1.27
7947.00,1.27
7946.00,1.27
7945.00,1.27
7944.00,1.27
7943.00,1.27
7942.00,1.27
7941.00,1.27
7940.00,1.27
7939.00,1.27
7938.00,1.27
7937.00,1.27
7936.00,1.28
7935.00,1.28
7934.00,1.28
7933.00,1.28
7932.00,1.28
7931.00,1.28
7930.00,1.28
7929.00,1.28
7928.00,1.28
7927.00,1.28
7926.00,1.28
7925.00,1.28
7924.00,1.28
7923.00,1.28
7922.00,1.28
7921.00,1.28
7920.00,1.28
7919.00,1.28
7918.00,1.28
7917.00,1.28
7916.00,1.28
7915.00,1.28
7914.00,1.28
7913.00,1.28
7912.00,1.28
7911.00,1.28
7910.00,1.28
7909.00,1.28
7908.00,1.28
7907.00,1.28
7906.00,1.28
7905.00,1.28
7904.00,1.28
7903.00,1.28
7902.00,1.28
7901.00,1.28
7900.00,1.28
7899.00,1.28
7898.00,1.28
7897.00,1.28
7896.00,1.28
7895.00,1.28
7894.00,1.28
7893.00,1.28
7892.00,1.28
7891.00,1.28
7890.00,1.28
7889.00,1.28
7888.00,1.28
7887.00,1.28
7886.00,1.28
7885.00,1.28
7884.00,1.28
7883.00,1.28
7882.00,1.28
7881.00,1.28
7880.00,1.28
7879.00,1.28
7878.00,1.28
7877.00,1.28
7876.00,1.28
7875.00,1.28
7874.00,1.28
7873.00,1.28
7872.00,1.28
7871.00,1.28
7870.00,1.28
7869.00,1.28
7868.00,1.28
7867.00,1.28
7866.00,1.28
7865.00,1.28
7864.00,1.28
7863.00,1.28
7862.00,1.28
7861.00,1.28
7860.00,1.28
7859.00,1.29
7858.00,1.29
7857.00,1.29
7856.00,1.29
7855.00,1.29
7854.00,1.29
7853.00,1.29
7852.00,1.29
7851.00,1.29
7850.00,1.29
7849.00,1.29
7848.00,1.29
7847.00,1.30
7846.00,1.30
7845.00,1.30
7844.00,1.30
7843.00,1.30
7842.00,1.30
7841.00,1.30
7840.00,1.30
7839.00,1.30
7838.00,1.30
7837.00,1.30
7836.00,1.30
7835.00,1.30
7834.00,1.30
7833.00,1.30
7832.00,1.30
7831.00,1.30
7830.00,1.30
7829.00,1.30
7828.00,1.30
7827.00,1.30
7826.00,1.30
7825.00,1.30
7824.00,1.30
7823.00,1.30
7822.00,1.30
7821.00,1.29
7820.00,1.29
7819.00,1.30
7818.00,1.30
7817.00,1.30
7816.00,1.30
7815.00,1.30
7814.00,1.30
7813.00,1.30
7812.00,1.30
7811.00,1.30
7810.00,1.30
7809.00,1.30
7808.00,1.30
7807.00,1.30
7806.00,1.30
7805.00,1.30
7804.00,1.30
7803.00,1.30
7802.00,1.30
7801.00,1.30
7800.00,1.30
7799.00,1.30
7798.00,1.30
7797.00,1.30
7796.00,1.30
7795.00,1.30
7794.00,1.30
7793.00,1.30
7792.00,1.30
7791.00,1.30
7790.00,1.30
7789.00,1.30
7788.00,1.30
7787.00,1.30
7786.00,1.30
7785.00,1.30
7784.00,1.30
7783.00,1.30
7782.00,1.29
7781.00,1.29
7780.00,1.29
7779.00,1.29
7778.00,1.29
7777.00,1.29
7776.00,1.29
7775.00,1.29
7774.00,1.29
7773.00,1.29
7772.00,1.30
7771.00,1.30
7770.00,1.30
7769.00,1.30
7768.00,1.30
7767.00,1.30
7766.00,1.30
7765.00,1.30
7764.00,1.30
7763.00,1.30
7762.00,1.30
7761.00,1.30
7760.00,1.30
7759.00,1.30
7758.00,1.30
7757.00,1.30
7756.00,1.30
7755.00,1.30
7754.00,1.30
7753.00,1.30
7752.00,1.30
7751.00,1.30
7750.00,1.30
7749.00,1.30
7748.00,1.30
7747.00,1.30
7746.00,1.30
7745.00,1.30
7744.00,1.30
7743.00,1.30
7742.00,1.30
7741.00,1.31
7740.00,1.31
7739.00,1.31
7738.00,1.31
7737.00,1.31
7736.00,1.31
7735.00,1.31
7734.00,1.31
7733.00,1.31
7732.00,1.31
7731.00,1.31
7730.00,1.31
7729.00,1.31
7728.00,1.31
7727.00,1.31
7726.00,1.31
7725.00,1.31
7724.00,1.31
7723.00,1.30
7722.00,1.30
7721.00,1.30
7720.00,1.30
7719.00,1.30
7718.00,1.30
7717.00,1.30
7716.00,1.30
7715.00,1.30
7714.00,1.29
7713.00,1.29
7712.00,1.29
7711.00,1.29
7710.00,1.29
7709.00,1.29
7708.00,1.29
7707.00,1.29
7706.00,1.29
7705.00,1.29
7704.00,1.30
7703.00,1.30
7702.00,1.30
7701.00,1.30
7700.00,1.30
7699.00,1.30
7698.00,1.30
7697.00,1.30
7696.00,1.30
7695.00,1.30
7694.00,1.30
7693.00,1.30
7692.00,1.30
7691.00,1.30
7690.00,1.30
7689.00,1.30
7688.00,1.30
7687.00,1.30
7686.00,1.30
7685.00,1.31
7684.00,1.31
7683.00,1.31
7682.00,1.31
7681.00,1.31
7680.00,1.31
7679.00,1.31
7678.00,1.31
7677.00,1.31
7676.00,1.31
7675.00,1.31
7674.00,1.31
7673.00,1.31
7672.00,1.31
7671.00,1.31
7670.00,1.31
7669.00,1.31
7668.00,1.31
7667.00,1.31
7666.00,1.30
7665.00,1.30
7664.00,1.30
7663.00,1.30
7662.00,1.30
7661.00,1.30
7660.00,1.30
7659.00,1.30
7658.00,1.30
7657.00,1.30
7656.00,1.30
7655.00,1.30
7654.00,1.30
7653.00,1.30
7652.00,1.30
7651.00,1.31
7650.00,1.31
7649.00,1.31
7648.00,1.31
7647.00,1.31
7646.00,1.31
7645.00,1.31
7644.00,1.31
7643.00,1.31
7642.00,1.31
7641.00,1.31
7640.00,1.31
7639.00,1.31
7638.00,1.31
7637.00,1.31
7636.00,1.31
7635.00,1.31
7634.00,1.30
7633.00,1.30
7632.00,1.30
7631.00,1.30
7630.00,1.30
7629.00,1.30
7628.00,1.30
7627.00,1.30
7626.00,1.30
7625.00,1.30
7624.00,1.30
7623.00,1.30
7622.00,1.30
7621.00,1.30
7620.00,1.30
7619.00,1.30
7618.00,1.30
7617.00,1.30
7616.00,1.30
7615.00,1.30
7614.00,1.30
7613.00,1.30
7612.00,1.30
7611.00,1.30
7610.00,1.31
7609.00,1.31
7608.00,1.31
7607.00,1.31
7606.00,1.31
7605.00,1.31
7604.00,1.31
7603.00,1.31
7602.00,1.31
7601.00,1.31
7600.00,1.31
7599.00,1.31
7598.00,1.31
7597.00,1.30
7596.00,1.30
7595.00,1.30
7594.00,1.30
7593.00,1.30
7592.00,1.30
7591.00,1.30
7590.00,1.30
7589.00,1.29
7588.00,1.29
7587.00,1.29
7586.00,1.29
7585.00,1.29
7584.00,1.29
7583.00,1.29
7582.00,1.29
7581.00,1.29
7580.00,1.29
7579.00,1.28
7578.00,1.28
7577.00,1.28
7576.00,1.28
7575.00,1.28
7574.00,1.28
7573.00,1.28
7572.00,1.28
7571.00,1.28
7570.00,1.28
7569.00,1.28
7568.00,1.28
7567.00,1.29
7566.00,1.29
7565.00,1.29
7564.00,1.29
7563.00,1.29
7562.00,1.29
7561.00,1.29
7560.00,1.29
7559.00,1.29
7558.00,1.29
7557.00,1.29
7556.00,1.29
7555.00,1.29
7554.00,1.29
7553.00,1.29
7552.00,1.29
7551.00,1.29
7550.00,1.29
7549.00,1.29
7548.00,1.29
7547.00,1.29
7546.00,1.29
7545.00,1.29
7544.00,1.29
7543.00,1.29
7542.00,1.28
7541.00,1.28
7540.00,1.28
7539.00,1.28
7538.00,1.28
7537.00,1.28
7536.00,1.28
7535.00,1.28
7534.00,1.28
7533.00,1.28
7532.00,1.28
7531.00,1.28
7530.00,1.28
7529.00,1.27
7528.00,1.27
7527.00,1.27
7526.00,1.27
7525.00,1.27
7524.00,1.27
7523.00,1.27
7522.00,1.27
7521.00,1.27
7520.00,1.27
7519.00,1.27
7518.00,1.27
7517.00,1.27
7516.00,1.27
7515.00,1.27
7514.00,1.27
7513.00,1.27
7512.00,1.27
7511.00,1.27
7510.00,1.27
7509.00,1.27
7508.00,1.27
7507.00,1.26
7506.00,1.26
7505.00,1.26
7504.00,1.26
7503.00,1.26
7502.00,1.26
7501.00,1.26
7500.00,1.26
7499.00,1.26
7498.00,1.26
7497.00,1.26
7496.00,1.26
7495.00,1.26
7494.00,1.26
7493.00,1.26
7492.00,1.26
7491.00,1.26
7490.00,1.26
7489.00,1.26
7488.00,1.26
7487.00,1.26
7486.00,1.26
7485.00,1.25
7484.00,1.25
7483.00,1.25
7482.00,1.25
7481.00,1.25
7480.00,1.25
7479.00,1.25
7478.00,1.25
7477.00,1.25
7476.00,1.25
7475.00,1.25
7474.00,1.25
7473.00,1.25
7472.00,1.25
7471.00,1.25
7470.00,1.25
7469.00,1.25
7468.00,1.25
7467.00,1.25
7466.00,1.25
7465.00,1.25
7464.00,1.25
7463.00,1.25
7462.00,1.25
7461.00,1.25
7460.00,1.25
7459.00,1.25
7458.00,1.25
7457.00,1.25
7456.00,1.25
7455.00,1.25
7454.00,1.25
7453.00,1.25
7452.00,1.25
7451.00,1.25
7450.00,1.25
7449.00,1.25
7448.00,1.25
7447.00,1.25
7446.00,1.25
7445.00,1.25
7444.00,1.25
7443.00,1.25
7442.00,1.25
7441.00,1.25
7440.00,1.25
7439.00,1.25
7438.00,1.24
7437.00,1.24
7436.00,1.24
7435.00,1.24
7434.00,1.24
7433.00,1.24
7432.00,1.24
7431.00,1.24
7430.00,1.24
7429.00,1.23
7428.00,1.23
7427.00,1.23
7426.00,1.23
7425.00,1.23
7424.00,1.23
7423.00,1.23
7422.00,1.23
7421.00,1.23
7420.00,1.23
7419.00,1.23
7418.00,1.23
7417.00,1.23
7416.00,1.23
7415.00,1.23
7414.00,1.23
7413.00,1.23
7412.00,1.23
7411.00,1.23
7410.00,1.23
7409.00,1.22
7408.00,1.22
7407.00,1.22
7406.00,1.22
7405.00,1.22
7404.00,1.22
7403.00,1.22
7402.00,1.22
7401.00,1.22
7400.00,1.21
7399.00,1.21
7398.00,1.21
7397.00,1.21
7396.00,1.21
7395.00,1.21
7394.00,1.20
7393.00,1.20
7392.00,1.20
7391.00,1.20
7390.00,1.20
7389.00,1.20
7388.00,1.20
7387.00,1.20
7386.00,1.20
7385.00,1.20
7384.00,1.19
7383.00,1.19
7382.00,1.19
7381.00,1.19
7380.00,1.19
7379.00,1.19
7378.00,1.19
7377.00,1.19
7376.00,1.19
7375.00,1.19
7374.00,1.19
7373.00,1.19
7372.00,1.19
7371.00,1.19
7370.00,1.19
7369.00,1.19
7368.00,1.19
7367.00,1.19
7366.00,1.19
7365.00,1.19
7364.00,1.19
7363.00,1.19
7362.00,1.19
7361.00,1.19
7360.00,1.19
7359.00,1.19
7358.00,1.19
7357.00,1.19
7356.00,1.19
7355.00,1.19
7354.00,1.19
7353.00,1.19
7352.00,1.19
7351.00,1.19
7350.00,1.19
7349.00,1.19
7348.00,1.19
7347.00,1.19
7346.00,1.19
7345.00,1.19
7344.00,1.19
7343.00,1.18
7342.00,1.18
7341.00,1.18
7340.00,1.18
7339.00,1.18
7338.00,1.18
7337.00,1.18
7336.00,1.18
7335.00,1.18
7334.00,1.18
7333.00,1.18
7332.00,1.18
7331.00,1.18
7330.00,1.18
7329.00,1.18
7328.00,1.18
7327.00,1.18
7326.00,1.18
7325.00,1.18
7324.00,1.18
7323.00,1.18
7322.00,1.18
7321.00,1.17
7320.00,1.17
7319.00,1.17
7318.00,1.17
7317.00,1.17
7316.00,1.17
7315.00,1.17
7314.00,1.17
7313.00,1.16
7312.00,1.16
7311.00,1.16
7310.00,1.16
7309.00,1.16
7308.00,1.16
7307.00,1.16
7306.00,1.16
7305.00,1.16
7304.00,1.16
7303.00,1.16
7302.00,1.15
7301.00,1.15
7300.00,1.15
7299.00,1.15
7298.00,1.15
7297.00,1.15
7296.00,1.15
7295.00,1.15
7294.00,1.15
7293.00,1.15
7292.00,1.15
7291.00,1.15
7290.00,1.15
7289.00,1.14
7288.00,1.14
7287.00,1.14
7286.00,1.14
7285.00,1.14
7284.00,1.14
7283.00,1.14
7282.00,1.14
7281.00,1.13
7280.00,1.13
7279.00,1.13
7278.00,1.13
7277.00,1.13
7276.00,1.13
7275.00,1.13
7274.00,1.13
7273.00,1.13
7272.00,1.13
7271.00,1.12
7270.00,1.12
7269.00,1.12
7268.00,1.12
7267.00,1.12
7266.00,1.12
7265.00,1.12
7264.00,1.12
7263.00,1.12
7262.00,1.11
7261.00,1.11
7260.00,1.11
7259.00,1.11
7258.00,1.11
7257.00,1.10
7256.00,1.10
7255.00,1.10
7254.00,1.09
7253.00,1.09
7252.00,1.09
7251.00,1.09
7250.00,1.08
7249.00,1.08
7248.00,1.08
7247.00,1.08
7246.00,1.07
7245.00,1.07
7244.00,1.07
7243.00,1.07
7242.00,1.06
7241.00,1.06
7240.00,1.06
7239.00,1.06
7238.00,1.06
7237.00,1.05
7236.00,1.05
7235.00,1.05
7234.00,1.05
7233.00,1.04
7232.00,1.04
7231.00,1.04
7230.00,1.03
7229.00,1.03
7228.00,1.03
7227.00,1.02
7226.00,1.02
7225.00,1.02
7224.00,1.01
7223.00,1.01
7222.00,1.01
7221.00,1.00
7220.00,1.00
7219.00,0.99
7218.00,0.99
7217.00,0.99
7216.00,0.98
7215.00,0.98
7214.00,0.97
7213.00,0.97
7212.00,0.96
7211.00,0.96
7210.00,0.96
7209.00,0.95
7208.00,0.95
7207.00,0.94
7206.00,0.94
7205.00,0.94
7204.00,0.93
7203.00,0.93
7202.00,0.93
7201.00,0.93
7200.00,0.92
7199.00,0.92
7198.00,0.92
7197.00,0.92
7196.00,0.91
7195.00,0.91
7194.00,0.91
7193.00,0.91
7192.00,0.90
7191.00,0.90
7190.00,0.90
7189.00,0.90
7188.00,0.89
7187.00,0.89
7186.00,0.89
7185.00,0.88
7184.00,0.88
7183.00,0.88
7182.00,0.87
7181.00,0.87
7180.00,0.87
7179.00,0.86
7178.00,0.86
7177.00,0.85
7176.00,0.85
7175.00,0.85
7174.00,0.84
7173.00,0.84
7172.00,0.84
7171.00,0.83
7170.00,0.83
7169.00,0.83
7168.00,0.82
7167.00,0.82
7166.00,0.82
7165.00,0.81
7164.00,0.81
7163.00,0.81
7162.00,0.80
7161.00,0.80
7160.00,0.80
7159.00,0.79
7158.00,0.79
7157.00,0.79
7156.00,0.78
7155.00,0.78
7154.00,0.78
7153.00,0.78
7152.00,0.78
7151.00,0.77
7150.00,0.77
7149.00,0.77
7148.00,0.77
7147.00,0.77
7146.00,0.76
7145.00,0.76
7144.00,0.76
7143.00,0.76
7142.00,0.76
7141.00,0.75
7140.00,0.75
7139.00,0.75
7138.00,0.74
7137.00,0.74
7136.00,0.74
7135.00,0.73
7134.00,0.73
7133.00,0.73
7132.00,0.73
7131.00,0.72
7130.00,0.72
7129.00,0.72
7128.00,0.72
7127.00,0.71
7126.00,0.71
7125.00,0.71
7124.00,0.71
7123.00,0.71
7122.00,0.70
7121.00,0.70
7120.00,0.70
7119.00,0.70
7118.00,0.69
7117.00,0.69
7116.00,0.69
7115.00,0.69
7114.00,0.69
7113.00,0.68
7112.00,0.68
7111.00,0.68
7110.00,0.68
7109.00,0.68
7108.00,0.67
7107.00,0.67
7106.00,0.67
7105.00,0.67
7104.00,0.67
7103.00,0.67
7102.00,0.67
7101.00,0.66
7100.00,0.66
7099.00,0.66
7098.00,0.66
7097.00,0.66
7096.00,0.66
7095.00,0.66
7094.00,0.66
7093.00,0.66
7092.00,0.66
7091.00,0.66
7090.00,0.66
7089.00,0.66
7088.00,0.65
7087.00,0.65
7086.00,0.65
7085.00,0.65
7084.00,0.65
7083.00,0.65
7082.00,0.65
7081.00,0.64
7080.00,0.64
7079.00,0.64
7078.00,0.64
7077.00,0.64
7076.00,0.63
7075.00,0.63
7074.00,0.63
7073.00,0.63
7072.00,0.63
7071.00,0.63
7070.00,0.63
7069.00,0.62
7068.00,0.62
7067.00,0.62
7066.00,0.62
7065.00,0.62
7064.00,0.62
7063.00,0.62
7062.00,0.62
7061.00,0.62
7060.00,0.61
7059.00,0.61
7058.00,0.61
7057.00,0.61
7056.00,0.61
7055.00,0.61
7054.00,0.61
7053.00,0.61
7052.00,0.61
7051.00,0.61
7050.00,0.61
7049.00,0.61
7048.00,0.61
7047.00,0.61
7046.00,0.61
7045.00,0.61
7044.00,0.61
7043.00,0.61
7042.00,0.61
7041.00,0.61
7040.00,0.61
7039.00,0.61
7038.00,0.61
7037.00,0.60
7036.00,0.60
7035.00,0.60
7034.00,0.60
7033.00,0.60
7032.00,0.60
7031.00,0.60
7030.00,0.60
7029.00,0.60
7028.00,0.60
7027.00,0.60
7026.00,0.60
7025.00,0.60
7024.00,0.59
7023.00,0.59
7022.00,0.59
7021.00,0.59
7020.00,0.59
7019.00,0.59
7018.00,0.59
7017.00,0.59
7016.00,0.59
7015.00,0.59
7014.00,0.59
7013.00,0.59
7012.00,0.59
7011.00,0.59
7010.00,0.59
7009.00,0.59
7008.00,0.58
7007.00,0.58
7006.00,0.58
7005.00,0.58
7004.00,0.58
7003.00,0.58
7002.00,0.58
7001.00,0.58
7000.00,0.58
6999.00,0.58
6998.00,0.58
6997.00,0.58
6996.00,0.58
6995.00,0.58
6994.00,0.58
6993.00,0.58
6992.00,0.58
6991.00,0.58
6990.00,0.58
6989.00,0.58
6988.00,0.58
6987.00,0.58
6986.00,0.58
6985.00,0.58
6984.00,0.58
6983.00,0.58
6982.00,0.58
6981.00,0.58
6980.00,0.58
6979.00,0.58
6978.00,0.58
6977.00,0.58
6976.00,0.58
6975.00,0.58
6974.00,0.58
6973.00,0.58
6972.00,0.58
6971.00,0.58
6970.00,0.58
6969.00,0.58
6968.00,0.58
6967.00,0.58
6966.00,0.58
6965.00,0.58
6964.00,0.58
6963.00,0.58
6962.00,0.58
6961.00,0.58
6960.00,0.58
6959.00,0.58
6958.00,0.58
6957.00,0.59
6956.00,0.59
6955.00,0.59
6954.00,0.59
6953.00,0.59
6952.00,0.59
6951.00,0.59
6950.00,0.59
6949.00,0.59
6948.00,0.59
6947.00,0.59
6946.00,0.58
6945.00,0.58
6944.00,0.58
6943.00,0.58
6942.00,0.58
6941.00,0.58
6940.00,0.58
6939.00,0.58
6938.00,0.58
6937.00,0.58
6936.00,0.58
6935.00,0.58
6934.00,0.58
6933.00,0.58
6932.00,0.58
6931.00,0.58
6930.00,0.58
6929.00,0.58
6928.00,0.58
6927.00,0.58
6926.00,0.58
6925.00,0.58
6924.00,0.58
6923.00,0.58
6922.00,0.58
6921.00,0.58
6920.00,0.58
6919.00,0.58
6918.00,0.58
6917.00,0.58
6916.00,0.58
6915.00,0.58
6914.00,0.58
6913.00,0.58
6912.00,0.58
6911.00,0.58
6910.00,0.58
6909.00,0.58
6908.00,0.58
6907.00,0.57
6906.00,0.57
6905.00,0.57
6904.00,0.57
6903.00,0.57
6902.00,0.57
6901.00,0.57
6900.00,0.57
6899.00,0.57
6898.00,0.57
6897.00,0.57
6896.00,0.57
6895.00,0.57
6894.00,0.57
6893.00,0.58
6892.00,0.58
6891.00,0.58
6890.00,0.58
6889.00,0.58
6888.00,0.58
6887.00,0.58
6886.00,0.58
6885.00,0.58
6884.00,0.58
6883.00,0.59
6882.00,0.59
6881.00,0.59
6880.00,0.59
6879.00,0.59
6878.00,0.59
6877.00,0.59
6876.00,0.59
6875.00,0.59
6874.00,0.59
6873.00,0.59
6872.00,0.59
6871.00,0.59
6870.00,0.59
6869.00,0.58
6868.00,0.58
6867.00,0.58
6866.00,0.58
6865.00,0.58
6864.00,0.58
6863.00,0.58
6862.00,0.58
6861.00,0.58
6860.00,0.58
6859.00,0.58
6858.00,0.58
6857.00,0.57
6856.00,0.57
6855.00,0.57
6854.00,0.57
6853.00,0.57
6852.00,0.57
6851.00,0.57
6850.00,0.57
6849.00,0.57
6848.00,0.57
6847.00,0.57
6846.00,0.57
6845.00,0.57
6844.00,0.57
6843.00,0.58
6842.00,0.58
6841.00,0.58
6840.00,0.58
6839.00,0.58
6838.00,0.58
6837.00,0.58
6836.00,0.58
6835.00,0.58
6834.00,0.58
6833.00,0.58
6832.00,0.58
6831.00,0.58
6830.00,0.58
6829.00,0.58
6828.00,0.58
6827.00,0.58
6826.00,0.58
6825.00,0.58
6824.00,0.58
6823.00,0.58
6822.00,0.58
6821.00,0.58
6820.00,0.58
6819.00,0.58
6818.00,0.58
6817.00,0.58
6816.00,0.59
6815.00,0.59
6814.00,0.59
6813.00,0.59
6812.00,0.59
6811.00,0.59
6810.00,0.59
6809.00,0.59
6808.00,0.59
6807.00,0.59
6806.00,0.59
6805.00,0.59
6804.00,0.59
6803.00,0.59
6802.00,0.59
6801.00,0.59
6800.00,0.59
6799.00,0.60
6798.00,0.60
6797.00,0.60
6796.00,0.60
6795.00,0.60
6794.00,0.60
6793.00,0.60
6792.00,0.60
6791.00,0.60
6790.00,0.60
6789.00,0.59
6788.00,0.59
6787.00,0.59
6786.00,0.59
6785.00,0.59
6784.00,0.59
6783.00,0.59
6782.00,0.59
6781.00,0.59
6780.00,0.59
6779.00,0.59
6778.00,0.59
6777.00,0.59
6776.00,0.59
6775.00,0.59
6774.00,0.59
6773.00,0.59
6772.00,0.60
6771.00,0.60
6770.00,0.60
6769.00,0.60
6768.00,0.60
6767.00,0.60
6766.00,0.60
6765.00,0.60
6764.00,0.60
6763.00,0.60
6762.00,0.60
6761.00,0.61
6760.00,0.61
6759.00,0.61
6758.00,0.61
6757.00,0.61
6756.00,0.61
6755.00,0.61
6754.00,0.61
6753.00,0.61
6752.00,0.61
6751.00,0.61
6750.00,0.61
6749.00,0.61
6748.00,0.61
6747.00,0.61
6746.00,0.61
6745.00,0.61
6744.00,0.61
6743.00,0.61
6742.00,0.61
6741.00,0.61
6740.00,0.61
6739.00,0.61
6738.00,0.61
6737.00,0.61
6736.00,0.61
6735.00,0.62
6734.00,0.62
6733.00,0.62
6732.00,0.62
6731.00,0.62
6730.00,0.62
6729.00,0.62
6728.00,0.62
6727.00,0.62
6726.00,0.62
6725.00,0.62
6724.00,0.62
6723.00,0.62
6722.00,0.62
6721.00,0.63
6720.00,0.63
6719.00,0.63
6718.00,0.63
6717.00,0.63
6716.00,0.63
6715.00,0.63
6714.00,0.63
6713.00,0.63
6712.00,0.63
6711.00,0.63
6710.00,0.63
6709.00,0.63
6708.00,0.63
6707.00,0.63
6706.00,0.63
6705.00,0.63
6704.00,0.63
6703.00,0.64
6702.00,0.64
6701.00,0.64
6700.00,0.64
6699.00,0.64
6698.00,0.64
6697.00,0.64
6696.00,0.64
6695.00,0.64
6694.00,0.64
6693.00,0.64
6692.00,0.64
6691.00,0.64
6690.00,0.65
6689.00,0.65
6688.00,0.65
6687.00,0.65
6686.00,0.65
6685.00,0.65
6684.00,0.65
6683.00,0.65
6682.00,0.65
6681.00,0.65
6680.00,0.65
6679.00,0.65
6678.00,0.65
6677.00,0.65
6676.00,0.65
6675.00,0.65
6674.00,0.65
6673.00,0.65
6672.00,0.66
6671.00,0.66
6670.00,0.66
6669.00,0.66
6668.00,0.66
6667.00,0.66
6666.00,0.66
6665.00,0.66
6664.00,0.66
6663.00,0.67
6662.00,0.67
6661.00,0.67
6660.00,0.67
6659.00,0.67
6658.00,0.67
6657.00,0.67
6656.00,0.68
6655.00,0.68
6654.00,0.68
6653.00,0.68
6652.00,0.68
6651.00,0.68
6650.00,0.68
6649.00,0.68
6648.00,0.69
6647.00,0.69
6646.00,0.69
6645.00,0.69
6644.00,0.69
6643.00,0.69
6642.00,0.69
6641.00,0.69
6640.00,0.69
6639.00,0.69
6638.00,0.69
6637.00,0.69
6636.00,0.69
6635.00,0.69
6634.00,0.69
6633.00,0.69
6632.00,0.69
6631.00,0.69
6630.00,0.69
6629.00,0.69
6628.00,0.69
6627.00,0.69
6626.00,0.69
6625.00,0.69
6624.00,0.69
6623.00,0.69
6622.00,0.69
6621.00,0.70
6620.00,0.70
6619.00,0.70
6618.00,0.70
6617.00,0.70
6616.00,0.70
6615.00,0.70
6614.00,0.70
6613.00,0.70
6612.00,0.70
6611.00,0.70
6610.00,0.70
6609.00,0.70
6608.00,0.70
6607.00,0.71
6606.00,0.71
6605.00,0.71
6604.00,0.71
6603.00,0.71
6602.00,0.71
6601.00,0.71
6600.00,0.71
6599.00,0.72
6598.00,0.72
6597.00,0.72
6596.00,0.72
6595.00,0.72
6594.00,0.72
6593.00,0.72
6592.00,0.72
6591.00,0.72
6590.00,0.72
6589.00,0.72
6588.00,0.73
6587.00,0.73
6586.00,0.73
6585.00,0.73
6584.00,0.73
6583.00,0.73
6582.00,0.73
6581.00,0.73
6580.00,0.73
6579.00,0.73
6578.00,0.73
6577.00,0.73
6576.00,0.73
6575.00,0.73
6574.00,0.73
6573.00,0.74
6572.00,0.74
6571.00,0.74
6570.00,0.74
6569.00,0.74
6568.00,0.74
6567.00,0.74
6566.00,0.74
6565.00,0.74
6564.00,0.74
6563.00,0.75
6562.00,0.75
6561.00,0.75
6560.00,0.75
6559.00,0.75
6558.00,0.75
6557.00,0.75
6556.00,0.75
6555.00,0.75
6554.00,0.76
6553.00,0.76
6552.00,0.76
6551.00,0.76
6550.00,0.76
6549.00,0.76
6548.00,0.76
6547.00,0.77
6546.00,0.77
6545.00,0.77
6544.00,0.77
6543.00,0.77
6542.00,0.77
6541.00,0.77
6540.00,0.77
6539.00,0.77
6538.00,0.77
6537.00,0.77
6536.00,0.77
6535.00,0.77
6534.00,0.77
6533.00,0.77
6532.00,0.77
6531.00,0.77
6530.00,0.77
6529.00,0.77
6528.00,0.77
6527.00,0.77
6526.00,0.77
6525.00,0.77
6524.00,0.77
6523.00,0.77
6522.00,0.77
6521.00,0.77
6520.00,0.78
6519.00,0.78
6518.00,0.78
6517.00,0.78
6516.00,0.78
6515.00,0.78
6514.00,0.78
6513.00,0.78
6512.00,0.78
6511.00,0.78
6510.00,0.79
6509.00,0.79
6508.00,0.79
6507.00,0.79
6506.00,0.79
6505.00,0.79
6504.00,0.79
6503.00,0.79
6502.00,0.80
6501.00,0.80
6500.00,0.80
6499.00,0.80
6498.00,0.80
6497.00,0.80
6496.00,0.80
6495.00,0.81
6494.00,0.81
6493.00,0.81
6492.00,0.81
6491.00,0.81
6490.00,0.81
6489.00,0.81
6488.00,0.81
6487.00,0.81
6486.00,0.81
6485.00,0.81
6484.00,0.81
6483.00,0.81
6482.00,0.81
6481.00,0.81
6480.00,0.81
6479.00,0.81
6478.00,0.81
6477.00,0.81
6476.00,0.82
6475.00,0.82
6474.00,0.82
6473.00,0.82
6472.00,0.82
6471.00,0.82
6470.00,0.82
6469.00,0.82
6468.00,0.82
6467.00,0.82
6466.00,0.82
6465.00,0.82
6464.00,0.83
6463.00,0.83
6462.00,0.83
6461.00,0.83
6460.00,0.83
6459.00,0.83
6458.00,0.83
6457.00,0.83
6456.00,0.83
6455.00,0.83
6454.00,0.83
6453.00,0.83
6452.00,0.83
6451.00,0.83
6450.00,0.83
6449.00,0.83
6448.00,0.83
6447.00,0.83
6446.00,0.83
6445.00,0.84
6444.00,0.84
6443.00,0.84
6442.00,0.84
6441.00,0.84
6440.00,0.84
6439.00,0.84
6438.00,0.84
6437.00,0.85
6436.00,0.85
6435.00,0.85
6434.00,0.85
6433.00,0.85
6432.00,0.85
6431.00,0.85
6430.00,0.85
6429.00,0.86
6428.00,0.86
6427.00,0.86
6426.00,0.86
6425.00,0.86
6424.00,0.86
6423.00,0.86
6422.00,0.86
6421.00,0.86
6420.00,0.86
6419.00,0.86
6418.00,0.87
6417.00,0.87
6416.00,0.87
6415.00,0.87
6414.00,0.87
6413.00,0.87
6412.00,0.87
6411.00,0.87
6410.00,0.87
6409.00,0.87
6408.00,0.87
6407.00,0.87
6406.00,0.87
6405.00,0.87
6404.00,0.87
6403.00,0.87
6402.00,0.87
6401.00,0.87
6400.00,0.87
6399.00,0.87
6398.00,0.87
6397.00,0.87
6396.00,0.87
6395.00,0.87
6394.00,0.87
6393.00,0.88
6392.00,0.88
6391.00,0.88
6390.00,0.88
6389.00,0.88
6388.00,0.88
6387.00,0.88
6386.00,0.89
6385.00,0.89
6384.00,0.89
6383.00,0.89
6382.00,0.89
6381.00,0.89
6380.00,0.89
6379.00,0.89
6378.00,0.90
6377.00,0.90
6376.00,0.90
6375.00,0.90
6374.00,0.90
6373.00,0.90
6372.00,0.90
6371.00,0.90
6370.00,0.90
6369.00,0.90
6368.00,0.91
6367.00,0.91
6366.00,0.91
6365.00,0.91
6364.00,0.91
6363.00,0.91
6362.00,0.91
6361.00,0.91
6360.00,0.91
6359.00,0.91
6358.00,0.91
6357.00,0.92
6356.00,0.92
6355.00,0.92
6354.00,0.92
6353.00,0.92
6352.00,0.92
6351.00,0.92
6350.00,0.92
6349.00,0.92
6348.00,0.92
6347.00,0.92
6346.00,0.92
6345.00,0.92
6344.00,0.92
6343.00,0.92
6342.00,0.92
6341.00,0.93
6340.00,0.93
6339.00,0.93
6338.00,0.93
6337.00,0.93
6336.00,0.93
6335.00,0.93
6334.00,0.93
6333.00,0.93
6332.00,0.93
6331.00,0.94
6330.00,0.94
6329.00,0.94
6328.00,0.94
6327.00,0.94
6326.00,0.94
6325.00,0.94
6324.00,0.94
6323.00,0.94
6322.00,0.94
6321.00,0.94
6320.00,0.94
6319.00,0.95
6318.00,0.95
6317.00,0.95
6316.00,0.95
6315.00,0.95
6314.00,0.95
6313.00,0.95
6312.00,0.95
6311.00,0.95
6310.00,0.95
6309.00,0.95
6308.00,0.95
6307.00,0.95
6306.00,0.95
6305.00,0.95
6304.00,0.96
6303.00,0.96
6302.00,0.96
6301.00,0.96
6300.00,0.96
6299.00,0.96
6298.00,0.96
6297.00,0.96
6296.00,0.97
6295.00,0.97
6294.00,0.97
6293.00,0.97
6292.00,0.97
6291.00,0.97
6290.00,0.97
6289.00,0.97
6288.00,0.97
6287.00,0.97
6286.00,0.97
6285.00,0.98
6284.00,0.98
6283.00,0.98
6282.00,0.98
6281.00,0.98
6280.00,0.98
6279.00,0.98
6278.00,0.98
6277.00,0.98
6276.00,0.98
6275.00,0.99
6274.00,0.99
6273.00,0.99
6272.00,0.99
6271.00,0.99
6270.00,0.99
6269.00,1.00
6268.00,1.00
6267.00,1.00
6266.00,1.00
6265.00,1.00
6264.00,1.00
6263.00,1.00
6262.00,1.01
6261.00,1.01
6260.00,1.01
6259.00,1.01
6258.00,1.01
6257.00,1.01
6256.00,1.01
6255.00,1.01
6254.00,1.02
6253.00,1.02
6252.00,1.02
6251.00,1.02
6250.00,1.02
6249.00,1.02
6248.00,1.02
6247.00,1.02
6246.00,1.02
6245.00,1.02
6244.00,1.02
6243.00,1.03
6242.00,1.03
6241.00,1.03
6240.00,1.03
6239.00,1.03
6238.00,1.03
6237.00,1.03
6236.00,1.03
6235.00,1.03
6234.00,1.03
6233.00,1.03
6232.00,1.03
6231.00,1.03
6230.00,1.03
6229.00,1.03
6228.00,1.03
6227.00,1.04
6226.00,1.04
6225.00,1.04
6224.00,1.04
6223.00,1.04
6222.00,1.04
6221.00,1.04
6220.00,1.05
6219.00,1.05
6218.00,1.05
6217.00,1.05
6216.00,1.05
6215.00,1.05
6214.00,1.06
6213.00,1.06
6212.00,1.06
6211.00,1.06
6210.00,1.06
6209.00,1.07
6208.00,1.07
6207.00,1.07
6206.00,1.07
6205.00,1.07
6204.00,1.07
6203.00,1.07
6202.00,1.08
6201.00,1.08
6200.00,1.08
6199.00,1.08
6198.00,1.08
6197.00,1.08
6196.00,1.08
6195.00,1.08
6194.00,1.08
6193.00,1.09
6192.00,1.09
6191.00,1.09
6190.00,1.09
6189.00,1.09
6188.00,1.09
6187.00,1.09
6186.00,1.09
6185.00,1.09
6184.00,1.09
6183.00,1.09
6182.00,1.10
6181.00,1.10
6180.00,1.10
6179.00,1.10
6178.00,1.10
6177.00,1.10
6176.00,1.10
6175.00,1.10
6174.00,1.10
6173.00,1.10
6172.00,1.11
6171.00,1.11
6170.00,1.11
6169.00,1.11
6168.00,1.11
6167.00,1.11
6166.00,1.11
6165.00,1.11
6164.00,1.11
6163.00,1.12
6162.00,1.12
6161.00,1.12
6160.00,1.12
6159.00,1.12
6158.00,1.12
6157.00,1.12
6156.00,1.13
6155.00,1.13
6154.00,1.13
6153.00,1.13
6152.00,1.13
6151.00,1.13
6150.00,1.13
6149.00,1.14
6148.00,1.14
6147.00,1.14
6146.00,1.14
6145.00,1.14
6144.00,1.14
6143.00,1.14
6142.00,1.14
6141.00,1.14
6140.00,1.15
6139.00,1.15
6138.00,1.15
6137.00,1.15
6136.00,1.15
6135.00,1.15
6134.00,1.15
6133.00,1.15
6132.00,1.15
6131.00,1.15
6130.00,1.15
6129.00,1.15
6128.00,1.15
6127.00,1.16
6126.00,1.16
6125.00,1.16
6124.00,1.16
6123.00,1.16
6122.00,1.16
6121.00,1.16
6120.00,1.16
6119.00,1.17
6118.00,1.17
6117.00,1.17
6116.00,1.17
6115.00,1.17
6114.00,1.17
6113.00,1.17
6112.00,1.17
6111.00,1.18
6110.00,1.18
6109.00,1.18
6108.00,1.18
6107.00,1.18
6106.00,1.18
6105.00,1.18
6104.00,1.19
6103.00,1.19
6102.00,1.19
6101.00,1.19
6100.00,1.19
6099.00,1.19
6098.00,1.19
6097.00,1.19
6096.00,1.20
6095.00,1.20
6094.00,1.20
6093.00,1.20
6092.00,1.20
6091.00,1.20
6090.00,1.20
6089.00,1.20
6088.00,1.21
6087.00,1.21
6086.00,1.21
6085.00,1.21
6084.00,1.21
6083.00,1.21
6082.00,1.21
6081.00,1.21
6080.00,1.21
6079.00,1.22
6078.00,1.22
6077.00,1.22
6076.00,1.22
6075.00,1.22
6074.00,1.22
6073.00,1.22
6072.00,1.22
6071.00,1.23
6070.00,1.23
6069.00,1.23
6068.00,1.23
6067.00,1.23
6066.00,1.23
6065.00,1.23
6064.00,1.23
6063.00,1.23
6062.00,1.23
6061.00,1.24
6060.00,1.24
6059.00,1.24
6058.00,1.24
6057.00,1.24
6056.00,1.24
6055.00,1.24
6054.00,1.24
6053.00,1.24
6052.00,1.24
6051.00,1.24
6050.00,1.24
6049.00,1.24
6048.00,1.24
6047.00,1.24
6046.00,1.24
6045.00,1.24
6044.00,1.24
6043.00,1.24
6042.00,1.25
6041.00,1.25
6040.00,1.25
6039.00,1.25
6038.00,1.25
6037.00,1.25
6036.00,1.25
6035.00,1.25
6034.00,1.26
6033.00,1.26
6032.00,1.26
6031.00,1.26
6030.00,1.26
6029.00,1.26
6028.00,1.26
6027.00,1.26
6026.00,1.26
6025.00,1.27
6024.00,1.27
6023.00,1.27
6022.00,1.27
6021.00,1.27
6020.00,1.27
6019.00,1.27
6018.00,1.27
6017.00,1.27
6016.00,1.27
6015.00,1.27
6014.00,1.27
6013.00,1.27
6012.00,1.27
6011.00,1.27
6010.00,1.27
6009.00,1.27
6008.00,1.27
6007.00,1.27
6006.00,1.27
6005.00,1.27
6004.00,1.27
6003.00,1.27
6002.00,1.27
6001.00,1.27
6000.00,1.27
5999.00,1.27
5998.00,1.26
5997.00,1.26
5996.00,1.26
5995.00,1.26
5994.00,1.26
5993.00,1.26
5992.00,1.26
5991.00,1.26
5990.00,1.26
5989.00,1.26
5988.00,1.25
5987.00,1.25
5986.00,1.25
5985.00,1.25
5984.00,1.25
5983.00,1.24
5982.00,1.24
5981.00,1.24
5980.00,1.24
5979.00,1.23
5978.00,1.23
5977.00,1.23
5976.00,1.23
5975.00,1.22
5974.00,1.22
5973.00,1.22
5972.00,1.21
5971.00,1.21
5970.00,1.21
5969.00,1.20
5968.00,1.20
5967.00,1.20
5966.00,1.19
5965.00,1.19
5964.00,1.18
5963.00,1.18
5962.00,1.17
5961.00,1.17
5960.00,1.16
5959.00,1.16
5958.00,1.15
5957.00,1.15
5956.00,1.15
5955.00,1.14
5954.00,1.14
5953.00,1.13
5952.00,1.13
5951.00,1.13
5950.00,1.12
5949.00,1.12
5948.00,1.12
5947.00,1.11
5946.00,1.11
5945.00,1.11
5944.00,1.11
5943.00,1.11
5942.00,1.11
5941.00,1.10
5940.00,1.10
5939.00,1.10
5938.00,1.10
5937.00,1.10
5936.00,1.10
5935.00,1.10
5934.00,1.10
5933.00,1.10
5932.00,1.10
5931.00,1.10
5930.00,1.10
5929.00,1.09
5928.00,1.09
5927.00,1.09
5926.00,1.09
5925.00,1.09
5924.00,1.09
5923.00,1.09
5922.00,1.09
5921.00,1.09
5920.00,1.09
5919.00,1.08
5918.00,1.08
5917.00,1.08
5916.00,1.08
5915.00,1.08
5914.00,1.08
5913.00,1.08
5912.00,1.07
5911.00,1.07
5910.00,1.07
5909.00,1.07
5908.00,1.07
5907.00,1.07
5906.00,1.07
5905.00,1.07
5904.00,1.07
5903.00,1.07
5902.00,1.07
5901.00,1.07
5900.00,1.07
5899.00,1.07
5898.00,1.07
5897.00,1.08
5896.00,1.08
5895.00,1.08
5894.00,1.08
5893.00,1.08
5892.00,1.08
5891.00,1.09
5890.00,1.09
5889.00,1.09
5888.00,1.09
5887.00,1.10
5886.00,1.10
5885.00,1.10
5884.00,1.10
5883.00,1.10
5882.00,1.11
5881.00,1.11
5880.00,1.11
5879.00,1.11
5878.00,1.11
5877.00,1.11
5876.00,1.12
5875.00,1.12
5874.00,1.12
5873.00,1.12
5872.00,1.12
5871.00,1.12
5870.00,1.12
5869.00,1.12
5868.00,1.13
5867.00,1.13
5866.00,1.13
5865.00,1.13
5864.00,1.13
5863.00,1.13
5862.00,1.14
5861.00,1.14
5860.00,1.14
5859.00,1.14
5858.00,1.14
5857.00,1.14
5856.00,1.15
5855.00,1.15
5854.00,1.15
5853.00,1.15
5852.00,1.15
5851.00,1.15
5850.00,1.15
5849.00,1.15
5848.00,1.15
5847.00,1.15
5846.00,1.15
5845.00,1.15
5844.00,1.15
5843.00,1.15
5842.00,1.15
5841.00,1.15
5840.00,1.15
5839.00,1.15
5838.00,1.15
5837.00,1.15
5836.00,1.15
5835.00,1.15
5834.00,1.15
5833.00,1.14
5832.00,1.14
5831.00,1.14
5830.00,1.14
5829.00,1.14
5828.00,1.14
5827.00,1.14
5826.00,1.14
5825.00,1.14
5824.00,1.14
5823.00,1.14
5822.00,1.14
5821.00,1.15
5820.00,1.15
5819.00,1.15
5818.00,1.15
5817.00,1.15
5816.00,1.15
5815.00,1.15
5814.00,1.15
5813.00,1.15
5812.00,1.15
5811.00,1.15
5810.00,1.15
5809.00,1.15
5808.00,1.15
5807.00,1.15
5806.00,1.15
5805.00,1.15
5804.00,1.15
5803.00,1.14
5802.00,1.14
5801.00,1.14
5800.00,1.14
5799.00,1.14
5798.00,1.14
5797.00,1.14
5796.00,1.14
5795.00,1.13
5794.00,1.13
5793.00,1.13
5792.00,1.13
5791.00,1.13
5790.00,1.12
5789.00,1.12
5788.00,1.12
5787.00,1.12
5786.00,1.12
5785.00,1.11
5784.00,1.11
5783.00,1.11
5782.00,1.11
5781.00,1.11
5780.00,1.11
5779.00,1.11
5778.00,1.10
5777.00,1.10
5776.00,1.10
5775.00,1.10
5774.00,1.10
5773.00,1.10
5772.00,1.10
5771.00,1.10
5770.00,1.10
5769.00,1.10
5768.00,1.10
5767.00,1.10
5766.00,1.10
5765.00,1.11
5764.00,1.11
5763.00,1.11
5762.00,1.11
5761.00,1.11
5760.00,1.11
5759.00,1.12
5758.00,1.12
5757.00,1.12
5756.00,1.12
5755.00,1.13
5754.00,1.13
5753.00,1.13
5752.00,1.13
5751.00,1.13
5750.00,1.14
5749.00,1.14
5748.00,1.14
5747.00,1.14
5746.00,1.14
5745.00,1.15
5744.00,1.15
5743.00,1.15
5742.00,1.15
5741.00,1.15
5740.00,1.15
5739.00,1.16
5738.00,1.16
5737.00,1.16
5736.00,1.16
5735.00,1.16
5734.00,1.16
5733.00,1.16
5732.00,1.16
5731.00,1.16
5730.00,1.16
5729.00,1.16
5728.00,1.16
5727.00,1.16
5726.00,1.16
5725.00,1.16
5724.00,1.16
5723.00,1.16
5722.00,1.16
5721.00,1.16
5720.00,1.16
5719.00,1.16
5718.00,1.16
5717.00,1.16
5716.00,1.16
5715.00,1.16
5714.00,1.16
5713.00,1.16
5712.00,1.16
5711.00,1.16
5710.00,1.16
5709.00,1.16
5708.00,1.15
5707.00,1.15
5706.00,1.15
5705.00,1.15
5704.00,1.15
5703.00,1.15
5702.00,1.15
5701.00,1.15
5700.00,1.15
5699.00,1.15
5698.00,1.15
5697.00,1.15
5696.00,1.14
5695.00,1.14
5694.00,1.14
5693.00,1.14
5692.00,1.14
5691.00,1.14
5690.00,1.14
5689.00,1.14
5688.00,1.14
5687.00,1.13
5686.00,1.13
5685.00,1.13
5684.00,1.13
5683.00,1.13
5682.00,1.13
5681.00,1.13
5680.00,1.13
5679.00,1.13
5678.00,1.13
5677.00,1.13
5676.00,1.12
5675.00,1.12
5674.00,1.12
5673.00,1.12
5672.00,1.12
5671.00,1.12
5670.00,1.12
5669.00,1.12
5668.00,1.12
5667.00,1.12
5666.00,1.12
5665.00,1.12
5664.00,1.12
5663.00,1.13
5662.00,1.13
5661.00,1.13
5660.00,1.13
5659.00,1.13
5658.00,1.13
5657.00,1.13
5656.00,1.13
5655.00,1.13
5654.00,1.14
5653.00,1.14
5652.00,1.14
5651.00,1.14
5650.00,1.14
5649.00,1.14
5648.00,1.14
5647.00,1.15
5646.00,1.15
5645.00,1.15
5644.00,1.15
5643.00,1.15
5642.00,1.15
5641.00,1.15
5640.00,1.15
5639.00,1.15
5638.00,1.15
5637.00,1.16
5636.00,1.16
5635.00,1.16
5634.00,1.16
5633.00,1.16
5632.00,1.16
5631.00,1.16
5630.00,1.16
5629.00,1.16
5628.00,1.16
5627.00,1.16
5626.00,1.16
5625.00,1.16
5624.00,1.16
5623.00,1.16
5622.00,1.16
5621.00,1.16
5620.00,1.16
5619.00,1.16
5618.00,1.16
5617.00,1.16
5616.00,1.16
5615.00,1.17
5614.00,1.17
5613.00,1.17
5612.00,1.17
5611.00,1.17
5610.00,1.17
5609.00,1.17
5608.00,1.17
5607.00,1.17
5606.00,1.17
5605.00,1.18
5604.00,1.18
5603.00,1.18
5602.00,1.18
5601.00,1.18
5600.00,1.18
5599.00,1.18
5598.00,1.18
5597.00,1.19
5596.00,1.19
5595.00,1.19
5594.00,1.19
5593.00,1.19
5592.00,1.19
5591.00,1.19
5590.00,1.19
5589.00,1.19
5588.00,1.20
5587.00,1.20
5586.00,1.20
5585.00,1.20
5584.00,1.20
5583.00,1.20
5582.00,1.20
5581.00,1.20
5580.00,1.20
5579.00,1.21
5578.00,1.21
5577.00,1.21
5576.00,1.21
5575.00,1.21
5574.00,1.21
5573.00,1.21
5572.00,1.21
5571.00,1.21
5570.00,1.21
5569.00,1.22
5568.00,1.22
5567.00,1.22
5566.00,1.22
5565.00,1.22
5564.00,1.22
5563.00,1.22
5562.00,1.22
5561.00,1.22
5560.00,1.22
5559.00,1.22
5558.00,1.23
5557.00,1.23
5556.00,1.23
5555.00,1.23
5554.00,1.23
5553.00,1.23
5552.00,1.23
5551.00,1.23
5550.00,1.23
5549.00,1.24
5548.00,1.24
5547.00,1.24
5546.00,1.24
5545.00,1.24
5544.00,1.24
5543.00,1.25
5542.00,1.25
5541.00,1.25
5540.00,1.25
5539.00,1.25
5538.00,1.25
5537.00,1.25
5536.00,1.26
5535.00,1.26
5534.00,1.26
5533.00,1.26
5532.00,1.26
5531.00,1.26
5530.00,1.26
5529.00,1.26
5528.00,1.26
5527.00,1.26
5526.00,1.26
5525.00,1.26
5524.00,1.26
5523.00,1.26
5522.00,1.26
5521.00,1.26
5520.00,1.26
5519.00,1.26
5518.00,1.26
5517.00,1.26
5516.00,1.26
5515.00,1.26
5514.00,1.26
5513.00,1.27
5512.00,1.27
5511.00,1.27
5510.00,1.27
5509.00,1.27
5508.00,1.27
5507.00,1.27
5506.00,1.27
5505.00,1.27
5504.00,1.27
5503.00,1.27
5502.00,1.27
5501.00,1.27
5500.00,1.28
5499.00,1.28
5498.00,1.28
5497.00,1.28
5496.00,1.28
5495.00,1.28
5494.00,1.28
5493.00,1.28
5492.00,1.28
5491.00,1.28
5490.00,1.28
5489.00,1.28
5488.00,1.28
5487.00,1.28
5486.00,1.28
5485.00,1.28
5484.00,1.28
5483.00,1.28
5482.00,1.29
5481.00,1.29
5480.00,1.29
5479.00,1.29
5478.00,1.29
5477.00,1.29
5476.00,1.29
5475.00,1.29
5474.00,1.29
5473.00,1.29
5472.00,1.29
5471.00,1.29
5470.00,1.29
5469.00,1.29
5468.00,1.29
5467.00,1.29
5466.00,1.29
5465.00,1.29
5464.00,1.29
5463.00,1.30
5462.00,1.30
5461.00,1.30
5460.00,1.30
5459.00,1.30
5458.00,1.30
5457.00,1.30
5456.00,1.30
5455.00,1.30
5454.00,1.31
5453.00,1.31
5452.00,1.31
5451.00,1.31
5450.00,1.31
5449.00,1.31
5448.00,1.31
5447.00,1.31
5446.00,1.31
5445.00,1.31
5444.00,1.31
5443.00,1.31
5442.00,1.31
5441.00,1.31
5440.00,1.31
5439.00,1.30
5438.00,1.30
5437.00,1.30
5436.00,1.30
5435.00,1.30
5434.00,1.30
5433.00,1.30
5432.00,1.30
5431.00,1.30
5430.00,1.30
5429.00,1.30
5428.00,1.30
5427.00,1.30
5426.00,1.30
5425.00,1.30
5424.00,1.30
5423.00,1.30
5422.00,1.30
5421.00,1.30
5420.00,1.29
5419.00,1.29
5418.00,1.29
5417.00,1.29
5416.00,1.29
5415.00,1.29
5414.00,1.29
5413.00,1.29
5412.00,1.29
5411.00,1.29
5410.00,1.29
5409.00,1.29
5408.00,1.29
5407.00,1.29
5406.00,1.29
5405.00,1.29
5404.00,1.28
5403.00,1.28
5402.00,1.28
5401.00,1.28
5400.00,1.28
5399.00,1.28
5398.00,1.27
5397.00,1.27
5396.00,1.27
5395.00,1.27
5394.00,1.27
5393.00,1.26
5392.00,1.26
5391.00,1.26
5390.00,1.26
5389.00,1.25
5388.00,1.25
5387.00,1.25
5386.00,1.25
5385.00,1.24
5384.00,1.24
5383.00,1.24
5382.00,1.24
5381.00,1.23
5380.00,1.23
5379.00,1.23
5378.00,1.22
5377.00,1.22
5376.00,1.21
5375.00,1.21
5374.00,1.21
5373.00,1.20
5372.00,1.20
5371.00,1.19
5370.00,1.19
5369.00,1.18
5368.00,1.18
5367.00,1.17
5366.00,1.16
5365.00,1.16
5364.00,1.15
5363.00,1.15
5362.00,1.14
5361.00,1.13
5360.00,1.13
5359.00,1.12
5358.00,1.11
5357.00,1.11
5356.00,1.10
5355.00,1.09
5354.00,1.09
5353.00,1.08
5352.00,1.07
5351.00,1.06
5350.00,1.06
5349.00,1.05
5348.00,1.04
5347.00,1.03
5346.00,1.03
5345.00,1.02
5344.00,1.01
5343.00,1.00
5342.00,1.00
5341.00,0.99
5340.00,0.98
5339.00,0.97
5338.00,0.97
5337.00,0.96
5336.00,0.95
5335.00,0.95
5334.00,0.94
5333.00,0.93
5332.00,0.93
5331.00,0.92
5330.00,0.91
5329.00,0.91
5328.00,0.90
5327.00,0.90
5326.00,0.89
5325.00,0.89
5324.00,0.88
5323.00,0.87
5322.00,0.87
5321.00,0.86
5320.00,0.86
5319.00,0.85
5318.00,0.85
5317.00,0.84
5316.00,0.84
5315.00,0.83
5314.00,0.83
5313.00,0.83
5312.00,0.82
5311.00,0.82
5310.00,0.81
5309.00,0.81
5308.00,0.81
5307.00,0.80
5306.00,0.80
5305.00,0.80
5304.00,0.80
5303.00,0.79
5302.00,0.79
5301.00,0.79
5300.00,0.79
5299.00,0.78
5298.00,0.78
5297.00,0.78
5296.00,0.78
5295.00,0.78
5294.00,0.78
5293.00,0.77
5292.00,0.77
5291.00,0.77
5290.00,0.77
5289.00,0.77
5288.00,0.77
5287.00,0.76
5286.00,0.76
5285.00,0.76
5284.00,0.76
5283.00,0.76
5282.00,0.76
5281.00,0.76
5280.00,0.76
5279.00,0.76
5278.00,0.76
5277.00,0.76
5276.00,0.76
5275.00,0.76
5274.00,0.75
5273.00,0.75
5272.00,0.75
5271.00,0.75
5270.00,0.75
5269.00,0.75
5268.00,0.75
5267.00,0.75
5266.00,0.75
5265.00,0.75
5264.00,0.75
5263.00,0.75
5262.00,0.75
5261.00,0.75
5260.00,0.75
5259.00,0.75
5258.00,0.75
5257.00,0.75
5256.00,0.75
5255.00,0.75
5254.00,0.75
5253.00,0.75
5252.00,0.75
5251.00,0.75
5250.00,0.75
5249.00,0.75
5248.00,0.76
5247.00,0.76
5246.00,0.76
5245.00,0.76
5244.00,0.76
5243.00,0.76
5242.00,0.76
5241.00,0.76
5240.00,0.76
5239.00,0.76
5238.00,0.76
5237.00,0.76
5236.00,0.76
5235.00,0.76
5234.00,0.76
5233.00,0.76
5232.00,0.76
5231.00,0.76
5230.00,0.76
5229.00,0.76
5228.00,0.76
5227.00,0.76
5226.00,0.76
5225.00,0.76
5224.00,0.76
5223.00,0.77
5222.00,0.77
5221.00,0.77
5220.00,0.77
5219.00,0.77
5218.00,0.77
5217.00,0.77
5216.00,0.77
5215.00,0.77
5214.00,0.77
5213.00,0.77
5212.00,0.77
5211.00,0.77
5210.00,0.77
5209.00,0.77
5208.00,0.77
5207.00,0.78
5206.00,0.78
5205.00,0.78
5204.00,0.78
5203.00,0.78
5202.00,0.78
5201.00,0.78
5200.00,0.78
5199.00,0.78
5198.00,0.78
5197.00,0.78
5196.00,0.78
5195.00,0.78
5194.00,0.78
5193.00,0.78
5192.00,0.78
5191.00,0.78
5190.00,0.79
5189.00,0.79
5188.00,0.79
5187.00,0.79
5186.00,0.79
5185.00,0.79
5184.00,0.79
5183.00,0.79
5182.00,0.79
5181.00,0.79
5180.00,0.79
5179.00,0.79
5178.00,0.79
5177.00,0.79
5176.00,0.79
5175.00,0.79
5174.00,0.79
5173.00,0.79
5172.00,0.79
5171.00,0.79
5170.00,0.79
5169.00,0.79
5168.00,0.79
5167.00,0.79
5166.00,0.79
5165.00,0.79
5164.00,0.79
5163.00,0.79
5162.00,0.79
5161.00,0.79
5160.00,0.79
5159.00,0.79
5158.00,0.79
5157.00,0.79
5156.00,0.79
5155.00,0.79
5154.00,0.79
5153.00,0.79
5152.00,0.79
5151.00,0.79
5150.00,0.79
5149.00,0.79
5148.00,0.79
5147.00,0.79
5146.00,0.79
5145.00,0.79
5144.00,0.79
5143.00,0.79
5142.00,0.80
5141.00,0.80
5140.00,0.80
5139.00,0.80
5138.00,0.80
5137.00,0.80
5136.00,0.80
5135.00,0.80
5134.00,0.80
5133.00,0.80
5132.00,0.80
5131.00,0.80
5130.00,0.80
5129.00,0.80
5128.00,0.80
5127.00,0.80
5126.00,0.80
5125.00,0.80
5124.00,0.80
5123.00,0.80
5122.00,0.80
5121.00,0.80
5120.00,0.80
5119.00,0.80
5118.00,0.80
5117.00,0.80
5116.00,0.80
5115.00,0.81
5114.00,0.81
5113.00,0.81
5112.00,0.81
5111.00,0.81
5110.00,0.81
5109.00,0.81
5108.00,0.81
5107.00,0.81
5106.00,0.81
5105.00,0.81
5104.00,0.82
5103.00,0.82
5102.00,0.82
5101.00,0.82
5100.00,0.82
5099.00,0.82
5098.00,0.82
5097.00,0.82
5096.00,0.82
5095.00,0.82
5094.00,0.82
5093.00,0.82
5092.00,0.82
5091.00,0.82
5090.00,0.82
5089.00,0.82
5088.00,0.82
5087.00,0.82
5086.00,0.82
5085.00,0.82
5084.00,0.82
5083.00,0.82
5082.00,0.82
5081.00,0.82
5080.00,0.82
5079.00,0.82
5078.00,0.82
5077.00,0.82
5076.00,0.82
5075.00,0.82
5074.00,0.82
5073.00,0.82
5072.00,0.82
5071.00,0.82
5070.00,0.82
5069.00,0.82
5068.00,0.82
5067.00,0.82
5066.00,0.82
5065.00,0.82
5064.00,0.82
5063.00,0.83
5062.00,0.83
5061.00,0.83
5060.00,0.83
5059.00,0.83
5058.00,0.83
5057.00,0.83
5056.00,0.83
5055.00,0.83
5054.00,0.83
5053.00,0.83
5052.00,0.83
5051.00,0.83
5050.00,0.83
5049.00,0.83
5048.00,0.83
5047.00,0.84
5046.00,0.84
5045.00,0.84
5044.00,0.84
5043.00,0.84
5042.00,0.84
5041.00,0.84
5040.00,0.84
5039.00,0.84
5038.00,0.84
5037.00,0.84
5036.00,0.84
5035.00,0.84
5034.00,0.84
5033.00,0.84
5032.00,0.84
5031.00,0.84
5030.00,0.84
5029.00,0.84
5028.00,0.84
5027.00,0.84
5026.00,0.85
5025.00,0.85
5024.00,0.85
5023.00,0.85
5022.00,0.85
5021.00,0.85
5020.00,0.85
5019.00,0.85
5018.00,0.85
5017.00,0.85
5016.00,0.85
5015.00,0.85
5014.00,0.85
5013.00,0.85
5012.00,0.85
5011.00,0.85
5010.00,0.85
5009.00,0.85
5008.00,0.85
5007.00,0.85
5006.00,0.85
5005.00,0.85
5004.00,0.85
5003.00,0.85
5002.00,0.86
5001.00,0.86
5000.00,0.86
4999.00,0.86
4998.00,0.86
4997.00,0.86
4996.00,0.86
4995.00,0.86
4994.00,0.86
4993.00,0.86
4992.00,0.86
4991.00,0.87
4990.00,0.87
4989.00,0.87
4988.00,0.87
4987.00,0.87
4986.00,0.87
4985.00,0.87
4984.00,0.87
4983.00,0.87
4982.00,0.87
4981.00,0.87
4980.00,0.87
4979.00,0.87
4978.00,0.87
4977.00,0.87
4976.00,0.87
4975.00,0.87
4974.00,0.87
4973.00,0.87
4972.00,0.87
4971.00,0.87
4970.00,0.87
4969.00,0.87
4968.00,0.87
4967.00,0.87
4966.00,0.87
4965.00,0.87
4964.00,0.87
4963.00,0.87
4962.00,0.88
4961.00,0.88
4960.00,0.88
4959.00,0.88
4958.00,0.88
4957.00,0.88
4956.00,0.88
4955.00,0.88
4954.00,0.88
4953.00,0.88
4952.00,0.88
4951.00,0.88
4950.00,0.88
4949.00,0.89
4948.00,0.89
4947.00,0.89
4946.00,0.89
4945.00,0.89
4944.00,0.89
4943.00,0.89
4942.00,0.89
4941.00,0.89
4940.00,0.89
4939.00,0.89
4938.00,0.89
4937.00,0.89
4936.00,0.89
4935.00,0.89
4934.00,0.89
4933.00,0.89
4932.00,0.89
4931.00,0.89
4930.00,0.89
4929.00,0.89
4928.00,0.89
4927.00,0.89
4926.00,0.89
4925.00,0.89
4924.00,0.89
4923.00,0.89
4922.00,0.89
4921.00,0.90
4920.00,0.90
4919.00,0.90
4918.00,0.90
4917.00,0.90
4916.00,0.90
4915.00,0.90
4914.00,0.90
4913.00,0.90
4912.00,0.90
4911.00,0.90
4910.00,0.90
4909.00,0.90
4908.00,0.90
4907.00,0.90
4906.00,0.90
4905.00,0.91
4904.00,0.91
4903.00,0.91
4902.00,0.91
4901.00,0.91
4900.00,0.91
4899.00,0.91
4898.00,0.91
4897.00,0.91
4896.00,0.91
4895.00,0.91
4894.00,0.91
4893.00,0.91
4892.00,0.91
4891.00,0.92
4890.00,0.92
4889.00,0.92
4888.00,0.92
4887.00,0.92
4886.00,0.92
4885.00,0.92
4884.00,0.92
4883.00,0.92
4882.00,0.92
4881.00,0.92
4880.00,0.92
4879.00,0.92
4878.00,0.92
4877.00,0.92
4876.00,0.92
4875.00,0.92
4874.00,0.92
4873.00,0.92
4872.00,0.92
4871.00,0.92
4870.00,0.92
4869.00,0.92
4868.00,0.92
4867.00,0.92
4866.00,0.92
4865.00,0.92
4864.00,0.92
4863.00,0.92
4862.00,0.92
4861.00,0.92
4860.00,0.92
4859.00,0.92
4858.00,0.92
4857.00,0.93
4856.00,0.93
4855.00,0.93
4854.00,0.93
4853.00,0.93
4852.00,0.93
4851.00,0.93
4850.00,0.93
4849.00,0.93
4848.00,0.93
4847.00,0.93
4846.00,0.93
4845.00,0.93
4844.00,0.93
4843.00,0.93
4842.00,0.94
4841.00,0.94
4840.00,0.94
4839.00,0.94
4838.00,0.94
4837.00,0.94
4836.00,0.94
4835.00,0.94
4834.00,0.94
4833.00,0.94
4832.00,0.94
4831.00,0.94
4830.00,0.94
4829.00,0.94
4828.00,0.94
4827.00,0.94
4826.00,0.95
4825.00,0.95
4824.00,0.95
4823.00,0.95
4822.00,0.95
4821.00,0.95
4820.00,0.95
4819.00,0.95
4818.00,0.95
4817.00,0.95
4816.00,0.96
4815.00,0.96
4814.00,0.96
4813.00,0.96
4812.00,0.96
4811.00,0.96
4810.00,0.96
4809.00,0.96
4808.00,0.96
4807.00,0.96
4806.00,0.96
4805.00,0.96
4804.00,0.96
4803.00,0.96
4802.00,0.96
4801.00,0.96
4800.00,0.96
4799.00,0.96
4798.00,0.96
4797.00,0.96
4796.00,0.96
4795.00,0.97
4794.00,0.97
4793.00,0.97
4792.00,0.97
4791.00,0.97
4790.00,0.97
4789.00,0.98
4788.00,0.98
4787.00,0.98
4786.00,0.98
4785.00,0.98
4784.00,0.98
4783.00,0.99
4782.00,0.99
4781.00,0.99
4780.00,0.99
4779.00,0.99
4778.00,0.99
4777.00,0.99
4776.00,0.99
4775.00,0.99
4774.00,0.99
4773.00,0.99
4772.00,0.99
4771.00,0.99
4770.00,0.99
4769.00,0.99
4768.00,0.99
4767.00,0.99
4766.00,0.99
4765.00,0.99
4764.00,0.99
4763.00,1.00
4762.00,1.00
4761.00,1.00
4760.00,1.00
4759.00,1.00
4758.00,1.00
4757.00,1.00
4756.00,1.00
4755.00,1.01
4754.00,1.01
4753.00,1.01
4752.00,1.01
4751.00,1.01
4750.00,1.01
4749.00,1.01
4748.00,1.01
4747.00,1.02
4746.00,1.02
4745.00,1.02
4744.00,1.02
4743.00,1.02
4742.00,1.02
4741.00,1.02
4740.00,1.02
4739.00,1.02
4738.00,1.02
4737.00,1.02
4736.00,1.02
4735.00,1.02
4734.00,1.02
4733.00,1.02
4732.00,1.02
4731.00,1.02
4730.00,1.02
4729.00,1.02
4728.00,1.02
4727.00,1.02
4726.00,1.02
4725.00,1.02
4724.00,1.02
4723.00,1.02
4722.00,1.02
4721.00,1.02
4720.00,1.02
4719.00,1.02
4718.00,1.02
4717.00,1.02
4716.00,1.02
4715.00,1.02
4714.00,1.03
4713.00,1.03
4712.00,1.03
4711.00,1.03
4710.00,1.03
4709.00,1.03
4708.00,1.04
4707.00,1.04
4706.00,1.04
4705.00,1.04
4704.00,1.04
4703.00,1.04
4702.00,1.05
4701.00,1.05
4700.00,1.05
4699.00,1.05
4698.00,1.05
4697.00,1.05
4696.00,1.05
4695.00,1.06
4694.00,1.06
4693.00,1.06
4692.00,1.06
4691.00,1.06
4690.00,1.06
4689.00,1.06
4688.00,1.06
4687.00,1.06
4686.00,1.06
4685.00,1.06
4684.00,1.06
4683.00,1.07
4682.00,1.07
4681.00,1.07
4680.00,1.07
4679.00,1.07
4678.00,1.07
4677.00,1.07
4676.00,1.07
4675.00,1.07
4674.00,1.07
4673.00,1.07
4672.00,1.07
4671.00,1.07
4670.00,1.07
4669.00,1.07
4668.00,1.08
4667.00,1.08
4666.00,1.08
4665.00,1.08
4664.00,1.08
4663.00,1.08
4662.00,1.08
4661.00,1.08
4660.00,1.08
4659.00,1.08
4658.00,1.08
4657.00,1.08
4656.00,1.09
4655.00,1.09
4654.00,1.09
4653.00,1.09
4652.00,1.09
4651.00,1.09
4650.00,1.09
4649.00,1.09
4648.00,1.09
4647.00,1.10
4646.00,1.10
4645.00,1.10
4644.00,1.10
4643.00,1.10
4642.00,1.10
4641.00,1.10
4640.00,1.10
4639.00,1.10
4638.00,1.11
4637.00,1.11
4636.00,1.11
4635.00,1.11
4634.00,1.11
4633.00,1.11
4632.00,1.11
4631.00,1.11
4630.00,1.11
4629.00,1.11
4628.00,1.11
4627.00,1.11
4626.00,1.11
4625.00,1.11
4624.00,1.11
4623.00,1.11
4622.00,1.11
4621.00,1.11
4620.00,1.12
4619.00,1.12
4618.00,1.12
4617.00,1.12
4616.00,1.12
4615.00,1.12
4614.00,1.12
4613.00,1.12
4612.00,1.12
4611.00,1.12
4610.00,1.13
4609.00,1.13
4608.00,1.13
4607.00,1.13
4606.00,1.13
4605.00,1.13
4604.00,1.13
4603.00,1.13
4602.00,1.13
4601.00,1.13
4600.00,1.13
4599.00,1.13
4598.00,1.13
4597.00,1.14
4596.00,1.14
4595.00,1.14
4594.00,1.14
4593.00,1.14
4592.00,1.14
4591.00,1.14
4590.00,1.14
4589.00,1.14
4588.00,1.14
4587.00,1.14
4586.00,1.14
4585.00,1.14
4584.00,1.14
4583.00,1.14
4582.00,1.14
4581.00,1.14
4580.00,1.14
4579.00,1.15
4578.00,1.15
4577.00,1.15
4576.00,1.15
4575.00,1.15
4574.00,1.15
4573.00,1.15
4572.00,1.15
4571.00,1.15
4570.00,1.16
4569.00,1.16
4568.00,1.16
4567.00,1.16
4566.00,1.16
4565.00,1.16
4564.00,1.16
4563.00,1.16
4562.00,1.16
4561.00,1.16
4560.00,1.16
4559.00,1.16
4558.00,1.16
4557.00,1.16
4556.00,1.16
4555.00,1.16
4554.00,1.16
4553.00,1.16
4552.00,1.16
4551.00,1.16
4550.00,1.16
4549.00,1.16
4548.00,1.17
4547.00,1.17
4546.00,1.17
4545.00,1.17
4544.00,1.17
4543.00,1.17
4542.00,1.17
4541.00,1.17
4540.00,1.17
4539.00,1.17
4538.00,1.17
4537.00,1.17
4536.00,1.17
4535.00,1.17
4534.00,1.17
4533.00,1.17
4532.00,1.17
4531.00,1.17
4530.00,1.17
4529.00,1.17
4528.00,1.17
4527.00,1.17
4526.00,1.17
4525.00,1.17
4524.00,1.17
4523.00,1.17
4522.00,1.17
4521.00,1.17
4520.00,1.17
4519.00,1.17
4518.00,1.17
4517.00,1.17
4516.00,1.17
4515.00,1.17
4514.00,1.17
4513.00,1.17
4512.00,1.17
4511.00,1.17
4510.00,1.17
4509.00,1.17
4508.00,1.17
4507.00,1.17
4506.00,1.17
4505.00,1.17
4504.00,1.17
4503.00,1.17
4502.00,1.17
4501.00,1.17
4500.00,1.17
4499.00,1.17
4498.00,1.17
4497.00,1.17
4496.00,1.17
4495.00,1.17
4494.00,1.17
4493.00,1.17
4492.00,1.17
4491.00,1.17
4490.00,1.17
4489.00,1.17
4488.00,1.17
4487.00,1.17
4486.00,1.17
4485.00,1.17
4484.00,1.17
4483.00,1.17
4482.00,1.17
4481.00,1.17
4480.00,1.17
4479.00,1.17
4478.00,1.17
4477.00,1.17
4476.00,1.17
4475.00,1.17
4474.00,1.17
4473.00,1.17
4472.00,1.17
4471.00,1.17
4470.00,1.17
4469.00,1.17
4468.00,1.17
4467.00,1.17
4466.00,1.16
4465.00,1.16
4464.00,1.16
4463.00,1.16
4462.00,1.16
4461.00,1.16
4460.00,1.16
4459.00,1.16
4458.00,1.15
4457.00,1.15
4456.00,1.15
4455.00,1.15
4454.00,1.15
4453.00,1.14
4452.00,1.14
4451.00,1.14
4450.00,1.14
4449.00,1.13
4448.00,1.13
4447.00,1.13
4446.00,1.12
4445.00,1.12
4444.00,1.12
4443.00,1.12
4442.00,1.11
4441.00,1.11
4440.00,1.11
4439.00,1.11
4438.00,1.11
4437.00,1.10
4436.00,1.10
4435.00,1.10
4434.00,1.10
4433.00,1.10
4432.00,1.10
4431.00,1.10
4430.00,1.10
4429.00,1.10
4428.00,1.09
4427.00,1.09
4426.00,1.09
4425.00,1.09
4424.00,1.09
4423.00,1.09
4422.00,1.09
4421.00,1.09
4420.00,1.09
4419.00,1.09
4418.00,1.09
4417.00,1.09
4416.00,1.09
4415.00,1.09
4414.00,1.09
4413.00,1.09
4412.00,1.09
4411.00,1.09
4410.00,1.09
4409.00,1.09
4408.00,1.09
4407.00,1.09
4406.00,1.09
4405.00,1.09
4404.00,1.09
4403.00,1.09
4402.00,1.09
4401.00,1.10
4400.00,1.10
4399.00,1.10
4398.00,1.10
4397.00,1.10
4396.00,1.10
4395.00,1.10
4394.00,1.10
4393.00,1.10
4392.00,1.10
4391.00,1.11
4390.00,1.11
4389.00,1.11
4388.00,1.11
4387.00,1.11
4386.00,1.11
4385.00,1.11
4384.00,1.11
4383.00,1.12
4382.00,1.12
4381.00,1.12
4380.00,1.12
4379.00,1.12
4378.00,1.12
4377.00,1.12
4376.00,1.12
4375.00,1.12
4374.00,1.13
4373.00,1.13
4372.00,1.13
4371.00,1.13
4370.00,1.13
4369.00,1.13
4368.00,1.13
4367.00,1.13
4366.00,1.13
4365.00,1.13
4364.00,1.13
4363.00,1.12
4362.00,1.12
4361.00,1.12
4360.00,1.12
4359.00,1.12
4358.00,1.12
4357.00,1.12
4356.00,1.12
4355.00,1.12
4354.00,1.12
4353.00,1.12
4352.00,1.12
4351.00,1.12
4350.00,1.12
4349.00,1.12
4348.00,1.12
4347.00,1.12
4346.00,1.12
4345.00,1.12
4344.00,1.12
4343.00,1.12
4342.00,1.12
4341.00,1.12
4340.00,1.12
4339.00,1.12
4338.00,1.12
4337.00,1.12
4336.00,1.13
4335.00,1.13
4334.00,1.13
4333.00,1.13
4332.00,1.13
4331.00,1.13
4330.00,1.13
4329.00,1.13
4328.00,1.14
4327.00,1.14
4326.00,1.14
4325.00,1.14
4324.00,1.14
4323.00,1.14
4322.00,1.14
4321.00,1.15
4320.00,1.15
4319.00,1.15
4318.00,1.15
4317.00,1.15
4316.00,1.15
4315.00,1.15
4314.00,1.15
4313.00,1.15
4312.00,1.15
4311.00,1.15
4310.00,1.15
4309.00,1.16
4308.00,1.16
4307.00,1.16
4306.00,1.16
4305.00,1.16
4304.00,1.16
4303.00,1.16
4302.00,1.16
4301.00,1.16
4300.00,1.16
4299.00,1.16
4298.00,1.17
4297.00,1.17
4296.00,1.17
4295.00,1.17
4294.00,1.17
4293.00,1.17
4292.00,1.17
4291.00,1.17
4290.00,1.17
4289.00,1.17
4288.00,1.17
4287.00,1.17
4286.00,1.18
4285.00,1.18
4284.00,1.18
4283.00,1.18
4282.00,1.18
4281.00,1.18
4280.00,1.18
4279.00,1.18
4278.00,1.18
4277.00,1.18
4276.00,1.18
4275.00,1.18
4274.00,1.18
4273.00,1.18
4272.00,1.18
4271.00,1.17
4270.00,1.17
4269.00,1.17
4268.00,1.17
4267.00,1.17
4266.00,1.17
4265.00,1.17
4264.00,1.17
4263.00,1.17
4262.00,1.17
4261.00,1.17
4260.00,1.17
4259.00,1.17
4258.00,1.17
4257.00,1.17
4256.00,1.17
4255.00,1.17
4254.00,1.17
4253.00,1.17
4252.00,1.17
4251.00,1.17
4250.00,1.17
4249.00,1.18
4248.00,1.18
4247.00,1.18
4246.00,1.18
4245.00,1.18
4244.00,1.18
4243.00,1.18
4242.00,1.18
4241.00,1.18
4240.00,1.18
4239.00,1.18
4238.00,1.19
4237.00,1.19
4236.00,1.19
4235.00,1.19
4234.00,1.19
4233.00,1.19
4232.00,1.19
4231.00,1.19
4230.00,1.19
4229.00,1.19
4228.00,1.19
4227.00,1.19
4226.00,1.19
4225.00,1.19
4224.00,1.19
4223.00,1.19
4222.00,1.19
4221.00,1.19
4220.00,1.19
4219.00,1.19
4218.00,1.19
4217.00,1.19
4216.00,1.19
4215.00,1.19
4214.00,1.19
4213.00,1.19
4212.00,1.19
4211.00,1.19
4210.00,1.19
4209.00,1.19
4208.00,1.19
4207.00,1.19
4206.00,1.19
4205.00,1.19
4204.00,1.19
4203.00,1.19
4202.00,1.19
4201.00,1.19
4200.00,1.19
4199.00,1.19
4198.00,1.19
4197.00,1.19
4196.00,1.19
4195.00,1.20
4194.00,1.20
4193.00,1.20
4192.00,1.20
4191.00,1.20
4190.00,1.20
4189.00,1.21
4188.00,1.21
4187.00,1.21
4186.00,1.21
4185.00,1.21
4184.00,1.21
4183.00,1.22
4182.00,1.22
4181.00,1.22
4180.00,1.22
4179.00,1.22
4178.00,1.22
4177.00,1.22
4176.00,1.22
4175.00,1.21
4174.00,1.21
4173.00,1.21
4172.00,1.21
4171.00,1.21
4170.00,1.21
4169.00,1.22
4168.00,1.22
4167.00,1.22
4166.00,1.22
4165.00,1.22
4164.00,1.22
4163.00,1.22
4162.00,1.22
4161.00,1.22
4160.00,1.22
4159.00,1.22
4158.00,1.22
4157.00,1.22
4156.00,1.22
4155.00,1.22
4154.00,1.22
4153.00,1.22
4152.00,1.22
4151.00,1.21
4150.00,1.21
4149.00,1.21
4148.00,1.21
4147.00,1.21
4146.00,1.21
4145.00,1.21
4144.00,1.21
4143.00,1.21
4142.00,1.21
4141.00,1.21
4140.00,1.22
4139.00,1.22
4138.00,1.22
4137.00,1.22
4136.00,1.22
4135.00,1.22
4134.00,1.22
4133.00,1.23
4132.00,1.23
4131.00,1.23
4130.00,1.23
4129.00,1.23
4128.00,1.24
4127.00,1.24
4126.00,1.24
4125.00,1.24
4124.00,1.24
4123.00,1.24
4122.00,1.24
4121.00,1.24
4120.00,1.24
4119.00,1.24
4118.00,1.24
4117.00,1.24
4116.00,1.24
4115.00,1.24
4114.00,1.24
4113.00,1.24
4112.00,1.24
4111.00,1.24
4110.00,1.24
4109.00,1.24
4108.00,1.24
4107.00,1.24
4106.00,1.24
4105.00,1.24
4104.00,1.24
4103.00,1.24
4102.00,1.24
4101.00,1.24
4100.00,1.24
4099.00,1.24
4098.00,1.24
4097.00,1.24
4096.00,1.24
4095.00,1.24
4094.00,1.24
4093.00,1.24
4092.00,1.24
4091.00,1.24
4090.00,1.24
4089.00,1.24
4088.00,1.24
4087.00,1.23
4086.00,1.23
4085.00,1.23
4084.00,1.23
4083.00,1.24
4082.00,1.24
4081.00,1.24
4080.00,1.24
4079.00,1.24
4078.00,1.24
4077.00,1.24
4076.00,1.24
4075.00,1.24
4074.00,1.24
4073.00,1.24
4072.00,1.24
4071.00,1.24
4070.00,1.25
4069.00,1.25
4068.00,1.25
4067.00,1.25
4066.00,1.25
4065.00,1.25
4064.00,1.25
4063.00,1.25
4062.00,1.25
4061.00,1.26
4060.00,1.26
4059.00,1.26
4058.00,1.26
4057.00,1.26
4056.00,1.26
4055.00,1.26
4054.00,1.26
4053.00,1.26
4052.00,1.26
4051.00,1.27
4050.00,1.27
4049.00,1.27
4048.00,1.27
4047.00,1.27
4046.00,1.27
4045.00,1.27
4044.00,1.27
4043.00,1.27
4042.00,1.27
4041.00,1.27
4040.00,1.27
4039.00,1.27
4038.00,1.27
4037.00,1.27
4036.00,1.27
4035.00,1.27
4034.00,1.27
4033.00,1.27
4032.00,1.27
4031.00,1.27
4030.00,1.27
4029.00,1.27
4028.00,1.27
4027.00,1.27
4026.00,1.27
4025.00,1.27
4024.00,1.27
4023.00,1.27
4022.00,1.27
4021.00,1.28
4020.00,1.28
4019.00,1.28
4018.00,1.28
4017.00,1.28
4016.00,1.29
4015.00,1.29
4014.00,1.29
4013.00,1.29
4012.00,1.30
4011.00,1.30
4010.00,1.30
4009.00,1.30
4008.00,1.30
4007.00,1.30
4006.00,1.30
4005.00,1.31
4004.00,1.31
4003.00,1.31
4002.00,1.31
4001.00,1.31
4000.00,1.31
