创建为新数据集,样品 104 用户 Administrator 日期 星期六, 七月 21 2018
cm-1,%T
10000.00,1.40
9999.00,1.40
9998.00,1.40
9997.00,1.40
9996.00,1.40
9995.00,1.39
9994.00,1.39
9993.00,1.39
9992.00,1.39
9991.00,1.38
9990.00,1.38
9989.00,1.38
9988.00,1.38
9987.00,1.38
9986.00,1.37
9985.00,1.37
9984.00,1.37
9983.00,1.37
9982.00,1.37
9981.00,1.37
9980.00,1.37
9979.00,1.37
9978.00,1.38
9977.00,1.38
9976.00,1.38
9975.00,1.38
9974.00,1.39
9973.00,1.39
9972.00,1.39
9971.00,1.39
9970.00,1.39
9969.00,1.40
9968.00,1.40
9967.00,1.40
9966.00,1.40
9965.00,1.40
9964.00,1.40
9963.00,1.40
9962.00,1.40
9961.00,1.40
9960.00,1.40
9959.00,1.40
9958.00,1.40
9957.00,1.40
9956.00,1.40
9955.00,1.40
9954.00,1.40
9953.00,1.40
9952.00,1.40
9951.00,1.40
9950.00,1.40
9949.00,1.40
9948.00,1.40
9947.00,1.40
9946.00,1.40
9945.00,1.40
9944.00,1.40
9943.00,1.40
9942.00,1.40
9941.00,1.40
9940.00,1.40
9939.00,1.39
9938.00,1.39
9937.00,1.39
9936.00,1.39
9935.00,1.39
9934.00,1.39
9933.00,1.38
9932.00,1.38
9931.00,1.38
9930.00,1.38
9929.00,1.38
9928.00,1.38
9927.00,1.38
9926.00,1.38
9925.00,1.38
9924.00,1.38
9923.00,1.38
9922.00,1.38
9921.00,1.38
9920.00,1.38
9919.00,1.38
9918.00,1.38
9917.00,1.39
9916.00,1.39
9915.00,1.39
9914.00,1.39
9913.00,1.39
9912.00,1.40
9911.00,1.40
9910.00,1.40
9909.00,1.40
9908.00,1.41
9907.00,1.41
9906.00,1.41
9905.00,1.41
9904.00,1.41
9903.00,1.41
9902.00,1.41
9901.00,1.41
9900.00,1.41
9899.00,1.40
9898.00,1.40
9897.00,1.40
9896.00,1.39
9895.00,1.39
9894.00,1.39
9893.00,1.38
9892.00,1.38
9891.00,1.38
9890.00,1.38
9889.00,1.37
9888.00,1.37
9887.00,1.37
9886.00,1.37
9885.00,1.37
9884.00,1.37
9883.00,1.37
9882.00,1.38
9881.00,1.38
9880.00,1.38
9879.00,1.38
9878.00,1.39
9877.00,1.39
9876.00,1.39
9875.00,1.39
9874.00,1.39
9873.00,1.39
9872.00,1.39
9871.00,1.39
9870.00,1.39
9869.00,1.39
9868.00,1.39
9867.00,1.39
9866.00,1.39
9865.00,1.39
9864.00,1.39
9863.00,1.38
9862.00,1.38
9861.00,1.38
9860.00,1.38
9859.00,1.38
9858.00,1.38
9857.00,1.38
9856.00,1.38
9855.00,1.38
9854.00,1.38
9853.00,1.38
9852.00,1.38
9851.00,1.39
9850.00,1.39
9849.00,1.39
9848.00,1.39
9847.00,1.39
9846.00,1.40
9845.00,1.40
9844.00,1.40
9843.00,1.40
9842.00,1.40
9841.00,1.40
9840.00,1.40
9839.00,1.40
9838.00,1.40
9837.00,1.40
9836.00,1.40
9835.00,1.40
9834.00,1.40
9833.00,1.39
9832.00,1.39
9831.00,1.39
9830.00,1.39
9829.00,1.38
9828.00,1.38
9827.00,1.38
9826.00,1.38
9825.00,1.37
9824.00,1.37
9823.00,1.37
9822.00,1.37
9821.00,1.36
9820.00,1.36
9819.00,1.36
9818.00,1.36
9817.00,1.36
9816.00,1.36
9815.00,1.35
9814.00,1.35
9813.00,1.35
9812.00,1.35
9811.00,1.35
9810.00,1.36
9809.00,1.36
9808.00,1.36
9807.00,1.36
9806.00,1.36
9805.00,1.36
9804.00,1.36
9803.00,1.37
9802.00,1.37
9801.00,1.37
9800.00,1.37
9799.00,1.37
9798.00,1.37
9797.00,1.37
9796.00,1.37
9795.00,1.38
9794.00,1.38
9793.00,1.38
9792.00,1.38
9791.00,1.38
9790.00,1.38
9789.00,1.38
9788.00,1.39
9787.00,1.39
9786.00,1.39
9785.00,1.39
9784.00,1.39
9783.00,1.39
9782.00,1.39
9781.00,1.39
9780.00,1.39
9779.00,1.39
9778.00,1.39
9777.00,1.39
9776.00,1.39
9775.00,1.39
9774.00,1.39
9773.00,1.39
9772.00,1.38
9771.00,1.38
9770.00,1.38
9769.00,1.38
9768.00,1.38
9767.00,1.38
9766.00,1.38
9765.00,1.38
9764.00,1.38
9763.00,1.38
9762.00,1.38
9761.00,1.39
9760.00,1.39
9759.00,1.39
9758.00,1.39
9757.00,1.39
9756.00,1.39
9755.00,1.39
9754.00,1.39
9753.00,1.39
9752.00,1.39
9751.00,1.39
9750.00,1.39
9749.00,1.39
9748.00,1.39
9747.00,1.39
9746.00,1.38
9745.00,1.38
9744.00,1.38
9743.00,1.38
9742.00,1.37
9741.00,1.37
9740.00,1.37
9739.00,1.37
9738.00,1.37
9737.00,1.36
9736.00,1.36
9735.00,1.36
9734.00,1.36
9733.00,1.36
9732.00,1.36
9731.00,1.36
9730.00,1.37
9729.00,1.37
9728.00,1.37
9727.00,1.37
9726.00,1.37
9725.00,1.37
9724.00,1.38
9723.00,1.38
9722.00,1.38
9721.00,1.38
9720.00,1.38
9719.00,1.38
9718.00,1.38
9717.00,1.38
9716.00,1.38
9715.00,1.38
9714.00,1.38
9713.00,1.38
9712.00,1.38
9711.00,1.37
9710.00,1.37
9709.00,1.37
9708.00,1.37
9707.00,1.37
9706.00,1.36
9705.00,1.36
9704.00,1.36
9703.00,1.36
9702.00,1.36
9701.00,1.36
9700.00,1.36
9699.00,1.36
9698.00,1.36
9697.00,1.36
9696.00,1.37
9695.00,1.37
9694.00,1.37
9693.00,1.37
9692.00,1.37
9691.00,1.37
9690.00,1.37
9689.00,1.37
9688.00,1.37
9687.00,1.37
9686.00,1.37
9685.00,1.37
9684.00,1.37
9683.00,1.37
9682.00,1.36
9681.00,1.36
9680.00,1.36
9679.00,1.36
9678.00,1.36
9677.00,1.36
9676.00,1.36
9675.00,1.36
9674.00,1.35
9673.00,1.35
9672.00,1.35
9671.00,1.35
9670.00,1.36
9669.00,1.36
9668.00,1.36
9667.00,1.36
9666.00,1.36
9665.00,1.36
9664.00,1.36
9663.00,1.36
9662.00,1.36
9661.00,1.36
9660.00,1.36
9659.00,1.37
9658.00,1.37
9657.00,1.37
9656.00,1.37
9655.00,1.37
9654.00,1.37
9653.00,1.38
9652.00,1.38
9651.00,1.38
9650.00,1.38
9649.00,1.38
9648.00,1.38
9647.00,1.39
9646.00,1.39
9645.00,1.39
9644.00,1.39
9643.00,1.39
9642.00,1.39
9641.00,1.39
9640.00,1.39
9639.00,1.39
9638.00,1.39
9637.00,1.39
9636.00,1.39
9635.00,1.39
9634.00,1.39
9633.00,1.39
9632.00,1.39
9631.00,1.39
9630.00,1.39
9629.00,1.39
9628.00,1.39
9627.00,1.39
9626.00,1.39
9625.00,1.38
9624.00,1.38
9623.00,1.38
9622.00,1.38
9621.00,1.38
9620.00,1.38
9619.00,1.38
9618.00,1.38
9617.00,1.38
9616.00,1.38
9615.00,1.38
9614.00,1.38
9613.00,1.38
9612.00,1.38
9611.00,1.38
9610.00,1.38
9609.00,1.38
9608.00,1.38
9607.00,1.38
9606.00,1.38
9605.00,1.39
9604.00,1.39
9603.00,1.39
9602.00,1.39
9601.00,1.39
9600.00,1.39
9599.00,1.39
9598.00,1.39
9597.00,1.39
9596.00,1.39
9595.00,1.39
9594.00,1.39
9593.00,1.39
9592.00,1.39
9591.00,1.39
9590.00,1.39
9589.00,1.39
9588.00,1.39
9587.00,1.39
9586.00,1.39
9585.00,1.39
9584.00,1.39
9583.00,1.39
9582.00,1.39
9581.00,1.39
9580.00,1.39
9579.00,1.39
9578.00,1.39
9577.00,1.39
9576.00,1.39
9575.00,1.39
9574.00,1.39
9573.00,1.39
9572.00,1.39
9571.00,1.39
9570.00,1.39
9569.00,1.39
9568.00,1.39
9567.00,1.39
9566.00,1.39
9565.00,1.39
9564.00,1.39
9563.00,1.39
9562.00,1.39
9561.00,1.39
9560.00,1.39
9559.00,1.39
9558.00,1.39
9557.00,1.39
9556.00,1.38
9555.00,1.38
9554.00,1.38
9553.00,1.38
9552.00,1.37
9551.00,1.37
9550.00,1.37
9549.00,1.37
9548.00,1.37
9547.00,1.37
9546.00,1.37
9545.00,1.36
9544.00,1.36
9543.00,1.36
9542.00,1.36
9541.00,1.36
9540.00,1.36
9539.00,1.36
9538.00,1.36
9537.00,1.37
9536.00,1.37
9535.00,1.37
9534.00,1.37
9533.00,1.37
9532.00,1.37
9531.00,1.37
9530.00,1.37
9529.00,1.37
9528.00,1.37
9527.00,1.37
9526.00,1.37
9525.00,1.37
9524.00,1.37
9523.00,1.37
9522.00,1.38
9521.00,1.38
9520.00,1.38
9519.00,1.38
9518.00,1.38
9517.00,1.38
9516.00,1.38
9515.00,1.38
9514.00,1.37
9513.00,1.37
9512.00,1.37
9511.00,1.37
9510.00,1.37
9509.00,1.37
9508.00,1.37
9507.00,1.37
9506.00,1.37
9505.00,1.37
9504.00,1.37
9503.00,1.36
9502.00,1.36
9501.00,1.36
9500.00,1.36
9499.00,1.36
9498.00,1.36
9497.00,1.36
9496.00,1.36
9495.00,1.36
9494.00,1.36
9493.00,1.36
9492.00,1.36
9491.00,1.36
9490.00,1.36
9489.00,1.36
9488.00,1.36
9487.00,1.36
9486.00,1.36
9485.00,1.36
9484.00,1.36
9483.00,1.36
9482.00,1.36
9481.00,1.36
9480.00,1.36
9479.00,1.36
9478.00,1.36
9477.00,1.36
9476.00,1.36
9475.00,1.36
9474.00,1.37
9473.00,1.37
9472.00,1.37
9471.00,1.37
9470.00,1.37
9469.00,1.37
9468.00,1.37
9467.00,1.37
9466.00,1.37
9465.00,1.37
9464.00,1.37
9463.00,1.37
9462.00,1.36
9461.00,1.36
9460.00,1.36
9459.00,1.36
9458.00,1.36
9457.00,1.36
9456.00,1.36
9455.00,1.36
9454.00,1.36
9453.00,1.36
9452.00,1.36
9451.00,1.36
9450.00,1.36
9449.00,1.36
9448.00,1.36
9447.00,1.36
9446.00,1.37
9445.00,1.37
9444.00,1.37
9443.00,1.37
9442.00,1.37
9441.00,1.38
9440.00,1.38
9439.00,1.38
9438.00,1.38
9437.00,1.38
9436.00,1.38
9435.00,1.39
9434.00,1.39
9433.00,1.39
9432.00,1.39
9431.00,1.39
9430.00,1.39
9429.00,1.39
9428.00,1.39
9427.00,1.39
9426.00,1.39
9425.00,1.39
9424.00,1.39
9423.00,1.39
9422.00,1.39
9421.00,1.39
9420.00,1.39
9419.00,1.39
9418.00,1.39
9417.00,1.39
9416.00,1.39
9415.00,1.38
9414.00,1.38
9413.00,1.38
9412.00,1.38
9411.00,1.38
9410.00,1.38
9409.00,1.38
9408.00,1.38
9407.00,1.38
9406.00,1.38
9405.00,1.38
9404.00,1.39
9403.00,1.39
9402.00,1.39
9401.00,1.39
9400.00,1.39
9399.00,1.39
9398.00,1.39
9397.00,1.39
9396.00,1.39
9395.00,1.38
9394.00,1.38
9393.00,1.38
9392.00,1.38
9391.00,1.38
9390.00,1.38
9389.00,1.38
9388.00,1.38
9387.00,1.38
9386.00,1.38
9385.00,1.38
9384.00,1.38
9383.00,1.38
9382.00,1.37
9381.00,1.37
9380.00,1.37
9379.00,1.37
9378.00,1.37
9377.00,1.37
9376.00,1.37
9375.00,1.38
9374.00,1.38
9373.00,1.38
9372.00,1.38
9371.00,1.38
9370.00,1.38
9369.00,1.38
9368.00,1.38
9367.00,1.38
9366.00,1.39
9365.00,1.39
9364.00,1.39
9363.00,1.39
9362.00,1.39
9361.00,1.39
9360.00,1.39
9359.00,1.39
9358.00,1.39
9357.00,1.39
9356.00,1.39
9355.00,1.39
9354.00,1.39
9353.00,1.39
9352.00,1.39
9351.00,1.39
9350.00,1.39
9349.00,1.39
9348.00,1.39
9347.00,1.39
9346.00,1.38
9345.00,1.38
9344.00,1.38
9343.00,1.38
9342.00,1.38
9341.00,1.38
9340.00,1.38
9339.00,1.38
9338.00,1.38
9337.00,1.38
9336.00,1.38
9335.00,1.38
9334.00,1.38
9333.00,1.38
9332.00,1.38
9331.00,1.38
9330.00,1.38
9329.00,1.38
9328.00,1.37
9327.00,1.37
9326.00,1.37
9325.00,1.37
9324.00,1.37
9323.00,1.37
9322.00,1.37
9321.00,1.37
9320.00,1.37
9319.00,1.37
9318.00,1.37
9317.00,1.37
9316.00,1.37
9315.00,1.37
9314.00,1.37
9313.00,1.37
9312.00,1.37
9311.00,1.37
9310.00,1.37
9309.00,1.37
9308.00,1.38
9307.00,1.38
9306.00,1.38
9305.00,1.38
9304.00,1.38
9303.00,1.38
9302.00,1.38
9301.00,1.38
9300.00,1.38
9299.00,1.39
9298.00,1.39
9297.00,1.39
9296.00,1.38
9295.00,1.38
9294.00,1.38
9293.00,1.38
9292.00,1.38
9291.00,1.38
9290.00,1.38
9289.00,1.38
9288.00,1.38
9287.00,1.38
9286.00,1.37
9285.00,1.37
9284.00,1.37
9283.00,1.37
9282.00,1.37
9281.00,1.37
9280.00,1.37
9279.00,1.36
9278.00,1.36
9277.00,1.36
9276.00,1.36
9275.00,1.36
9274.00,1.35
9273.00,1.35
9272.00,1.35
9271.00,1.35
9270.00,1.35
9269.00,1.34
9268.00,1.34
9267.00,1.34
9266.00,1.34
9265.00,1.33
9264.00,1.33
9263.00,1.33
9262.00,1.33
9261.00,1.33
9260.00,1.33
9259.00,1.33
9258.00,1.33
9257.00,1.33
9256.00,1.34
9255.00,1.34
9254.00,1.34
9253.00,1.34
9252.00,1.34
9251.00,1.35
9250.00,1.35
9249.00,1.35
9248.00,1.36
9247.00,1.36
9246.00,1.36
9245.00,1.36
9244.00,1.36
9243.00,1.36
9242.00,1.37
9241.00,1.37
9240.00,1.37
9239.00,1.37
9238.00,1.37
9237.00,1.36
9236.00,1.36
9235.00,1.36
9234.00,1.36
9233.00,1.36
9232.00,1.36
9231.00,1.35
9230.00,1.35
9229.00,1.35
9228.00,1.35
9227.00,1.35
9226.00,1.35
9225.00,1.35
9224.00,1.35
9223.00,1.35
9222.00,1.35
9221.00,1.35
9220.00,1.35
9219.00,1.35
9218.00,1.35
9217.00,1.35
9216.00,1.35
9215.00,1.35
9214.00,1.36
9213.00,1.36
9212.00,1.36
9211.00,1.36
9210.00,1.36
9209.00,1.36
9208.00,1.36
9207.00,1.36
9206.00,1.36
9205.00,1.36
9204.00,1.36
9203.00,1.36
9202.00,1.36
9201.00,1.36
9200.00,1.36
9199.00,1.36
9198.00,1.36
9197.00,1.37
9196.00,1.37
9195.00,1.37
9194.00,1.37
9193.00,1.37
9192.00,1.37
9191.00,1.38
9190.00,1.38
9189.00,1.38
9188.00,1.38
9187.00,1.38
9186.00,1.38
9185.00,1.39
9184.00,1.39
9183.00,1.39
9182.00,1.39
9181.00,1.39
9180.00,1.39
9179.00,1.39
9178.00,1.40
9177.00,1.40
9176.00,1.40
9175.00,1.40
9174.00,1.40
9173.00,1.40
9172.00,1.40
9171.00,1.40
9170.00,1.40
9169.00,1.40
9168.00,1.40
9167.00,1.39
9166.00,1.39
9165.00,1.39
9164.00,1.39
9163.00,1.39
9162.00,1.39
9161.00,1.39
9160.00,1.38
9159.00,1.38
9158.00,1.38
9157.00,1.38
9156.00,1.38
9155.00,1.38
9154.00,1.39
9153.00,1.39
9152.00,1.39
9151.00,1.39
9150.00,1.39
9149.00,1.39
9148.00,1.40
9147.00,1.40
9146.00,1.40
9145.00,1.40
9144.00,1.40
9143.00,1.40
9142.00,1.40
9141.00,1.40
9140.00,1.40
9139.00,1.40
9138.00,1.40
9137.00,1.40
9136.00,1.39
9135.00,1.39
9134.00,1.39
9133.00,1.39
9132.00,1.39
9131.00,1.39
9130.00,1.38
9129.00,1.38
9128.00,1.38
9127.00,1.38
9126.00,1.38
9125.00,1.38
9124.00,1.39
9123.00,1.39
9122.00,1.39
9121.00,1.39
9120.00,1.39
9119.00,1.39
9118.00,1.39
9117.00,1.39
9116.00,1.39
9115.00,1.39
9114.00,1.40
9113.00,1.40
9112.00,1.39
9111.00,1.39
9110.00,1.39
9109.00,1.39
9108.00,1.39
9107.00,1.39
9106.00,1.39
9105.00,1.39
9104.00,1.39
9103.00,1.38
9102.00,1.38
9101.00,1.38
9100.00,1.38
9099.00,1.38
9098.00,1.38
9097.00,1.38
9096.00,1.38
9095.00,1.37
9094.00,1.37
9093.00,1.37
9092.00,1.37
9091.00,1.37
9090.00,1.37
9089.00,1.37
9088.00,1.37
9087.00,1.37
9086.00,1.37
9085.00,1.38
9084.00,1.38
9083.00,1.38
9082.00,1.38
9081.00,1.38
9080.00,1.38
9079.00,1.38
9078.00,1.38
9077.00,1.38
9076.00,1.38
9075.00,1.38
9074.00,1.38
9073.00,1.38
9072.00,1.38
9071.00,1.38
9070.00,1.38
9069.00,1.38
9068.00,1.38
9067.00,1.38
9066.00,1.37
9065.00,1.37
9064.00,1.37
9063.00,1.37
9062.00,1.37
9061.00,1.37
9060.00,1.37
9059.00,1.37
9058.00,1.37
9057.00,1.37
9056.00,1.37
9055.00,1.37
9054.00,1.37
9053.00,1.37
9052.00,1.37
9051.00,1.37
9050.00,1.37
9049.00,1.37
9048.00,1.37
9047.00,1.37
9046.00,1.37
9045.00,1.37
9044.00,1.37
9043.00,1.37
9042.00,1.37
9041.00,1.37
9040.00,1.37
9039.00,1.37
9038.00,1.37
9037.00,1.37
9036.00,1.37
9035.00,1.38
9034.00,1.38
9033.00,1.38
9032.00,1.38
9031.00,1.38
9030.00,1.38
9029.00,1.37
9028.00,1.37
9027.00,1.37
9026.00,1.37
9025.00,1.37
9024.00,1.37
9023.00,1.37
9022.00,1.37
9021.00,1.37
9020.00,1.36
9019.00,1.36
9018.00,1.36
9017.00,1.36
9016.00,1.36
9015.00,1.36
9014.00,1.36
9013.00,1.36
9012.00,1.36
9011.00,1.36
9010.00,1.36
9009.00,1.36
9008.00,1.36
9007.00,1.36
9006.00,1.36
9005.00,1.36
9004.00,1.36
9003.00,1.36
9002.00,1.36
9001.00,1.35
9000.00,1.35
8999.00,1.35
8998.00,1.35
8997.00,1.35
8996.00,1.35
8995.00,1.35
8994.00,1.35
8993.00,1.35
8992.00,1.35
8991.00,1.35
8990.00,1.35
8989.00,1.35
8988.00,1.35
8987.00,1.35
8986.00,1.36
8985.00,1.36
8984.00,1.36
8983.00,1.36
8982.00,1.37
8981.00,1.37
8980.00,1.37
8979.00,1.37
8978.00,1.38
8977.00,1.38
8976.00,1.38
8975.00,1.38
8974.00,1.38
8973.00,1.38
8972.00,1.38
8971.00,1.38
8970.00,1.38
8969.00,1.38
8968.00,1.38
8967.00,1.38
8966.00,1.38
8965.00,1.38
8964.00,1.38
8963.00,1.37
8962.00,1.37
8961.00,1.37
8960.00,1.37
8959.00,1.37
8958.00,1.37
8957.00,1.37
8956.00,1.36
8955.00,1.36
8954.00,1.36
8953.00,1.36
8952.00,1.36
8951.00,1.36
8950.00,1.36
8949.00,1.36
8948.00,1.36
8947.00,1.36
8946.00,1.37
8945.00,1.37
8944.00,1.37
8943.00,1.37
8942.00,1.37
8941.00,1.38
8940.00,1.38
8939.00,1.38
8938.00,1.38
8937.00,1.38
8936.00,1.39
8935.00,1.39
8934.00,1.39
8933.00,1.39
8932.00,1.39
8931.00,1.39
8930.00,1.39
8929.00,1.40
8928.00,1.40
8927.00,1.40
8926.00,1.40
8925.00,1.39
8924.00,1.39
8923.00,1.39
8922.00,1.39
8921.00,1.39
8920.00,1.39
8919.00,1.39
8918.00,1.38
8917.00,1.38
8916.00,1.38
8915.00,1.38
8914.00,1.38
8913.00,1.38
8912.00,1.37
8911.00,1.37
8910.00,1.37
8909.00,1.37
8908.00,1.37
8907.00,1.37
8906.00,1.37
8905.00,1.38
8904.00,1.38
8903.00,1.38
8902.00,1.38
8901.00,1.38
8900.00,1.38
8899.00,1.38
8898.00,1.39
8897.00,1.39
8896.00,1.39
8895.00,1.39
8894.00,1.39
8893.00,1.39
8892.00,1.39
8891.00,1.39
8890.00,1.39
8889.00,1.38
8888.00,1.38
8887.00,1.38
8886.00,1.38
8885.00,1.38
8884.00,1.38
8883.00,1.38
8882.00,1.37
8881.00,1.37
8880.00,1.37
8879.00,1.37
8878.00,1.38
8877.00,1.38
8876.00,1.38
8875.00,1.38
8874.00,1.38
8873.00,1.38
8872.00,1.39
8871.00,1.39
8870.00,1.39
8869.00,1.39
8868.00,1.39
8867.00,1.39
8866.00,1.39
8865.00,1.39
8864.00,1.39
8863.00,1.39
8862.00,1.39
8861.00,1.39
8860.00,1.39
8859.00,1.39
8858.00,1.39
8857.00,1.39
8856.00,1.38
8855.00,1.38
8854.00,1.38
8853.00,1.38
8852.00,1.37
8851.00,1.37
8850.00,1.37
8849.00,1.37
8848.00,1.37
8847.00,1.37
8846.00,1.37
8845.00,1.37
8844.00,1.37
8843.00,1.37
8842.00,1.37
8841.00,1.37
8840.00,1.37
8839.00,1.37
8838.00,1.37
8837.00,1.37
8836.00,1.37
8835.00,1.37
8834.00,1.37
8833.00,1.37
8832.00,1.37
8831.00,1.37
8830.00,1.37
8829.00,1.37
8828.00,1.37
8827.00,1.37
8826.00,1.37
8825.00,1.37
8824.00,1.37
8823.00,1.37
8822.00,1.37
8821.00,1.37
8820.00,1.36
8819.00,1.36
8818.00,1.36
8817.00,1.36
8816.00,1.37
8815.00,1.37
8814.00,1.37
8813.00,1.37
8812.00,1.37
8811.00,1.37
8810.00,1.37
8809.00,1.37
8808.00,1.37
8807.00,1.37
8806.00,1.37
8805.00,1.37
8804.00,1.37
8803.00,1.37
8802.00,1.37
8801.00,1.37
8800.00,1.37
8799.00,1.37
8798.00,1.37
8797.00,1.37
8796.00,1.37
8795.00,1.36
8794.00,1.36
8793.00,1.36
8792.00,1.36
8791.00,1.36
8790.00,1.36
8789.00,1.36
8788.00,1.35
8787.00,1.35
8786.00,1.35
8785.00,1.35
8784.00,1.35
8783.00,1.35
8782.00,1.35
8781.00,1.35
8780.00,1.35
8779.00,1.35
8778.00,1.34
8777.00,1.34
8776.00,1.34
8775.00,1.34
8774.00,1.34
8773.00,1.34
8772.00,1.34
8771.00,1.34
8770.00,1.34
8769.00,1.34
8768.00,1.34
8767.00,1.34
8766.00,1.34
8765.00,1.34
8764.00,1.34
8763.00,1.34
8762.00,1.34
8761.00,1.34
8760.00,1.34
8759.00,1.34
8758.00,1.34
8757.00,1.34
8756.00,1.34
8755.00,1.33
8754.00,1.33
8753.00,1.33
8752.00,1.33
8751.00,1.33
8750.00,1.33
8749.00,1.33
8748.00,1.33
8747.00,1.33
8746.00,1.33
8745.00,1.33
8744.00,1.33
8743.00,1.33
8742.00,1.33
8741.00,1.33
8740.00,1.33
8739.00,1.34
8738.00,1.34
8737.00,1.34
8736.00,1.34
8735.00,1.34
8734.00,1.34
8733.00,1.34
8732.00,1.34
8731.00,1.34
8730.00,1.34
8729.00,1.34
8728.00,1.34
8727.00,1.34
8726.00,1.34
8725.00,1.34
8724.00,1.34
8723.00,1.34
8722.00,1.34
8721.00,1.34
8720.00,1.34
8719.00,1.34
8718.00,1.34
8717.00,1.33
8716.00,1.33
8715.00,1.33
8714.00,1.33
8713.00,1.33
8712.00,1.33
8711.00,1.33
8710.00,1.33
8709.00,1.32
8708.00,1.32
8707.00,1.32
8706.00,1.32
8705.00,1.32
8704.00,1.32
8703.00,1.31
8702.00,1.31
8701.00,1.31
8700.00,1.31
8699.00,1.31
8698.00,1.31
8697.00,1.31
8696.00,1.31
8695.00,1.31
8694.00,1.30
8693.00,1.30
8692.00,1.30
8691.00,1.30
8690.00,1.30
8689.00,1.30
8688.00,1.31
8687.00,1.31
8686.00,1.31
8685.00,1.31
8684.00,1.31
8683.00,1.31
8682.00,1.31
8681.00,1.31
8680.00,1.31
8679.00,1.30
8678.00,1.30
8677.00,1.30
8676.00,1.30
8675.00,1.30
8674.00,1.30
8673.00,1.30
8672.00,1.30
8671.00,1.30
8670.00,1.29
8669.00,1.29
8668.00,1.29
8667.00,1.29
8666.00,1.29
8665.00,1.29
8664.00,1.29
8663.00,1.29
8662.00,1.29
8661.00,1.29
8660.00,1.29
8659.00,1.29
8658.00,1.29
8657.00,1.29
8656.00,1.29
8655.00,1.29
8654.00,1.29
8653.00,1.29
8652.00,1.30
8651.00,1.30
8650.00,1.30
8649.00,1.30
8648.00,1.30
8647.00,1.30
8646.00,1.30
8645.00,1.31
8644.00,1.31
8643.00,1.31
8642.00,1.31
8641.00,1.31
8640.00,1.31
8639.00,1.31
8638.00,1.31
8637.00,1.31
8636.00,1.31
8635.00,1.30
8634.00,1.30
8633.00,1.30
8632.00,1.30
8631.00,1.30
8630.00,1.30
8629.00,1.30
8628.00,1.30
8627.00,1.30
8626.00,1.30
8625.00,1.30
8624.00,1.30
8623.00,1.30
8622.00,1.30
8621.00,1.30
8620.00,1.30
8619.00,1.30
8618.00,1.31
8617.00,1.31
8616.00,1.31
8615.00,1.31
8614.00,1.31
8613.00,1.31
8612.00,1.31
8611.00,1.31
8610.00,1.31
8609.00,1.31
8608.00,1.31
8607.00,1.31
8606.00,1.31
8605.00,1.31
8604.00,1.31
8603.00,1.31
8602.00,1.31
8601.00,1.31
8600.00,1.31
8599.00,1.31
8598.00,1.31
8597.00,1.31
8596.00,1.31
8595.00,1.31
8594.00,1.31
8593.00,1.31
8592.00,1.30
8591.00,1.30
8590.00,1.30
8589.00,1.30
8588.00,1.30
8587.00,1.30
8586.00,1.30
8585.00,1.30
8584.00,1.30
8583.00,1.30
8582.00,1.30
8581.00,1.29
8580.00,1.29
8579.00,1.29
8578.00,1.29
8577.00,1.29
8576.00,1.29
8575.00,1.29
8574.00,1.29
8573.00,1.28
8572.00,1.28
8571.00,1.28
8570.00,1.28
8569.00,1.28
8568.00,1.28
8567.00,1.28
8566.00,1.28
8565.00,1.28
8564.00,1.28
8563.00,1.28
8562.00,1.28
8561.00,1.28
8560.00,1.28
8559.00,1.28
8558.00,1.28
8557.00,1.28
8556.00,1.28
8555.00,1.28
8554.00,1.28
8553.00,1.28
8552.00,1.28
8551.00,1.28
8550.00,1.28
8549.00,1.28
8548.00,1.28
8547.00,1.28
8546.00,1.28
8545.00,1.28
8544.00,1.28
8543.00,1.28
8542.00,1.28
8541.00,1.28
8540.00,1.28
8539.00,1.28
8538.00,1.28
8537.00,1.28
8536.00,1.28
8535.00,1.28
8534.00,1.28
8533.00,1.28
8532.00,1.28
8531.00,1.28
8530.00,1.28
8529.00,1.28
8528.00,1.28
8527.00,1.28
8526.00,1.28
8525.00,1.28
8524.00,1.28
8523.00,1.28
8522.00,1.28
8521.00,1.28
8520.00,1.28
8519.00,1.28
8518.00,1.28
8517.00,1.28
8516.00,1.27
8515.00,1.27
8514.00,1.27
8513.00,1.27
8512.00,1.27
8511.00,1.27
8510.00,1.27
8509.00,1.26
8508.00,1.26
8507.00,1.26
8506.00,1.26
8505.00,1.25
8504.00,1.25
8503.00,1.25
8502.00,1.25
8501.00,1.25
8500.00,1.24
8499.00,1.24
8498.00,1.24
8497.00,1.24
8496.00,1.24
8495.00,1.24
8494.00,1.24
8493.00,1.24
8492.00,1.25
8491.00,1.25
8490.00,1.25
8489.00,1.25
8488.00,1.25
8487.00,1.25
8486.00,1.26
8485.00,1.26
8484.00,1.26
8483.00,1.26
8482.00,1.26
8481.00,1.26
8480.00,1.26
8479.00,1.26
8478.00,1.26
8477.00,1.26
8476.00,1.26
8475.00,1.25
8474.00,1.25
8473.00,1.25
8472.00,1.25
8471.00,1.25
8470.00,1.24
8469.00,1.24
8468.00,1.24
8467.00,1.24
8466.00,1.23
8465.00,1.23
8464.00,1.23
8463.00,1.23
8462.00,1.23
8461.00,1.23
8460.00,1.23
8459.00,1.23
8458.00,1.23
8457.00,1.23
8456.00,1.23
8455.00,1.23
8454.00,1.23
8453.00,1.23
8452.00,1.23
8451.00,1.23
8450.00,1.23
8449.00,1.23
8448.00,1.23
8447.00,1.23
8446.00,1.23
8445.00,1.23
8444.00,1.23
8443.00,1.23
8442.00,1.23
8441.00,1.23
8440.00,1.23
8439.00,1.24
8438.00,1.24
8437.00,1.24
8436.00,1.24
8435.00,1.24
8434.00,1.24
8433.00,1.24
8432.00,1.24
8431.00,1.24
8430.00,1.24
8429.00,1.24
8428.00,1.24
8427.00,1.24
8426.00,1.24
8425.00,1.24
8424.00,1.24
8423.00,1.24
8422.00,1.24
8421.00,1.24
8420.00,1.24
8419.00,1.24
8418.00,1.24
8417.00,1.24
8416.00,1.24
8415.00,1.24
8414.00,1.24
8413.00,1.24
8412.00,1.24
8411.00,1.24
8410.00,1.24
8409.00,1.24
8408.00,1.24
8407.00,1.24
8406.00,1.24
8405.00,1.25
8404.00,1.25
8403.00,1.25
8402.00,1.25
8401.00,1.26
8400.00,1.26
8399.00,1.26
8398.00,1.26
8397.00,1.26
8396.00,1.27
8395.00,1.27
8394.00,1.27
8393.00,1.27
8392.00,1.27
8391.00,1.27
8390.00,1.27
8389.00,1.27
8388.00,1.27
8387.00,1.27
8386.00,1.27
8385.00,1.27
8384.00,1.27
8383.00,1.27
8382.00,1.27
8381.00,1.27
8380.00,1.27
8379.00,1.27
8378.00,1.27
8377.00,1.27
8376.00,1.27
8375.00,1.27
8374.00,1.27
8373.00,1.27
8372.00,1.27
8371.00,1.26
8370.00,1.26
8369.00,1.26
8368.00,1.26
8367.00,1.26
8366.00,1.26
8365.00,1.26
8364.00,1.26
8363.00,1.26
8362.00,1.26
8361.00,1.26
8360.00,1.27
8359.00,1.27
8358.00,1.27
8357.00,1.27
8356.00,1.27
8355.00,1.27
8354.00,1.27
8353.00,1.27
8352.00,1.27
8351.00,1.27
8350.00,1.27
8349.00,1.27
8348.00,1.28
8347.00,1.28
8346.00,1.28
8345.00,1.28
8344.00,1.28
8343.00,1.28
8342.00,1.28
8341.00,1.28
8340.00,1.28
8339.00,1.28
8338.00,1.27
8337.00,1.27
8336.00,1.27
8335.00,1.27
8334.00,1.27
8333.00,1.27
8332.00,1.27
8331.00,1.27
8330.00,1.27
8329.00,1.27
8328.00,1.27
8327.00,1.27
8326.00,1.27
8325.00,1.27
8324.00,1.27
8323.00,1.28
8322.00,1.28
8321.00,1.28
8320.00,1.28
8319.00,1.28
8318.00,1.28
8317.00,1.28
8316.00,1.28
8315.00,1.28
8314.00,1.28
8313.00,1.28
8312.00,1.28
8311.00,1.28
8310.00,1.28
8309.00,1.28
8308.00,1.28
8307.00,1.28
8306.00,1.28
8305.00,1.28
8304.00,1.28
8303.00,1.28
8302.00,1.28
8301.00,1.28
8300.00,1.28
8299.00,1.28
8298.00,1.28
8297.00,1.28
8296.00,1.28
8295.00,1.28
8294.00,1.28
8293.00,1.28
8292.00,1.28
8291.00,1.29
8290.00,1.29
8289.00,1.29
8288.00,1.29
8287.00,1.29
8286.00,1.29
8285.00,1.29
8284.00,1.29
8283.00,1.29
8282.00,1.29
8281.00,1.29
8280.00,1.29
8279.00,1.29
8278.00,1.29
8277.00,1.29
8276.00,1.29
8275.00,1.29
8274.00,1.29
8273.00,1.29
8272.00,1.29
8271.00,1.29
8270.00,1.29
8269.00,1.29
8268.00,1.29
8267.00,1.29
8266.00,1.29
8265.00,1.28
8264.00,1.28
8263.00,1.28
8262.00,1.28
8261.00,1.28
8260.00,1.28
8259.00,1.28
8258.00,1.28
8257.00,1.28
8256.00,1.28
8255.00,1.28
8254.00,1.28
8253.00,1.28
8252.00,1.28
8251.00,1.28
8250.00,1.28
8249.00,1.28
8248.00,1.28
8247.00,1.28
8246.00,1.28
8245.00,1.28
8244.00,1.28
8243.00,1.28
8242.00,1.29
8241.00,1.29
8240.00,1.29
8239.00,1.29
8238.00,1.29
8237.00,1.29
8236.00,1.29
8235.00,1.29
8234.00,1.29
8233.00,1.29
8232.00,1.29
8231.00,1.30
8230.00,1.30
8229.00,1.30
8228.00,1.30
8227.00,1.30
8226.00,1.30
8225.00,1.30
8224.00,1.30
8223.00,1.30
8222.00,1.30
8221.00,1.30
8220.00,1.30
8219.00,1.30
8218.00,1.30
8217.00,1.30
8216.00,1.30
8215.00,1.30
8214.00,1.30
8213.00,1.30
8212.00,1.30
8211.00,1.30
8210.00,1.30
8209.00,1.30
8208.00,1.30
8207.00,1.30
8206.00,1.30
8205.00,1.30
8204.00,1.30
8203.00,1.31
8202.00,1.31
8201.00,1.31
8200.00,1.31
8199.00,1.31
8198.00,1.31
8197.00,1.31
8196.00,1.32
8195.00,1.32
8194.00,1.32
8193.00,1.32
8192.00,1.32
8191.00,1.32
8190.00,1.32
8189.00,1.32
8188.00,1.32
8187.00,1.32
8186.00,1.32
8185.00,1.32
8184.00,1.32
8183.00,1.32
8182.00,1.32
8181.00,1.32
8180.00,1.32
8179.00,1.32
8178.00,1.32
8177.00,1.32
8176.00,1.31
8175.00,1.31
8174.00,1.31
8173.00,1.31
8172.00,1.31
8171.00,1.31
8170.00,1.31
8169.00,1.31
8168.00,1.31
8167.00,1.31
8166.00,1.31
8165.00,1.31
8164.00,1.31
8163.00,1.31
8162.00,1.31
8161.00,1.31
8160.00,1.31
8159.00,1.31
8158.00,1.32
8157.00,1.32
8156.00,1.32
8155.00,1.32
8154.00,1.32
8153.00,1.32
8152.00,1.32
8151.00,1.32
8150.00,1.32
8149.00,1.32
8148.00,1.32
8147.00,1.32
8146.00,1.32
8145.00,1.32
8144.00,1.32
8143.00,1.32
8142.00,1.33
8141.00,1.33
8140.00,1.33
8139.00,1.33
8138.00,1.33
8137.00,1.33
8136.00,1.33
8135.00,1.33
8134.00,1.33
8133.00,1.33
8132.00,1.33
8131.00,1.33
8130.00,1.33
8129.00,1.33
8128.00,1.33
8127.00,1.33
8126.00,1.33
8125.00,1.33
8124.00,1.33
8123.00,1.33
8122.00,1.33
8121.00,1.33
8120.00,1.33
8119.00,1.33
8118.00,1.33
8117.00,1.33
8116.00,1.33
8115.00,1.33
8114.00,1.34
8113.00,1.34
8112.00,1.34
8111.00,1.34
8110.00,1.34
8109.00,1.34
8108.00,1.34
8107.00,1.34
8106.00,1.34
8105.00,1.34
8104.00,1.34
8103.00,1.34
8102.00,1.34
8101.00,1.35
8100.00,1.35
8099.00,1.35
8098.00,1.35
8097.00,1.35
8096.00,1.35
8095.00,1.35
8094.00,1.35
8093.00,1.35
8092.00,1.35
8091.00,1.35
8090.00,1.35
8089.00,1.35
8088.00,1.35
8087.00,1.35
8086.00,1.35
8085.00,1.35
8084.00,1.35
8083.00,1.35
8082.00,1.34
8081.00,1.34
8080.00,1.34
8079.00,1.34
8078.00,1.34
8077.00,1.34
8076.00,1.34
8075.00,1.34
8074.00,1.34
8073.00,1.34
8072.00,1.34
8071.00,1.34
8070.00,1.34
8069.00,1.34
8068.00,1.34
8067.00,1.34
8066.00,1.34
8065.00,1.34
8064.00,1.34
8063.00,1.34
8062.00,1.34
8061.00,1.34
8060.00,1.34
8059.00,1.34
8058.00,1.34
8057.00,1.34
8056.00,1.34
8055.00,1.34
8054.00,1.34
8053.00,1.34
8052.00,1.34
8051.00,1.35
8050.00,1.35
8049.00,1.35
8048.00,1.35
8047.00,1.35
8046.00,1.35
8045.00,1.35
8044.00,1.35
8043.00,1.35
8042.00,1.35
8041.00,1.35
8040.00,1.35
8039.00,1.36
8038.00,1.36
8037.00,1.36
8036.00,1.36
8035.00,1.36
8034.00,1.36
8033.00,1.36
8032.00,1.36
8031.00,1.36
8030.00,1.36
8029.00,1.36
8028.00,1.36
8027.00,1.36
8026.00,1.36
8025.00,1.36
8024.00,1.36
8023.00,1.36
8022.00,1.36
8021.00,1.37
8020.00,1.37
8019.00,1.37
8018.00,1.37
8017.00,1.37
8016.00,1.37
8015.00,1.37
8014.00,1.37
8013.00,1.37
8012.00,1.37
8011.00,1.37
8010.00,1.37
8009.00,1.37
8008.00,1.37
8007.00,1.37
8006.00,1.37
8005.00,1.37
8004.00,1.37
8003.00,1.37
8002.00,1.37
8001.00,1.37
8000.00,1.37
7999.00,1.37
7998.00,1.37
7997.00,1.37
7996.00,1.37
7995.00,1.37
7994.00,1.37
7993.00,1.37
7992.00,1.37
7991.00,1.37
7990.00,1.37
7989.00,1.37
7988.00,1.37
7987.00,1.37
7986.00,1.37
7985.00,1.37
7984.00,1.37
7983.00,1.37
7982.00,1.37
7981.00,1.37
7980.00,1.37
7979.00,1.37
7978.00,1.37
7977.00,1.37
7976.00,1.36
7975.00,1.36
7974.00,1.36
7973.00,1.36
7972.00,1.36
7971.00,1.35
7970.00,1.35
7969.00,1.35
7968.00,1.35
7967.00,1.35
7966.00,1.35
7965.00,1.35
7964.00,1.35
7963.00,1.35
7962.00,1.35
7961.00,1.35
7960.00,1.35
7959.00,1.36
7958.00,1.36
7957.00,1.36
7956.00,1.36
7955.00,1.36
7954.00,1.36
7953.00,1.36
7952.00,1.37
7951.00,1.37
7950.00,1.37
7949.00,1.37
7948.00,1.37
7947.00,1.37
7946.00,1.37
7945.00,1.37
7944.00,1.37
7943.00,1.37
7942.00,1.37
7941.00,1.37
7940.00,1.37
7939.00,1.37
7938.00,1.37
7937.00,1.37
7936.00,1.37
7935.00,1.37
7934.00,1.37
7933.00,1.36
7932.00,1.36
7931.00,1.36
7930.00,1.36
7929.00,1.36
7928.00,1.36
7927.00,1.36
7926.00,1.36
7925.00,1.36
7924.00,1.36
7923.00,1.36
7922.00,1.36
7921.00,1.36
7920.00,1.36
7919.00,1.36
7918.00,1.36
7917.00,1.36
7916.00,1.37
7915.00,1.37
7914.00,1.37
7913.00,1.37
7912.00,1.37
7911.00,1.37
7910.00,1.37
7909.00,1.37
7908.00,1.37
7907.00,1.37
7906.00,1.37
7905.00,1.37
7904.00,1.37
7903.00,1.37
7902.00,1.37
7901.00,1.37
7900.00,1.37
7899.00,1.37
7898.00,1.38
7897.00,1.38
7896.00,1.38
7895.00,1.38
7894.00,1.38
7893.00,1.38
7892.00,1.38
7891.00,1.38
7890.00,1.38
7889.00,1.38
7888.00,1.38
7887.00,1.38
7886.00,1.39
7885.00,1.39
7884.00,1.39
7883.00,1.39
7882.00,1.39
7881.00,1.39
7880.00,1.39
7879.00,1.38
7878.00,1.38
7877.00,1.38
7876.00,1.38
7875.00,1.38
7874.00,1.38
7873.00,1.38
7872.00,1.38
7871.00,1.38
7870.00,1.38
7869.00,1.38
7868.00,1.38
7867.00,1.38
7866.00,1.38
7865.00,1.38
7864.00,1.38
7863.00,1.38
7862.00,1.38
7861.00,1.38
7860.00,1.38
7859.00,1.38
7858.00,1.38
7857.00,1.38
7856.00,1.38
7855.00,1.38
7854.00,1.38
7853.00,1.38
7852.00,1.38
7851.00,1.38
7850.00,1.38
7849.00,1.38
7848.00,1.38
7847.00,1.38
7846.00,1.38
7845.00,1.38
7844.00,1.38
7843.00,1.38
7842.00,1.38
7841.00,1.38
7840.00,1.38
7839.00,1.38
7838.00,1.38
7837.00,1.38
7836.00,1.38
7835.00,1.38
7834.00,1.38
7833.00,1.38
7832.00,1.38
7831.00,1.38
7830.00,1.38
7829.00,1.38
7828.00,1.38
7827.00,1.38
7826.00,1.38
7825.00,1.39
7824.00,1.39
7823.00,1.39
7822.00,1.39
7821.00,1.39
7820.00,1.39
7819.00,1.39
7818.00,1.39
7817.00,1.39
7816.00,1.39
7815.00,1.39
7814.00,1.40
7813.00,1.40
7812.00,1.40
7811.00,1.40
7810.00,1.39
7809.00,1.39
7808.00,1.39
7807.00,1.39
7806.00,1.39
7805.00,1.39
7804.00,1.39
7803.00,1.39
7802.00,1.39
7801.00,1.39
7800.00,1.39
7799.00,1.39
7798.00,1.39
7797.00,1.39
7796.00,1.39
7795.00,1.39
7794.00,1.39
7793.00,1.39
7792.00,1.39
7791.00,1.39
7790.00,1.39
7789.00,1.39
7788.00,1.39
7787.00,1.39
7786.00,1.39
7785.00,1.39
7784.00,1.39
7783.00,1.39
7782.00,1.40
7781.00,1.40
7780.00,1.40
7779.00,1.40
7778.00,1.40
7777.00,1.40
7776.00,1.40
7775.00,1.40
7774.00,1.40
7773.00,1.40
7772.00,1.40
7771.00,1.40
7770.00,1.40
7769.00,1.40
7768.00,1.40
7767.00,1.40
7766.00,1.40
7765.00,1.40
7764.00,1.40
7763.00,1.40
7762.00,1.40
7761.00,1.40
7760.00,1.40
7759.00,1.40
7758.00,1.40
7757.00,1.40
7756.00,1.40
7755.00,1.40
7754.00,1.40
7753.00,1.40
7752.00,1.40
7751.00,1.40
7750.00,1.40
7749.00,1.40
7748.00,1.39
7747.00,1.39
7746.00,1.39
7745.00,1.39
7744.00,1.39
7743.00,1.39
7742.00,1.39
7741.00,1.39
7740.00,1.39
7739.00,1.39
7738.00,1.39
7737.00,1.39
7736.00,1.39
7735.00,1.39
7734.00,1.39
7733.00,1.39
7732.00,1.39
7731.00,1.39
7730.00,1.39
7729.00,1.39
7728.00,1.39
7727.00,1.39
7726.00,1.39
7725.00,1.39
7724.00,1.39
7723.00,1.39
7722.00,1.39
7721.00,1.39
7720.00,1.39
7719.00,1.39
7718.00,1.39
7717.00,1.39
7716.00,1.39
7715.00,1.39
7714.00,1.39
7713.00,1.39
7712.00,1.39
7711.00,1.39
7710.00,1.39
7709.00,1.39
7708.00,1.39
7707.00,1.39
7706.00,1.39
7705.00,1.39
7704.00,1.39
7703.00,1.39
7702.00,1.39
7701.00,1.39
7700.00,1.39
7699.00,1.39
7698.00,1.39
7697.00,1.39
7696.00,1.39
7695.00,1.39
7694.00,1.39
7693.00,1.39
7692.00,1.39
7691.00,1.39
7690.00,1.39
7689.00,1.39
7688.00,1.39
7687.00,1.39
7686.00,1.39
7685.00,1.39
7684.00,1.39
7683.00,1.39
7682.00,1.39
7681.00,1.39
7680.00,1.39
7679.00,1.39
7678.00,1.39
7677.00,1.39
7676.00,1.39
7675.00,1.39
7674.00,1.39
7673.00,1.40
7672.00,1.40
7671.00,1.40
7670.00,1.40
7669.00,1.40
7668.00,1.40
7667.00,1.40
7666.00,1.40
7665.00,1.40
7664.00,1.40
7663.00,1.40
7662.00,1.40
7661.00,1.40
7660.00,1.40
7659.00,1.40
7658.00,1.40
7657.00,1.40
7656.00,1.40
7655.00,1.40
7654.00,1.40
7653.00,1.40
7652.00,1.39
7651.00,1.39
7650.00,1.39
7649.00,1.39
7648.00,1.39
7647.00,1.39
7646.00,1.39
7645.00,1.39
7644.00,1.39
7643.00,1.39
7642.00,1.39
7641.00,1.39
7640.00,1.39
7639.00,1.39
7638.00,1.39
7637.00,1.39
7636.00,1.39
7635.00,1.39
7634.00,1.39
7633.00,1.39
7632.00,1.39
7631.00,1.39
7630.00,1.39
7629.00,1.39
7628.00,1.39
7627.00,1.39
7626.00,1.39
7625.00,1.39
7624.00,1.39
7623.00,1.39
7622.00,1.39
7621.00,1.39
7620.00,1.39
7619.00,1.39
7618.00,1.39
7617.00,1.39
7616.00,1.39
7615.00,1.39
7614.00,1.39
7613.00,1.39
7612.00,1.39
7611.00,1.39
7610.00,1.39
7609.00,1.39
7608.00,1.39
7607.00,1.39
7606.00,1.39
7605.00,1.39
7604.00,1.39
7603.00,1.39
7602.00,1.39
7601.00,1.39
7600.00,1.39
7599.00,1.39
7598.00,1.39
7597.00,1.39
7596.00,1.39
7595.00,1.39
7594.00,1.39
7593.00,1.39
7592.00,1.39
7591.00,1.39
7590.00,1.39
7589.00,1.39
7588.00,1.39
7587.00,1.39
7586.00,1.39
7585.00,1.39
7584.00,1.39
7583.00,1.39
7582.00,1.39
7581.00,1.39
7580.00,1.39
7579.00,1.39
7578.00,1.39
7577.00,1.39
7576.00,1.39
7575.00,1.39
7574.00,1.39
7573.00,1.38
7572.00,1.38
7571.00,1.38
7570.00,1.38
7569.00,1.38
7568.00,1.38
7567.00,1.38
7566.00,1.38
7565.00,1.38
7564.00,1.38
7563.00,1.38
7562.00,1.38
7561.00,1.38
7560.00,1.38
7559.00,1.38
7558.00,1.38
7557.00,1.38
7556.00,1.38
7555.00,1.38
7554.00,1.38
7553.00,1.37
7552.00,1.37
7551.00,1.37
7550.00,1.37
7549.00,1.37
7548.00,1.37
7547.00,1.37
7546.00,1.37
7545.00,1.37
7544.00,1.37
7543.00,1.37
7542.00,1.37
7541.00,1.37
7540.00,1.37
7539.00,1.37
7538.00,1.37
7537.00,1.37
7536.00,1.37
7535.00,1.37
7534.00,1.37
7533.00,1.37
7532.00,1.37
7531.00,1.37
7530.00,1.37
7529.00,1.37
7528.00,1.37
7527.00,1.37
7526.00,1.37
7525.00,1.37
7524.00,1.37
7523.00,1.37
7522.00,1.37
7521.00,1.37
7520.00,1.37
7519.00,1.37
7518.00,1.36
7517.00,1.36
7516.00,1.36
7515.00,1.36
7514.00,1.36
7513.00,1.36
7512.00,1.36
7511.00,1.36
7510.00,1.36
7509.00,1.36
7508.00,1.36
7507.00,1.36
7506.00,1.36
7505.00,1.36
7504.00,1.36
7503.00,1.36
7502.00,1.36
7501.00,1.36
7500.00,1.36
7499.00,1.36
7498.00,1.36
7497.00,1.36
7496.00,1.36
7495.00,1.36
7494.00,1.36
7493.00,1.36
7492.00,1.36
7491.00,1.36
7490.00,1.35
7489.00,1.35
7488.00,1.35
7487.00,1.35
7486.00,1.35
7485.00,1.35
7484.00,1.35
7483.00,1.35
7482.00,1.35
7481.00,1.35
7480.00,1.35
7479.00,1.35
7478.00,1.35
7477.00,1.35
7476.00,1.35
7475.00,1.35
7474.00,1.35
7473.00,1.35
7472.00,1.35
7471.00,1.35
7470.00,1.35
7469.00,1.35
7468.00,1.35
7467.00,1.35
7466.00,1.35
7465.00,1.35
7464.00,1.35
7463.00,1.35
7462.00,1.35
7461.00,1.35
7460.00,1.35
7459.00,1.35
7458.00,1.34
7457.00,1.34
7456.00,1.34
7455.00,1.34
7454.00,1.34
7453.00,1.34
7452.00,1.34
7451.00,1.34
7450.00,1.34
7449.00,1.34
7448.00,1.34
7447.00,1.34
7446.00,1.34
7445.00,1.34
7444.00,1.33
7443.00,1.33
7442.00,1.33
7441.00,1.33
7440.00,1.33
7439.00,1.33
7438.00,1.33
7437.00,1.33
7436.00,1.33
7435.00,1.33
7434.00,1.32
7433.00,1.32
7432.00,1.32
7431.00,1.32
7430.00,1.32
7429.00,1.32
7428.00,1.32
7427.00,1.32
7426.00,1.32
7425.00,1.32
7424.00,1.32
7423.00,1.32
7422.00,1.32
7421.00,1.32
7420.00,1.31
7419.00,1.31
7418.00,1.31
7417.00,1.31
7416.00,1.31
7415.00,1.31
7414.00,1.31
7413.00,1.31
7412.00,1.31
7411.00,1.31
7410.00,1.30
7409.00,1.30
7408.00,1.30
7407.00,1.30
7406.00,1.30
7405.00,1.30
7404.00,1.30
7403.00,1.30
7402.00,1.30
7401.00,1.30
7400.00,1.29
7399.00,1.29
7398.00,1.29
7397.00,1.29
7396.00,1.29
7395.00,1.29
7394.00,1.29
7393.00,1.29
7392.00,1.29
7391.00,1.29
7390.00,1.29
7389.00,1.28
7388.00,1.28
7387.00,1.28
7386.00,1.28
7385.00,1.28
7384.00,1.28
7383.00,1.28
7382.00,1.28
7381.00,1.28
7380.00,1.28
7379.00,1.28
7378.00,1.28
7377.00,1.28
7376.00,1.28
7375.00,1.28
7374.00,1.28
7373.00,1.28
7372.00,1.27
7371.00,1.27
7370.00,1.27
7369.00,1.27
7368.00,1.27
7367.00,1.27
7366.00,1.27
7365.00,1.27
7364.00,1.27
7363.00,1.27
7362.00,1.27
7361.00,1.27
7360.00,1.27
7359.00,1.27
7358.00,1.27
7357.00,1.27
7356.00,1.27
7355.00,1.27
7354.00,1.27
7353.00,1.27
7352.00,1.27
7351.00,1.27
7350.00,1.27
7349.00,1.27
7348.00,1.27
7347.00,1.27
7346.00,1.27
7345.00,1.27
7344.00,1.27
7343.00,1.27
7342.00,1.27
7341.00,1.27
7340.00,1.27
7339.00,1.27
7338.00,1.27
7337.00,1.27
7336.00,1.26
7335.00,1.26
7334.00,1.26
7333.00,1.26
7332.00,1.26
7331.00,1.26
7330.00,1.26
7329.00,1.26
7328.00,1.26
7327.00,1.26
7326.00,1.26
7325.00,1.26
7324.00,1.26
7323.00,1.26
7322.00,1.26
7321.00,1.26
7320.00,1.25
7319.00,1.25
7318.00,1.25
7317.00,1.25
7316.00,1.25
7315.00,1.25
7314.00,1.25
7313.00,1.25
7312.00,1.25
7311.00,1.25
7310.00,1.25
7309.00,1.25
7308.00,1.25
7307.00,1.25
7306.00,1.24
7305.00,1.24
7304.00,1.24
7303.00,1.24
7302.00,1.24
7301.00,1.24
7300.00,1.24
7299.00,1.23
7298.00,1.23
7297.00,1.23
7296.00,1.23
7295.00,1.23
7294.00,1.23
7293.00,1.22
7292.00,1.22
7291.00,1.22
7290.00,1.22
7289.00,1.22
7288.00,1.22
7287.00,1.22
7286.00,1.22
7285.00,1.22
7284.00,1.21
7283.00,1.21
7282.00,1.21
7281.00,1.21
7280.00,1.21
7279.00,1.21
7278.00,1.21
7277.00,1.21
7276.00,1.21
7275.00,1.21
7274.00,1.21
7273.00,1.21
7272.00,1.21
7271.00,1.20
7270.00,1.20
7269.00,1.20
7268.00,1.20
7267.00,1.20
7266.00,1.20
7265.00,1.20
7264.00,1.20
7263.00,1.19
7262.00,1.19
7261.00,1.19
7260.00,1.19
7259.00,1.19
7258.00,1.19
7257.00,1.19
7256.00,1.19
7255.00,1.18
7254.00,1.18
7253.00,1.18
7252.00,1.18
7251.00,1.18
7250.00,1.18
7249.00,1.17
7248.00,1.17
7247.00,1.17
7246.00,1.17
7245.00,1.16
7244.00,1.16
7243.00,1.16
7242.00,1.15
7241.00,1.15
7240.00,1.15
7239.00,1.14
7238.00,1.14
7237.00,1.13
7236.00,1.13
7235.00,1.13
7234.00,1.12
7233.00,1.12
7232.00,1.11
7231.00,1.11
7230.00,1.11
7229.00,1.10
7228.00,1.10
7227.00,1.10
7226.00,1.09
7225.00,1.09
7224.00,1.09
7223.00,1.09
7222.00,1.08
7221.00,1.08
7220.00,1.08
7219.00,1.07
7218.00,1.07
7217.00,1.07
7216.00,1.06
7215.00,1.06
7214.00,1.06
7213.00,1.05
7212.00,1.05
7211.00,1.05
7210.00,1.04
7209.00,1.04
7208.00,1.03
7207.00,1.03
7206.00,1.02
7205.00,1.02
7204.00,1.02
7203.00,1.01
7202.00,1.01
7201.00,1.00
7200.00,1.00
7199.00,1.00
7198.00,0.99
7197.00,0.99
7196.00,0.98
7195.00,0.98
7194.00,0.98
7193.00,0.97
7192.00,0.97
7191.00,0.96
7190.00,0.96
7189.00,0.96
7188.00,0.95
7187.00,0.95
7186.00,0.94
7185.00,0.94
7184.00,0.94
7183.00,0.93
7182.00,0.93
7181.00,0.92
7180.00,0.92
7179.00,0.92
7178.00,0.91
7177.00,0.91
7176.00,0.91
7175.00,0.91
7174.00,0.90
7173.00,0.90
7172.00,0.90
7171.00,0.90
7170.00,0.89
7169.00,0.89
7168.00,0.89
7167.00,0.89
7166.00,0.88
7165.00,0.88
7164.00,0.88
7163.00,0.87
7162.00,0.87
7161.00,0.87
7160.00,0.87
7159.00,0.86
7158.00,0.86
7157.00,0.86
7156.00,0.86
7155.00,0.85
7154.00,0.85
7153.00,0.85
7152.00,0.85
7151.00,0.84
7150.00,0.84
7149.00,0.84
7148.00,0.84
7147.00,0.83
7146.00,0.83
7145.00,0.83
7144.00,0.83
7143.00,0.82
7142.00,0.82
7141.00,0.82
7140.00,0.82
7139.00,0.81
7138.00,0.81
7137.00,0.81
7136.00,0.81
7135.00,0.80
7134.00,0.80
7133.00,0.80
7132.00,0.80
7131.00,0.79
7130.00,0.79
7129.00,0.79
7128.00,0.79
7127.00,0.79
7126.00,0.78
7125.00,0.78
7124.00,0.78
7123.00,0.78
7122.00,0.77
7121.00,0.77
7120.00,0.77
7119.00,0.77
7118.00,0.77
7117.00,0.76
7116.00,0.76
7115.00,0.76
7114.00,0.76
7113.00,0.75
7112.00,0.75
7111.00,0.75
7110.00,0.75
7109.00,0.74
7108.00,0.74
7107.00,0.74
7106.00,0.74
7105.00,0.73
7104.00,0.73
7103.00,0.73
7102.00,0.72
7101.00,0.72
7100.00,0.72
7099.00,0.72
7098.00,0.71
7097.00,0.71
7096.00,0.71
7095.00,0.71
7094.00,0.71
7093.00,0.70
7092.00,0.70
7091.00,0.70
7090.00,0.70
7089.00,0.70
7088.00,0.70
7087.00,0.69
7086.00,0.69
7085.00,0.69
7084.00,0.69
7083.00,0.69
7082.00,0.69
7081.00,0.69
7080.00,0.68
7079.00,0.68
7078.00,0.68
7077.00,0.68
7076.00,0.68
7075.00,0.67
7074.00,0.67
7073.00,0.67
7072.00,0.67
7071.00,0.67
7070.00,0.67
7069.00,0.66
7068.00,0.66
7067.00,0.66
7066.00,0.66
7065.00,0.66
7064.00,0.66
7063.00,0.66
7062.00,0.66
7061.00,0.66
7060.00,0.65
7059.00,0.65
7058.00,0.65
7057.00,0.65
7056.00,0.65
7055.00,0.65
7054.00,0.65
7053.00,0.65
7052.00,0.65
7051.00,0.65
7050.00,0.65
7049.00,0.65
7048.00,0.65
7047.00,0.64
7046.00,0.64
7045.00,0.64
7044.00,0.64
7043.00,0.64
7042.00,0.64
7041.00,0.64
7040.00,0.64
7039.00,0.64
7038.00,0.63
7037.00,0.63
7036.00,0.63
7035.00,0.63
7034.00,0.63
7033.00,0.63
7032.00,0.63
7031.00,0.63
7030.00,0.63
7029.00,0.63
7028.00,0.63
7027.00,0.63
7026.00,0.63
7025.00,0.63
7024.00,0.63
7023.00,0.63
7022.00,0.63
7021.00,0.63
7020.00,0.63
7019.00,0.63
7018.00,0.63
7017.00,0.63
7016.00,0.63
7015.00,0.63
7014.00,0.63
7013.00,0.63
7012.00,0.63
7011.00,0.63
7010.00,0.63
7009.00,0.63
7008.00,0.63
7007.00,0.63
7006.00,0.63
7005.00,0.63
7004.00,0.63
7003.00,0.62
7002.00,0.62
7001.00,0.62
7000.00,0.62
6999.00,0.62
6998.00,0.62
6997.00,0.62
6996.00,0.62
6995.00,0.62
6994.00,0.62
6993.00,0.62
6992.00,0.62
6991.00,0.62
6990.00,0.62
6989.00,0.62
6988.00,0.62
6987.00,0.62
6986.00,0.62
6985.00,0.62
6984.00,0.62
6983.00,0.62
6982.00,0.62
6981.00,0.62
6980.00,0.62
6979.00,0.62
6978.00,0.62
6977.00,0.61
6976.00,0.61
6975.00,0.61
6974.00,0.61
6973.00,0.61
6972.00,0.61
6971.00,0.61
6970.00,0.61
6969.00,0.61
6968.00,0.61
6967.00,0.60
6966.00,0.60
6965.00,0.60
6964.00,0.60
6963.00,0.60
6962.00,0.60
6961.00,0.60
6960.00,0.60
6959.00,0.60
6958.00,0.60
6957.00,0.60
6956.00,0.60
6955.00,0.60
6954.00,0.60
6953.00,0.60
6952.00,0.60
6951.00,0.60
6950.00,0.60
6949.00,0.60
6948.00,0.60
6947.00,0.60
6946.00,0.60
6945.00,0.60
6944.00,0.61
6943.00,0.61
6942.00,0.61
6941.00,0.61
6940.00,0.61
6939.00,0.61
6938.00,0.61
6937.00,0.60
6936.00,0.60
6935.00,0.60
6934.00,0.60
6933.00,0.60
6932.00,0.60
6931.00,0.60
6930.00,0.60
6929.00,0.60
6928.00,0.60
6927.00,0.60
6926.00,0.60
6925.00,0.60
6924.00,0.60
6923.00,0.60
6922.00,0.60
6921.00,0.60
6920.00,0.59
6919.00,0.59
6918.00,0.59
6917.00,0.59
6916.00,0.59
6915.00,0.59
6914.00,0.59
6913.00,0.59
6912.00,0.59
6911.00,0.59
6910.00,0.59
6909.00,0.59
6908.00,0.59
6907.00,0.59
6906.00,0.59
6905.00,0.59
6904.00,0.59
6903.00,0.59
6902.00,0.59
6901.00,0.59
6900.00,0.59
6899.00,0.59
6898.00,0.59
6897.00,0.59
6896.00,0.59
6895.00,0.59
6894.00,0.59
6893.00,0.59
6892.00,0.59
6891.00,0.59
6890.00,0.59
6889.00,0.59
6888.00,0.59
6887.00,0.59
6886.00,0.59
6885.00,0.60
6884.00,0.60
6883.00,0.60
6882.00,0.60
6881.00,0.60
6880.00,0.60
6879.00,0.60
6878.00,0.60
6877.00,0.60
6876.00,0.60
6875.00,0.60
6874.00,0.60
6873.00,0.60
6872.00,0.60
6871.00,0.60
6870.00,0.60
6869.00,0.60
6868.00,0.60
6867.00,0.60
6866.00,0.60
6865.00,0.60
6864.00,0.60
6863.00,0.60
6862.00,0.60
6861.00,0.60
6860.00,0.60
6859.00,0.60
6858.00,0.60
6857.00,0.60
6856.00,0.60
6855.00,0.60
6854.00,0.60
6853.00,0.60
6852.00,0.60
6851.00,0.60
6850.00,0.60
6849.00,0.60
6848.00,0.60
6847.00,0.60
6846.00,0.60
6845.00,0.60
6844.00,0.60
6843.00,0.60
6842.00,0.60
6841.00,0.60
6840.00,0.60
6839.00,0.60
6838.00,0.60
6837.00,0.61
6836.00,0.61
6835.00,0.61
6834.00,0.61
6833.00,0.61
6832.00,0.61
6831.00,0.61
6830.00,0.61
6829.00,0.61
6828.00,0.61
6827.00,0.61
6826.00,0.61
6825.00,0.61
6824.00,0.61
6823.00,0.61
6822.00,0.61
6821.00,0.61
6820.00,0.61
6819.00,0.61
6818.00,0.61
6817.00,0.61
6816.00,0.61
6815.00,0.61
6814.00,0.61
6813.00,0.61
6812.00,0.61
6811.00,0.61
6810.00,0.61
6809.00,0.61
6808.00,0.61
6807.00,0.61
6806.00,0.61
6805.00,0.61
6804.00,0.61
6803.00,0.61
6802.00,0.61
6801.00,0.61
6800.00,0.61
6799.00,0.61
6798.00,0.61
6797.00,0.61
6796.00,0.61
6795.00,0.61
6794.00,0.61
6793.00,0.61
6792.00,0.61
6791.00,0.62
6790.00,0.62
6789.00,0.62
6788.00,0.62
6787.00,0.62
6786.00,0.62
6785.00,0.62
6784.00,0.62
6783.00,0.62
6782.00,0.63
6781.00,0.63
6780.00,0.63
6779.00,0.63
6778.00,0.63
6777.00,0.63
6776.00,0.63
6775.00,0.63
6774.00,0.63
6773.00,0.63
6772.00,0.63
6771.00,0.63
6770.00,0.63
6769.00,0.63
6768.00,0.63
6767.00,0.63
6766.00,0.63
6765.00,0.63
6764.00,0.63
6763.00,0.63
6762.00,0.63
6761.00,0.63
6760.00,0.63
6759.00,0.63
6758.00,0.63
6757.00,0.63
6756.00,0.63
6755.00,0.63
6754.00,0.63
6753.00,0.63
6752.00,0.64
6751.00,0.64
6750.00,0.64
6749.00,0.64
6748.00,0.64
6747.00,0.64
6746.00,0.64
6745.00,0.64
6744.00,0.64
6743.00,0.64
6742.00,0.64
6741.00,0.64
6740.00,0.64
6739.00,0.64
6738.00,0.64
6737.00,0.64
6736.00,0.64
6735.00,0.65
6734.00,0.65
6733.00,0.65
6732.00,0.65
6731.00,0.65
6730.00,0.65
6729.00,0.65
6728.00,0.65
6727.00,0.65
6726.00,0.65
6725.00,0.65
6724.00,0.65
6723.00,0.66
6722.00,0.66
6721.00,0.66
6720.00,0.66
6719.00,0.66
6718.00,0.66
6717.00,0.66
6716.00,0.66
6715.00,0.66
6714.00,0.66
6713.00,0.66
6712.00,0.66
6711.00,0.66
6710.00,0.66
6709.00,0.66
6708.00,0.66
6707.00,0.66
6706.00,0.66
6705.00,0.66
6704.00,0.66
6703.00,0.66
6702.00,0.66
6701.00,0.66
6700.00,0.66
6699.00,0.67
6698.00,0.67
6697.00,0.67
6696.00,0.67
6695.00,0.67
6694.00,0.67
6693.00,0.67
6692.00,0.67
6691.00,0.67
6690.00,0.67
6689.00,0.67
6688.00,0.67
6687.00,0.67
6686.00,0.67
6685.00,0.67
6684.00,0.67
6683.00,0.68
6682.00,0.68
6681.00,0.68
6680.00,0.68
6679.00,0.68
6678.00,0.68
6677.00,0.68
6676.00,0.68
6675.00,0.69
6674.00,0.69
6673.00,0.69
6672.00,0.69
6671.00,0.69
6670.00,0.69
6669.00,0.69
6668.00,0.70
6667.00,0.70
6666.00,0.70
6665.00,0.70
6664.00,0.70
6663.00,0.70
6662.00,0.70
6661.00,0.71
6660.00,0.71
6659.00,0.71
6658.00,0.71
6657.00,0.71
6656.00,0.71
6655.00,0.71
6654.00,0.71
6653.00,0.71
6652.00,0.71
6651.00,0.71
6650.00,0.71
6649.00,0.72
6648.00,0.72
6647.00,0.72
6646.00,0.72
6645.00,0.72
6644.00,0.72
6643.00,0.72
6642.00,0.72
6641.00,0.72
6640.00,0.72
6639.00,0.72
6638.00,0.72
6637.00,0.72
6636.00,0.72
6635.00,0.72
6634.00,0.72
6633.00,0.72
6632.00,0.73
6631.00,0.73
6630.00,0.73
6629.00,0.73
6628.00,0.73
6627.00,0.73
6626.00,0.73
6625.00,0.73
6624.00,0.73
6623.00,0.74
6622.00,0.74
6621.00,0.74
6620.00,0.74
6619.00,0.74
6618.00,0.74
6617.00,0.74
6616.00,0.74
6615.00,0.74
6614.00,0.75
6613.00,0.75
6612.00,0.75
6611.00,0.75
6610.00,0.75
6609.00,0.75
6608.00,0.75
6607.00,0.75
6606.00,0.75
6605.00,0.76
6604.00,0.76
6603.00,0.76
6602.00,0.76
6601.00,0.76
6600.00,0.76
6599.00,0.76
6598.00,0.76
6597.00,0.76
6596.00,0.76
6595.00,0.76
6594.00,0.77
6593.00,0.77
6592.00,0.77
6591.00,0.77
6590.00,0.77
6589.00,0.77
6588.00,0.77
6587.00,0.77
6586.00,0.77
6585.00,0.77
6584.00,0.78
6583.00,0.78
6582.00,0.78
6581.00,0.78
6580.00,0.78
6579.00,0.78
6578.00,0.78
6577.00,0.79
6576.00,0.79
6575.00,0.79
6574.00,0.79
6573.00,0.79
6572.00,0.79
6571.00,0.79
6570.00,0.79
6569.00,0.79
6568.00,0.79
6567.00,0.79
6566.00,0.80
6565.00,0.80
6564.00,0.80
6563.00,0.80
6562.00,0.80
6561.00,0.80
6560.00,0.80
6559.00,0.80
6558.00,0.80
6557.00,0.80
6556.00,0.80
6555.00,0.80
6554.00,0.80
6553.00,0.80
6552.00,0.80
6551.00,0.80
6550.00,0.80
6549.00,0.80
6548.00,0.81
6547.00,0.81
6546.00,0.81
6545.00,0.81
6544.00,0.81
6543.00,0.81
6542.00,0.81
6541.00,0.81
6540.00,0.81
6539.00,0.82
6538.00,0.82
6537.00,0.82
6536.00,0.82
6535.00,0.82
6534.00,0.82
6533.00,0.82
6532.00,0.82
6531.00,0.83
6530.00,0.83
6529.00,0.83
6528.00,0.83
6527.00,0.83
6526.00,0.83
6525.00,0.83
6524.00,0.83
6523.00,0.84
6522.00,0.84
6521.00,0.84
6520.00,0.84
6519.00,0.84
6518.00,0.84
6517.00,0.84
6516.00,0.84
6515.00,0.84
6514.00,0.84
6513.00,0.85
6512.00,0.85
6511.00,0.85
6510.00,0.85
6509.00,0.85
6508.00,0.85
6507.00,0.85
6506.00,0.85
6505.00,0.85
6504.00,0.86
6503.00,0.86
6502.00,0.86
6501.00,0.86
6500.00,0.86
6499.00,0.86
6498.00,0.86
6497.00,0.86
6496.00,0.86
6495.00,0.86
6494.00,0.86
6493.00,0.86
6492.00,0.86
6491.00,0.86
6490.00,0.86
6489.00,0.86
6488.00,0.86
6487.00,0.86
6486.00,0.86
6485.00,0.86
6484.00,0.86
6483.00,0.86
6482.00,0.86
6481.00,0.86
6480.00,0.86
6479.00,0.86
6478.00,0.86
6477.00,0.87
6476.00,0.87
6475.00,0.87
6474.00,0.87
6473.00,0.87
6472.00,0.87
6471.00,0.87
6470.00,0.87
6469.00,0.87
6468.00,0.87
6467.00,0.87
6466.00,0.88
6465.00,0.88
6464.00,0.88
6463.00,0.88
6462.00,0.88
6461.00,0.88
6460.00,0.88
6459.00,0.88
6458.00,0.88
6457.00,0.88
6456.00,0.88
6455.00,0.89
6454.00,0.89
6453.00,0.89
6452.00,0.89
6451.00,0.89
6450.00,0.89
6449.00,0.89
6448.00,0.89
6447.00,0.89
6446.00,0.89
6445.00,0.89
6444.00,0.90
6443.00,0.90
6442.00,0.90
6441.00,0.90
6440.00,0.90
6439.00,0.90
6438.00,0.90
6437.00,0.90
6436.00,0.91
6435.00,0.91
6434.00,0.91
6433.00,0.91
6432.00,0.91
6431.00,0.91
6430.00,0.91
6429.00,0.91
6428.00,0.91
6427.00,0.92
6426.00,0.92
6425.00,0.92
6424.00,0.92
6423.00,0.92
6422.00,0.92
6421.00,0.92
6420.00,0.92
6419.00,0.92
6418.00,0.92
6417.00,0.92
6416.00,0.92
6415.00,0.92
6414.00,0.92
6413.00,0.92
6412.00,0.92
6411.00,0.92
6410.00,0.93
6409.00,0.93
6408.00,0.93
6407.00,0.93
6406.00,0.93
6405.00,0.93
6404.00,0.93
6403.00,0.93
6402.00,0.93
6401.00,0.93
6400.00,0.93
6399.00,0.94
6398.00,0.94
6397.00,0.94
6396.00,0.94
6395.00,0.94
6394.00,0.94
6393.00,0.94
6392.00,0.94
6391.00,0.94
6390.00,0.94
6389.00,0.94
6388.00,0.94
6387.00,0.94
6386.00,0.94
6385.00,0.94
6384.00,0.94
6383.00,0.94
6382.00,0.94
6381.00,0.95
6380.00,0.95
6379.00,0.95
6378.00,0.95
6377.00,0.95
6376.00,0.95
6375.00,0.95
6374.00,0.95
6373.00,0.95
6372.00,0.95
6371.00,0.96
6370.00,0.96
6369.00,0.96
6368.00,0.96
6367.00,0.96
6366.00,0.96
6365.00,0.96
6364.00,0.97
6363.00,0.97
6362.00,0.97
6361.00,0.97
6360.00,0.97
6359.00,0.97
6358.00,0.97
6357.00,0.97
6356.00,0.97
6355.00,0.97
6354.00,0.97
6353.00,0.97
6352.00,0.97
6351.00,0.98
6350.00,0.98
6349.00,0.98
6348.00,0.98
6347.00,0.98
6346.00,0.98
6345.00,0.98
6344.00,0.98
6343.00,0.98
6342.00,0.98
6341.00,0.98
6340.00,0.99
6339.00,0.99
6338.00,0.99
6337.00,0.99
6336.00,0.99
6335.00,0.99
6334.00,0.99
6333.00,0.99
6332.00,0.99
6331.00,0.99
6330.00,0.99
6329.00,0.99
6328.00,0.99
6327.00,0.99
6326.00,1.00
6325.00,1.00
6324.00,1.00
6323.00,1.00
6322.00,1.00
6321.00,1.00
6320.00,1.00
6319.00,1.01
6318.00,1.01
6317.00,1.01
6316.00,1.01
6315.00,1.01
6314.00,1.01
6313.00,1.02
6312.00,1.02
6311.00,1.02
6310.00,1.02
6309.00,1.02
6308.00,1.02
6307.00,1.02
6306.00,1.02
6305.00,1.03
6304.00,1.03
6303.00,1.03
6302.00,1.03
6301.00,1.03
6300.00,1.03
6299.00,1.03
6298.00,1.03
6297.00,1.03
6296.00,1.04
6295.00,1.04
6294.00,1.04
6293.00,1.04
6292.00,1.04
6291.00,1.04
6290.00,1.04
6289.00,1.04
6288.00,1.04
6287.00,1.04
6286.00,1.04
6285.00,1.04
6284.00,1.04
6283.00,1.04
6282.00,1.05
6281.00,1.05
6280.00,1.05
6279.00,1.05
6278.00,1.05
6277.00,1.05
6276.00,1.05
6275.00,1.05
6274.00,1.05
6273.00,1.06
6272.00,1.06
6271.00,1.06
6270.00,1.06
6269.00,1.06
6268.00,1.06
6267.00,1.06
6266.00,1.06
6265.00,1.07
6264.00,1.07
6263.00,1.07
6262.00,1.07
6261.00,1.07
6260.00,1.07
6259.00,1.07
6258.00,1.07
6257.00,1.07
6256.00,1.08
6255.00,1.08
6254.00,1.08
6253.00,1.08
6252.00,1.08
6251.00,1.08
6250.00,1.08
6249.00,1.08
6248.00,1.09
6247.00,1.09
6246.00,1.09
6245.00,1.09
6244.00,1.09
6243.00,1.09
6242.00,1.09
6241.00,1.09
6240.00,1.09
6239.00,1.10
6238.00,1.10
6237.00,1.10
6236.00,1.10
6235.00,1.10
6234.00,1.10
6233.00,1.10
6232.00,1.11
6231.00,1.11
6230.00,1.11
6229.00,1.11
6228.00,1.11
6227.00,1.12
6226.00,1.12
6225.00,1.12
6224.00,1.12
6223.00,1.12
6222.00,1.13
6221.00,1.13
6220.00,1.13
6219.00,1.13
6218.00,1.13
6217.00,1.13
6216.00,1.14
6215.00,1.14
6214.00,1.14
6213.00,1.14
6212.00,1.14
6211.00,1.14
6210.00,1.14
6209.00,1.14
6208.00,1.14
6207.00,1.14
6206.00,1.14
6205.00,1.14
6204.00,1.15
6203.00,1.15
6202.00,1.15
6201.00,1.15
6200.00,1.15
6199.00,1.15
6198.00,1.15
6197.00,1.15
6196.00,1.15
6195.00,1.16
6194.00,1.16
6193.00,1.16
6192.00,1.16
6191.00,1.16
6190.00,1.16
6189.00,1.17
6188.00,1.17
6187.00,1.17
6186.00,1.17
6185.00,1.17
6184.00,1.17
6183.00,1.18
6182.00,1.18
6181.00,1.18
6180.00,1.18
6179.00,1.18
6178.00,1.19
6177.00,1.19
6176.00,1.19
6175.00,1.19
6174.00,1.19
6173.00,1.19
6172.00,1.19
6171.00,1.19
6170.00,1.20
6169.00,1.20
6168.00,1.20
6167.00,1.20
6166.00,1.20
6165.00,1.20
6164.00,1.20
6163.00,1.20
6162.00,1.20
6161.00,1.20
6160.00,1.20
6159.00,1.21
6158.00,1.21
6157.00,1.21
6156.00,1.21
6155.00,1.21
6154.00,1.21
6153.00,1.21
6152.00,1.21
6151.00,1.22
6150.00,1.22
6149.00,1.22
6148.00,1.22
6147.00,1.22
6146.00,1.22
6145.00,1.22
6144.00,1.22
6143.00,1.23
6142.00,1.23
6141.00,1.23
6140.00,1.23
6139.00,1.23
6138.00,1.23
6137.00,1.23
6136.00,1.23
6135.00,1.23
6134.00,1.23
6133.00,1.24
6132.00,1.24
6131.00,1.24
6130.00,1.24
6129.00,1.24
6128.00,1.24
6127.00,1.24
6126.00,1.25
6125.00,1.25
6124.00,1.25
6123.00,1.25
6122.00,1.25
6121.00,1.25
6120.00,1.25
6119.00,1.26
6118.00,1.26
6117.00,1.26
6116.00,1.26
6115.00,1.26
6114.00,1.26
6113.00,1.27
6112.00,1.27
6111.00,1.27
6110.00,1.27
6109.00,1.27
6108.00,1.27
6107.00,1.27
6106.00,1.27
6105.00,1.27
6104.00,1.27
6103.00,1.28
6102.00,1.28
6101.00,1.28
6100.00,1.28
6099.00,1.28
6098.00,1.28
6097.00,1.28
6096.00,1.28
6095.00,1.28
6094.00,1.28
6093.00,1.28
6092.00,1.28
6091.00,1.29
6090.00,1.29
6089.00,1.29
6088.00,1.29
6087.00,1.29
6086.00,1.29
6085.00,1.29
6084.00,1.29
6083.00,1.30
6082.00,1.30
6081.00,1.30
6080.00,1.30
6079.00,1.30
6078.00,1.30
6077.00,1.30
6076.00,1.30
6075.00,1.30
6074.00,1.30
6073.00,1.30
6072.00,1.31
6071.00,1.31
6070.00,1.31
6069.00,1.31
6068.00,1.31
6067.00,1.31
6066.00,1.31
6065.00,1.31
6064.00,1.32
6063.00,1.32
6062.00,1.32
6061.00,1.32
6060.00,1.32
6059.00,1.32
6058.00,1.32
6057.00,1.32
6056.00,1.33
6055.00,1.33
6054.00,1.33
6053.00,1.33
6052.00,1.33
6051.00,1.33
6050.00,1.33
6049.00,1.33
6048.00,1.33
6047.00,1.33
6046.00,1.33
6045.00,1.33
6044.00,1.33
6043.00,1.33
6042.00,1.33
6041.00,1.34
6040.00,1.34
6039.00,1.34
6038.00,1.34
6037.00,1.34
6036.00,1.34
6035.00,1.34
6034.00,1.34
6033.00,1.34
6032.00,1.34
6031.00,1.34
6030.00,1.34
6029.00,1.34
6028.00,1.34
6027.00,1.34
6026.00,1.34
6025.00,1.34
6024.00,1.34
6023.00,1.34
6022.00,1.34
6021.00,1.34
6020.00,1.34
6019.00,1.34
6018.00,1.34
6017.00,1.34
6016.00,1.34
6015.00,1.34
6014.00,1.34
6013.00,1.34
6012.00,1.34
6011.00,1.34
6010.00,1.34
6009.00,1.34
6008.00,1.34
6007.00,1.34
6006.00,1.34
6005.00,1.34
6004.00,1.34
6003.00,1.34
6002.00,1.34
6001.00,1.34
6000.00,1.34
5999.00,1.34
5998.00,1.34
5997.00,1.34
5996.00,1.34
5995.00,1.34
5994.00,1.34
5993.00,1.34
5992.00,1.34
5991.00,1.34
5990.00,1.34
5989.00,1.33
5988.00,1.33
5987.00,1.33
5986.00,1.33
5985.00,1.33
5984.00,1.33
5983.00,1.32
5982.00,1.32
5981.00,1.32
5980.00,1.32
5979.00,1.31
5978.00,1.31
5977.00,1.31
5976.00,1.30
5975.00,1.30
5974.00,1.30
5973.00,1.29
5972.00,1.29
5971.00,1.29
5970.00,1.28
5969.00,1.28
5968.00,1.27
5967.00,1.27
5966.00,1.26
5965.00,1.26
5964.00,1.25
5963.00,1.25
5962.00,1.24
5961.00,1.24
5960.00,1.23
5959.00,1.23
5958.00,1.22
5957.00,1.22
5956.00,1.21
5955.00,1.21
5954.00,1.20
5953.00,1.20
5952.00,1.19
5951.00,1.19
5950.00,1.18
5949.00,1.18
5948.00,1.18
5947.00,1.18
5946.00,1.17
5945.00,1.17
5944.00,1.17
5943.00,1.17
5942.00,1.16
5941.00,1.16
5940.00,1.16
5939.00,1.16
5938.00,1.16
5937.00,1.16
5936.00,1.16
5935.00,1.16
5934.00,1.15
5933.00,1.15
5932.00,1.15
5931.00,1.15
5930.00,1.15
5929.00,1.15
5928.00,1.15
5927.00,1.14
5926.00,1.14
5925.00,1.14
5924.00,1.14
5923.00,1.14
5922.00,1.14
5921.00,1.13
5920.00,1.13
5919.00,1.13
5918.00,1.13
5917.00,1.13
5916.00,1.13
5915.00,1.12
5914.00,1.12
5913.00,1.12
5912.00,1.12
5911.00,1.12
5910.00,1.12
5909.00,1.12
5908.00,1.11
5907.00,1.11
5906.00,1.11
5905.00,1.11
5904.00,1.11
5903.00,1.11
5902.00,1.11
5901.00,1.11
5900.00,1.11
5899.00,1.11
5898.00,1.11
5897.00,1.11
5896.00,1.11
5895.00,1.12
5894.00,1.12
5893.00,1.12
5892.00,1.12
5891.00,1.12
5890.00,1.13
5889.00,1.13
5888.00,1.13
5887.00,1.13
5886.00,1.14
5885.00,1.14
5884.00,1.14
5883.00,1.15
5882.00,1.15
5881.00,1.15
5880.00,1.16
5879.00,1.16
5878.00,1.16
5877.00,1.17
5876.00,1.17
5875.00,1.17
5874.00,1.17
5873.00,1.18
5872.00,1.18
5871.00,1.18
5870.00,1.18
5869.00,1.18
5868.00,1.18
5867.00,1.19
5866.00,1.19
5865.00,1.19
5864.00,1.19
5863.00,1.19
5862.00,1.19
5861.00,1.19
5860.00,1.19
5859.00,1.19
5858.00,1.19
5857.00,1.19
5856.00,1.20
5855.00,1.20
5854.00,1.20
5853.00,1.20
5852.00,1.20
5851.00,1.20
5850.00,1.20
5849.00,1.20
5848.00,1.20
5847.00,1.20
5846.00,1.20
5845.00,1.20
5844.00,1.20
5843.00,1.20
5842.00,1.20
5841.00,1.19
5840.00,1.19
5839.00,1.19
5838.00,1.19
5837.00,1.19
5836.00,1.19
5835.00,1.19
5834.00,1.19
5833.00,1.20
5832.00,1.20
5831.00,1.20
5830.00,1.20
5829.00,1.20
5828.00,1.20
5827.00,1.20
5826.00,1.20
5825.00,1.20
5824.00,1.20
5823.00,1.20
5822.00,1.20
5821.00,1.20
5820.00,1.20
5819.00,1.20
5818.00,1.20
5817.00,1.20
5816.00,1.20
5815.00,1.20
5814.00,1.20
5813.00,1.20
5812.00,1.20
5811.00,1.20
5810.00,1.20
5809.00,1.20
5808.00,1.20
5807.00,1.20
5806.00,1.20
5805.00,1.20
5804.00,1.20
5803.00,1.20
5802.00,1.20
5801.00,1.20
5800.00,1.20
5799.00,1.20
5798.00,1.20
5797.00,1.19
5796.00,1.19
5795.00,1.19
5794.00,1.19
5793.00,1.19
5792.00,1.18
5791.00,1.18
5790.00,1.18
5789.00,1.18
5788.00,1.17
5787.00,1.17
5786.00,1.17
5785.00,1.17
5784.00,1.17
5783.00,1.17
5782.00,1.16
5781.00,1.16
5780.00,1.16
5779.00,1.16
5778.00,1.16
5777.00,1.16
5776.00,1.16
5775.00,1.16
5774.00,1.16
5773.00,1.16
5772.00,1.16
5771.00,1.16
5770.00,1.16
5769.00,1.16
5768.00,1.16
5767.00,1.17
5766.00,1.17
5765.00,1.17
5764.00,1.17
5763.00,1.17
5762.00,1.17
5761.00,1.18
5760.00,1.18
5759.00,1.18
5758.00,1.18
5757.00,1.18
5756.00,1.19
5755.00,1.19
5754.00,1.19
5753.00,1.19
5752.00,1.20
5751.00,1.20
5750.00,1.20
5749.00,1.20
5748.00,1.21
5747.00,1.21
5746.00,1.21
5745.00,1.21
5744.00,1.21
5743.00,1.22
5742.00,1.22
5741.00,1.22
5740.00,1.22
5739.00,1.22
5738.00,1.22
5737.00,1.22
5736.00,1.22
5735.00,1.22
5734.00,1.22
5733.00,1.23
5732.00,1.23
5731.00,1.23
5730.00,1.23
5729.00,1.23
5728.00,1.23
5727.00,1.23
5726.00,1.23
5725.00,1.23
5724.00,1.23
5723.00,1.23
5722.00,1.23
5721.00,1.22
5720.00,1.22
5719.00,1.22
5718.00,1.22
5717.00,1.22
5716.00,1.22
5715.00,1.22
5714.00,1.22
5713.00,1.22
5712.00,1.22
5711.00,1.22
5710.00,1.22
5709.00,1.22
5708.00,1.22
5707.00,1.22
5706.00,1.21
5705.00,1.21
5704.00,1.21
5703.00,1.21
5702.00,1.21
5701.00,1.21
5700.00,1.21
5699.00,1.21
5698.00,1.20
5697.00,1.20
5696.00,1.20
5695.00,1.20
5694.00,1.20
5693.00,1.20
5692.00,1.20
5691.00,1.20
5690.00,1.20
5689.00,1.20
5688.00,1.19
5687.00,1.19
5686.00,1.19
5685.00,1.19
5684.00,1.19
5683.00,1.19
5682.00,1.19
5681.00,1.19
5680.00,1.19
5679.00,1.19
5678.00,1.19
5677.00,1.19
5676.00,1.19
5675.00,1.19
5674.00,1.19
5673.00,1.19
5672.00,1.19
5671.00,1.19
5670.00,1.19
5669.00,1.19
5668.00,1.19
5667.00,1.19
5666.00,1.19
5665.00,1.19
5664.00,1.20
5663.00,1.20
5662.00,1.20
5661.00,1.20
5660.00,1.20
5659.00,1.20
5658.00,1.20
5657.00,1.20
5656.00,1.20
5655.00,1.20
5654.00,1.20
5653.00,1.20
5652.00,1.20
5651.00,1.21
5650.00,1.21
5649.00,1.21
5648.00,1.21
5647.00,1.21
5646.00,1.21
5645.00,1.21
5644.00,1.22
5643.00,1.22
5642.00,1.22
5641.00,1.22
5640.00,1.22
5639.00,1.23
5638.00,1.23
5637.00,1.23
5636.00,1.23
5635.00,1.23
5634.00,1.23
5633.00,1.23
5632.00,1.23
5631.00,1.23
5630.00,1.24
5629.00,1.24
5628.00,1.24
5627.00,1.24
5626.00,1.24
5625.00,1.24
5624.00,1.24
5623.00,1.24
5622.00,1.24
5621.00,1.24
5620.00,1.24
5619.00,1.24
5618.00,1.24
5617.00,1.25
5616.00,1.25
5615.00,1.25
5614.00,1.25
5613.00,1.25
5612.00,1.25
5611.00,1.25
5610.00,1.25
5609.00,1.26
5608.00,1.26
5607.00,1.26
5606.00,1.26
5605.00,1.26
5604.00,1.26
5603.00,1.27
5602.00,1.27
5601.00,1.27
5600.00,1.27
5599.00,1.27
5598.00,1.27
5597.00,1.27
5596.00,1.28
5595.00,1.28
5594.00,1.28
5593.00,1.28
5592.00,1.28
5591.00,1.28
5590.00,1.29
5589.00,1.29
5588.00,1.29
5587.00,1.29
5586.00,1.29
5585.00,1.29
5584.00,1.29
5583.00,1.29
5582.00,1.29
5581.00,1.30
5580.00,1.30
5579.00,1.30
5578.00,1.30
5577.00,1.30
5576.00,1.30
5575.00,1.30
5574.00,1.30
5573.00,1.30
5572.00,1.30
5571.00,1.30
5570.00,1.31
5569.00,1.31
5568.00,1.31
5567.00,1.31
5566.00,1.31
5565.00,1.31
5564.00,1.31
5563.00,1.31
5562.00,1.32
5561.00,1.32
5560.00,1.32
5559.00,1.32
5558.00,1.32
5557.00,1.32
5556.00,1.33
5555.00,1.33
5554.00,1.33
5553.00,1.33
5552.00,1.33
5551.00,1.33
5550.00,1.33
5549.00,1.34
5548.00,1.34
5547.00,1.34
5546.00,1.34
5545.00,1.34
5544.00,1.34
5543.00,1.34
5542.00,1.34
5541.00,1.34
5540.00,1.34
5539.00,1.34
5538.00,1.34
5537.00,1.34
5536.00,1.34
5535.00,1.35
5534.00,1.35
5533.00,1.35
5532.00,1.35
5531.00,1.35
5530.00,1.35
5529.00,1.35
5528.00,1.35
5527.00,1.35
5526.00,1.35
5525.00,1.35
5524.00,1.35
5523.00,1.35
5522.00,1.35
5521.00,1.35
5520.00,1.35
5519.00,1.35
5518.00,1.35
5517.00,1.35
5516.00,1.35
5515.00,1.35
5514.00,1.35
5513.00,1.36
5512.00,1.36
5511.00,1.36
5510.00,1.36
5509.00,1.36
5508.00,1.36
5507.00,1.36
5506.00,1.36
5505.00,1.36
5504.00,1.36
5503.00,1.36
5502.00,1.36
5501.00,1.36
5500.00,1.36
5499.00,1.36
5498.00,1.36
5497.00,1.37
5496.00,1.37
5495.00,1.37
5494.00,1.37
5493.00,1.37
5492.00,1.37
5491.00,1.37
5490.00,1.37
5489.00,1.37
5488.00,1.37
5487.00,1.37
5486.00,1.38
5485.00,1.38
5484.00,1.38
5483.00,1.38
5482.00,1.38
5481.00,1.38
5480.00,1.38
5479.00,1.39
5478.00,1.39
5477.00,1.39
5476.00,1.39
5475.00,1.39
5474.00,1.39
5473.00,1.39
5472.00,1.39
5471.00,1.39
5470.00,1.40
5469.00,1.40
5468.00,1.40
5467.00,1.40
5466.00,1.40
5465.00,1.40
5464.00,1.40
5463.00,1.40
5462.00,1.40
5461.00,1.40
5460.00,1.40
5459.00,1.40
5458.00,1.40
5457.00,1.40
5456.00,1.40
5455.00,1.40
5454.00,1.40
5453.00,1.40
5452.00,1.40
5451.00,1.40
5450.00,1.40
5449.00,1.40
5448.00,1.40
5447.00,1.40
5446.00,1.40
5445.00,1.40
5444.00,1.40
5443.00,1.40
5442.00,1.40
5441.00,1.40
5440.00,1.40
5439.00,1.40
5438.00,1.40
5437.00,1.40
5436.00,1.40
5435.00,1.40
5434.00,1.40
5433.00,1.40
5432.00,1.40
5431.00,1.40
5430.00,1.40
5429.00,1.40
5428.00,1.40
5427.00,1.40
5426.00,1.40
5425.00,1.40
5424.00,1.40
5423.00,1.40
5422.00,1.40
5421.00,1.40
5420.00,1.40
5419.00,1.40
5418.00,1.40
5417.00,1.40
5416.00,1.40
5415.00,1.39
5414.00,1.39
5413.00,1.39
5412.00,1.39
5411.00,1.39
5410.00,1.39
5409.00,1.39
5408.00,1.39
5407.00,1.39
5406.00,1.39
5405.00,1.38
5404.00,1.38
5403.00,1.38
5402.00,1.38
5401.00,1.38
5400.00,1.38
5399.00,1.38
5398.00,1.38
5397.00,1.38
5396.00,1.37
5395.00,1.37
5394.00,1.37
5393.00,1.37
5392.00,1.37
5391.00,1.36
5390.00,1.36
5389.00,1.36
5388.00,1.36
5387.00,1.36
5386.00,1.35
5385.00,1.35
5384.00,1.35
5383.00,1.34
5382.00,1.34
5381.00,1.34
5380.00,1.33
5379.00,1.33
5378.00,1.32
5377.00,1.32
5376.00,1.31
5375.00,1.31
5374.00,1.30
5373.00,1.30
5372.00,1.29
5371.00,1.29
5370.00,1.28
5369.00,1.28
5368.00,1.27
5367.00,1.27
5366.00,1.26
5365.00,1.26
5364.00,1.25
5363.00,1.24
5362.00,1.24
5361.00,1.23
5360.00,1.22
5359.00,1.22
5358.00,1.21
5357.00,1.20
5356.00,1.19
5355.00,1.19
5354.00,1.18
5353.00,1.17
5352.00,1.16
5351.00,1.15
5350.00,1.14
5349.00,1.14
5348.00,1.13
5347.00,1.12
5346.00,1.11
5345.00,1.10
5344.00,1.09
5343.00,1.08
5342.00,1.07
5341.00,1.06
5340.00,1.06
5339.00,1.05
5338.00,1.04
5337.00,1.03
5336.00,1.02
5335.00,1.01
5334.00,1.00
5333.00,0.99
5332.00,0.99
5331.00,0.98
5330.00,0.97
5329.00,0.96
5328.00,0.95
5327.00,0.95
5326.00,0.94
5325.00,0.93
5324.00,0.92
5323.00,0.92
5322.00,0.91
5321.00,0.90
5320.00,0.89
5319.00,0.89
5318.00,0.88
5317.00,0.87
5316.00,0.87
5315.00,0.86
5314.00,0.85
5313.00,0.85
5312.00,0.84
5311.00,0.84
5310.00,0.83
5309.00,0.83
5308.00,0.83
5307.00,0.82
5306.00,0.82
5305.00,0.81
5304.00,0.81
5303.00,0.81
5302.00,0.81
5301.00,0.80
5300.00,0.80
5299.00,0.80
5298.00,0.80
5297.00,0.79
5296.00,0.79
5295.00,0.79
5294.00,0.79
5293.00,0.79
5292.00,0.78
5291.00,0.78
5290.00,0.78
5289.00,0.78
5288.00,0.78
5287.00,0.78
5286.00,0.78
5285.00,0.77
5284.00,0.77
5283.00,0.77
5282.00,0.77
5281.00,0.77
5280.00,0.77
5279.00,0.77
5278.00,0.77
5277.00,0.76
5276.00,0.76
5275.00,0.76
5274.00,0.76
5273.00,0.76
5272.00,0.76
5271.00,0.76
5270.00,0.76
5269.00,0.76
5268.00,0.76
5267.00,0.76
5266.00,0.76
5265.00,0.76
5264.00,0.76
5263.00,0.76
5262.00,0.76
5261.00,0.76
5260.00,0.76
5259.00,0.76
5258.00,0.76
5257.00,0.76
5256.00,0.76
5255.00,0.76
5254.00,0.76
5253.00,0.76
5252.00,0.76
5251.00,0.76
5250.00,0.76
5249.00,0.76
5248.00,0.76
5247.00,0.76
5246.00,0.76
5245.00,0.76
5244.00,0.76
5243.00,0.76
5242.00,0.76
5241.00,0.76
5240.00,0.76
5239.00,0.76
5238.00,0.76
5237.00,0.76
5236.00,0.76
5235.00,0.76
5234.00,0.77
5233.00,0.77
5232.00,0.77
5231.00,0.77
5230.00,0.77
5229.00,0.77
5228.00,0.77
5227.00,0.77
5226.00,0.77
5225.00,0.77
5224.00,0.77
5223.00,0.77
5222.00,0.77
5221.00,0.77
5220.00,0.77
5219.00,0.78
5218.00,0.78
5217.00,0.78
5216.00,0.78
5215.00,0.78
5214.00,0.78
5213.00,0.78
5212.00,0.78
5211.00,0.78
5210.00,0.78
5209.00,0.78
5208.00,0.78
5207.00,0.78
5206.00,0.78
5205.00,0.78
5204.00,0.78
5203.00,0.78
5202.00,0.78
5201.00,0.78
5200.00,0.78
5199.00,0.78
5198.00,0.78
5197.00,0.78
5196.00,0.78
5195.00,0.79
5194.00,0.79
5193.00,0.79
5192.00,0.79
5191.00,0.79
5190.00,0.79
5189.00,0.79
5188.00,0.79
5187.00,0.79
5186.00,0.79
5185.00,0.79
5184.00,0.79
5183.00,0.79
5182.00,0.79
5181.00,0.79
5180.00,0.80
5179.00,0.79
5178.00,0.79
5177.00,0.79
5176.00,0.79
5175.00,0.79
5174.00,0.79
5173.00,0.79
5172.00,0.79
5171.00,0.79
5170.00,0.79
5169.00,0.79
5168.00,0.79
5167.00,0.79
5166.00,0.79
5165.00,0.79
5164.00,0.79
5163.00,0.80
5162.00,0.80
5161.00,0.80
5160.00,0.80
5159.00,0.80
5158.00,0.80
5157.00,0.80
5156.00,0.80
5155.00,0.80
5154.00,0.80
5153.00,0.80
5152.00,0.80
5151.00,0.80
5150.00,0.80
5149.00,0.80
5148.00,0.80
5147.00,0.80
5146.00,0.80
5145.00,0.80
5144.00,0.80
5143.00,0.81
5142.00,0.81
5141.00,0.81
5140.00,0.81
5139.00,0.81
5138.00,0.81
5137.00,0.81
5136.00,0.81
5135.00,0.81
5134.00,0.81
5133.00,0.81
5132.00,0.81
5131.00,0.81
5130.00,0.82
5129.00,0.82
5128.00,0.82
5127.00,0.82
5126.00,0.82
5125.00,0.82
5124.00,0.82
5123.00,0.82
5122.00,0.82
5121.00,0.82
5120.00,0.82
5119.00,0.82
5118.00,0.82
5117.00,0.82
5116.00,0.82
5115.00,0.82
5114.00,0.82
5113.00,0.82
5112.00,0.82
5111.00,0.82
5110.00,0.82
5109.00,0.82
5108.00,0.82
5107.00,0.82
5106.00,0.82
5105.00,0.82
5104.00,0.83
5103.00,0.83
5102.00,0.83
5101.00,0.83
5100.00,0.83
5099.00,0.83
5098.00,0.83
5097.00,0.83
5096.00,0.83
5095.00,0.83
5094.00,0.83
5093.00,0.83
5092.00,0.83
5091.00,0.83
5090.00,0.83
5089.00,0.83
5088.00,0.83
5087.00,0.83
5086.00,0.83
5085.00,0.83
5084.00,0.84
5083.00,0.84
5082.00,0.84
5081.00,0.84
5080.00,0.84
5079.00,0.84
5078.00,0.84
5077.00,0.84
5076.00,0.84
5075.00,0.84
5074.00,0.84
5073.00,0.84
5072.00,0.84
5071.00,0.84
5070.00,0.84
5069.00,0.84
5068.00,0.84
5067.00,0.84
5066.00,0.84
5065.00,0.84
5064.00,0.84
5063.00,0.84
5062.00,0.84
5061.00,0.84
5060.00,0.84
5059.00,0.84
5058.00,0.84
5057.00,0.84
5056.00,0.84
5055.00,0.85
5054.00,0.85
5053.00,0.85
5052.00,0.85
5051.00,0.85
5050.00,0.85
5049.00,0.85
5048.00,0.85
5047.00,0.85
5046.00,0.85
5045.00,0.85
5044.00,0.85
5043.00,0.85
5042.00,0.85
5041.00,0.85
5040.00,0.85
5039.00,0.85
5038.00,0.85
5037.00,0.85
5036.00,0.85
5035.00,0.85
5034.00,0.85
5033.00,0.85
5032.00,0.85
5031.00,0.85
5030.00,0.85
5029.00,0.85
5028.00,0.85
5027.00,0.85
5026.00,0.86
5025.00,0.86
5024.00,0.86
5023.00,0.86
5022.00,0.86
5021.00,0.86
5020.00,0.86
5019.00,0.86
5018.00,0.86
5017.00,0.86
5016.00,0.86
5015.00,0.86
5014.00,0.86
5013.00,0.87
5012.00,0.87
5011.00,0.87
5010.00,0.87
5009.00,0.87
5008.00,0.87
5007.00,0.87
5006.00,0.87
5005.00,0.87
5004.00,0.87
5003.00,0.87
5002.00,0.88
5001.00,0.88
5000.00,0.88
4999.00,0.88
4998.00,0.88
4997.00,0.88
4996.00,0.88
4995.00,0.88
4994.00,0.88
4993.00,0.88
4992.00,0.88
4991.00,0.89
4990.00,0.89
4989.00,0.89
4988.00,0.89
4987.00,0.89
4986.00,0.89
4985.00,0.89
4984.00,0.89
4983.00,0.89
4982.00,0.89
4981.00,0.89
4980.00,0.89
4979.00,0.90
4978.00,0.90
4977.00,0.90
4976.00,0.90
4975.00,0.90
4974.00,0.90
4973.00,0.90
4972.00,0.90
4971.00,0.90
4970.00,0.90
4969.00,0.90
4968.00,0.90
4967.00,0.90
4966.00,0.90
4965.00,0.90
4964.00,0.90
4963.00,0.90
4962.00,0.90
4961.00,0.90
4960.00,0.90
4959.00,0.90
4958.00,0.90
4957.00,0.90
4956.00,0.90
4955.00,0.90
4954.00,0.90
4953.00,0.90
4952.00,0.91
4951.00,0.91
4950.00,0.91
4949.00,0.91
4948.00,0.91
4947.00,0.91
4946.00,0.91
4945.00,0.91
4944.00,0.91
4943.00,0.91
4942.00,0.91
4941.00,0.91
4940.00,0.92
4939.00,0.92
4938.00,0.92
4937.00,0.92
4936.00,0.92
4935.00,0.92
4934.00,0.92
4933.00,0.92
4932.00,0.92
4931.00,0.92
4930.00,0.92
4929.00,0.92
4928.00,0.92
4927.00,0.92
4926.00,0.92
4925.00,0.92
4924.00,0.92
4923.00,0.92
4922.00,0.92
4921.00,0.92
4920.00,0.92
4919.00,0.93
4918.00,0.93
4917.00,0.93
4916.00,0.93
4915.00,0.93
4914.00,0.93
4913.00,0.93
4912.00,0.93
4911.00,0.93
4910.00,0.93
4909.00,0.93
4908.00,0.94
4907.00,0.94
4906.00,0.94
4905.00,0.94
4904.00,0.94
4903.00,0.94
4902.00,0.94
4901.00,0.94
4900.00,0.94
4899.00,0.94
4898.00,0.94
4897.00,0.94
4896.00,0.94
4895.00,0.95
4894.00,0.95
4893.00,0.95
4892.00,0.95
4891.00,0.95
4890.00,0.95
4889.00,0.95
4888.00,0.95
4887.00,0.95
4886.00,0.95
4885.00,0.95
4884.00,0.95
4883.00,0.95
4882.00,0.95
4881.00,0.95
4880.00,0.95
4879.00,0.95
4878.00,0.95
4877.00,0.95
4876.00,0.95
4875.00,0.95
4874.00,0.95
4873.00,0.95
4872.00,0.95
4871.00,0.95
4870.00,0.95
4869.00,0.95
4868.00,0.95
4867.00,0.96
4866.00,0.96
4865.00,0.96
4864.00,0.96
4863.00,0.96
4862.00,0.96
4861.00,0.96
4860.00,0.96
4859.00,0.96
4858.00,0.96
4857.00,0.96
4856.00,0.96
4855.00,0.97
4854.00,0.97
4853.00,0.97
4852.00,0.97
4851.00,0.97
4850.00,0.97
4849.00,0.97
4848.00,0.97
4847.00,0.97
4846.00,0.97
4845.00,0.97
4844.00,0.98
4843.00,0.98
4842.00,0.98
4841.00,0.98
4840.00,0.98
4839.00,0.98
4838.00,0.98
4837.00,0.98
4836.00,0.99
4835.00,0.99
4834.00,0.99
4833.00,0.99
4832.00,0.99
4831.00,0.99
4830.00,0.99
4829.00,0.99
4828.00,0.99
4827.00,0.99
4826.00,0.99
4825.00,0.99
4824.00,0.99
4823.00,0.99
4822.00,0.99
4821.00,0.99
4820.00,0.99
4819.00,0.99
4818.00,0.99
4817.00,1.00
4816.00,1.00
4815.00,1.00
4814.00,1.00
4813.00,1.00
4812.00,1.00
4811.00,1.00
4810.00,1.00
4809.00,1.00
4808.00,1.00
4807.00,1.00
4806.00,1.01
4805.00,1.01
4804.00,1.01
4803.00,1.01
4802.00,1.01
4801.00,1.01
4800.00,1.01
4799.00,1.01
4798.00,1.01
4797.00,1.01
4796.00,1.01
4795.00,1.02
4794.00,1.02
4793.00,1.02
4792.00,1.02
4791.00,1.02
4790.00,1.02
4789.00,1.02
4788.00,1.02
4787.00,1.02
4786.00,1.02
4785.00,1.02
4784.00,1.03
4783.00,1.03
4782.00,1.03
4781.00,1.03
4780.00,1.03
4779.00,1.03
4778.00,1.03
4777.00,1.03
4776.00,1.03
4775.00,1.03
4774.00,1.03
4773.00,1.03
4772.00,1.03
4771.00,1.03
4770.00,1.03
4769.00,1.03
4768.00,1.04
4767.00,1.04
4766.00,1.04
4765.00,1.04
4764.00,1.04
4763.00,1.04
4762.00,1.04
4761.00,1.05
4760.00,1.05
4759.00,1.05
4758.00,1.05
4757.00,1.05
4756.00,1.05
4755.00,1.05
4754.00,1.06
4753.00,1.06
4752.00,1.06
4751.00,1.06
4750.00,1.06
4749.00,1.06
4748.00,1.06
4747.00,1.07
4746.00,1.07
4745.00,1.07
4744.00,1.07
4743.00,1.07
4742.00,1.07
4741.00,1.07
4740.00,1.08
4739.00,1.08
4738.00,1.08
4737.00,1.08
4736.00,1.08
4735.00,1.08
4734.00,1.08
4733.00,1.08
4732.00,1.08
4731.00,1.08
4730.00,1.08
4729.00,1.08
4728.00,1.08
4727.00,1.08
4726.00,1.09
4725.00,1.09
4724.00,1.09
4723.00,1.09
4722.00,1.09
4721.00,1.09
4720.00,1.09
4719.00,1.09
4718.00,1.09
4717.00,1.09
4716.00,1.10
4715.00,1.10
4714.00,1.10
4713.00,1.10
4712.00,1.10
4711.00,1.10
4710.00,1.11
4709.00,1.11
4708.00,1.11
4707.00,1.11
4706.00,1.11
4705.00,1.11
4704.00,1.11
4703.00,1.12
4702.00,1.12
4701.00,1.12
4700.00,1.12
4699.00,1.12
4698.00,1.12
4697.00,1.12
4696.00,1.12
4695.00,1.12
4694.00,1.12
4693.00,1.12
4692.00,1.12
4691.00,1.13
4690.00,1.13
4689.00,1.13
4688.00,1.13
4687.00,1.13
4686.00,1.13
4685.00,1.14
4684.00,1.14
4683.00,1.14
4682.00,1.14
4681.00,1.14
4680.00,1.15
4679.00,1.15
4678.00,1.15
4677.00,1.15
4676.00,1.15
4675.00,1.16
4674.00,1.16
4673.00,1.16
4672.00,1.16
4671.00,1.16
4670.00,1.16
4669.00,1.16
4668.00,1.17
4667.00,1.17
4666.00,1.17
4665.00,1.17
4664.00,1.17
4663.00,1.17
4662.00,1.17
4661.00,1.17
4660.00,1.17
4659.00,1.17
4658.00,1.18
4657.00,1.18
4656.00,1.18
4655.00,1.18
4654.00,1.18
4653.00,1.18
4652.00,1.18
4651.00,1.18
4650.00,1.18
4649.00,1.18
4648.00,1.18
4647.00,1.18
4646.00,1.18
4645.00,1.18
4644.00,1.18
4643.00,1.19
4642.00,1.19
4641.00,1.19
4640.00,1.19
4639.00,1.19
4638.00,1.19
4637.00,1.19
4636.00,1.19
4635.00,1.20
4634.00,1.20
4633.00,1.20
4632.00,1.20
4631.00,1.20
4630.00,1.20
4629.00,1.20
4628.00,1.20
4627.00,1.20
4626.00,1.20
4625.00,1.21
4624.00,1.21
4623.00,1.21
4622.00,1.21
4621.00,1.21
4620.00,1.21
4619.00,1.21
4618.00,1.21
4617.00,1.21
4616.00,1.22
4615.00,1.22
4614.00,1.22
4613.00,1.22
4612.00,1.22
4611.00,1.22
4610.00,1.22
4609.00,1.23
4608.00,1.23
4607.00,1.23
4606.00,1.23
4605.00,1.23
4604.00,1.23
4603.00,1.23
4602.00,1.23
4601.00,1.23
4600.00,1.23
4599.00,1.23
4598.00,1.23
4597.00,1.24
4596.00,1.24
4595.00,1.24
4594.00,1.24
4593.00,1.24
4592.00,1.24
4591.00,1.24
4590.00,1.24
4589.00,1.24
4588.00,1.25
4587.00,1.25
4586.00,1.25
4585.00,1.25
4584.00,1.25
4583.00,1.25
4582.00,1.25
4581.00,1.25
4580.00,1.25
4579.00,1.25
4578.00,1.25
4577.00,1.26
4576.00,1.26
4575.00,1.26
4574.00,1.26
4573.00,1.26
4572.00,1.26
4571.00,1.26
4570.00,1.26
4569.00,1.26
4568.00,1.26
4567.00,1.26
4566.00,1.26
4565.00,1.26
4564.00,1.26
4563.00,1.26
4562.00,1.26
4561.00,1.26
4560.00,1.27
4559.00,1.27
4558.00,1.27
4557.00,1.27
4556.00,1.27
4555.00,1.27
4554.00,1.27
4553.00,1.27
4552.00,1.27
4551.00,1.27
4550.00,1.27
4549.00,1.27
4548.00,1.27
4547.00,1.27
4546.00,1.28
4545.00,1.28
4544.00,1.28
4543.00,1.28
4542.00,1.28
4541.00,1.28
4540.00,1.28
4539.00,1.28
4538.00,1.28
4537.00,1.29
4536.00,1.29
4535.00,1.29
4534.00,1.29
4533.00,1.29
4532.00,1.29
4531.00,1.29
4530.00,1.29
4529.00,1.29
4528.00,1.29
4527.00,1.29
4526.00,1.30
4525.00,1.30
4524.00,1.30
4523.00,1.29
4522.00,1.29
4521.00,1.29
4520.00,1.29
4519.00,1.29
4518.00,1.29
4517.00,1.29
4516.00,1.29
4515.00,1.29
4514.00,1.29
4513.00,1.29
4512.00,1.29
4511.00,1.29
4510.00,1.29
4509.00,1.29
4508.00,1.29
4507.00,1.29
4506.00,1.29
4505.00,1.29
4504.00,1.29
4503.00,1.29
4502.00,1.29
4501.00,1.29
4500.00,1.29
4499.00,1.29
4498.00,1.29
4497.00,1.29
4496.00,1.29
4495.00,1.29
4494.00,1.29
4493.00,1.29
4492.00,1.29
4491.00,1.29
4490.00,1.29
4489.00,1.28
4488.00,1.28
4487.00,1.28
4486.00,1.28
4485.00,1.28
4484.00,1.28
4483.00,1.28
4482.00,1.28
4481.00,1.28
4480.00,1.28
4479.00,1.28
4478.00,1.28
4477.00,1.28
4476.00,1.28
4475.00,1.28
4474.00,1.28
4473.00,1.27
4472.00,1.27
4471.00,1.27
4470.00,1.27
4469.00,1.27
4468.00,1.27
4467.00,1.26
4466.00,1.26
4465.00,1.26
4464.00,1.26
4463.00,1.25
4462.00,1.25
4461.00,1.25
4460.00,1.25
4459.00,1.24
4458.00,1.24
4457.00,1.24
4456.00,1.24
4455.00,1.23
4454.00,1.23
4453.00,1.23
4452.00,1.23
4451.00,1.22
4450.00,1.22
4449.00,1.22
4448.00,1.22
4447.00,1.21
4446.00,1.21
4445.00,1.21
4444.00,1.20
4443.00,1.20
4442.00,1.20
4441.00,1.20
4440.00,1.19
4439.00,1.19
4438.00,1.19
4437.00,1.19
4436.00,1.18
4435.00,1.18
4434.00,1.18
4433.00,1.18
4432.00,1.18
4431.00,1.17
4430.00,1.17
4429.00,1.17
4428.00,1.17
4427.00,1.17
4426.00,1.17
4425.00,1.17
4424.00,1.17
4423.00,1.16
4422.00,1.16
4421.00,1.16
4420.00,1.16
4419.00,1.16
4418.00,1.16
4417.00,1.16
4416.00,1.16
4415.00,1.16
4414.00,1.16
4413.00,1.16
4412.00,1.16
4411.00,1.16
4410.00,1.16
4409.00,1.16
4408.00,1.16
4407.00,1.16
4406.00,1.16
4405.00,1.16
4404.00,1.16
4403.00,1.16
4402.00,1.16
4401.00,1.16
4400.00,1.16
4399.00,1.17
4398.00,1.17
4397.00,1.17
4396.00,1.17
4395.00,1.17
4394.00,1.17
4393.00,1.17
4392.00,1.17
4391.00,1.17
4390.00,1.18
4389.00,1.18
4388.00,1.18
4387.00,1.18
4386.00,1.18
4385.00,1.18
4384.00,1.18
4383.00,1.18
4382.00,1.18
4381.00,1.19
4380.00,1.19
4379.00,1.19
4378.00,1.19
4377.00,1.19
4376.00,1.19
4375.00,1.19
4374.00,1.19
4373.00,1.19
4372.00,1.19
4371.00,1.19
4370.00,1.19
4369.00,1.19
4368.00,1.19
4367.00,1.20
4366.00,1.20
4365.00,1.20
4364.00,1.20
4363.00,1.20
4362.00,1.20
4361.00,1.20
4360.00,1.20
4359.00,1.20
4358.00,1.20
4357.00,1.20
4356.00,1.20
4355.00,1.20
4354.00,1.20
4353.00,1.20
4352.00,1.20
4351.00,1.20
4350.00,1.20
4349.00,1.20
4348.00,1.20
4347.00,1.20
4346.00,1.20
4345.00,1.20
4344.00,1.20
4343.00,1.20
4342.00,1.20
4341.00,1.20
4340.00,1.20
4339.00,1.20
4338.00,1.20
4337.00,1.19
4336.00,1.19
4335.00,1.19
4334.00,1.19
4333.00,1.19
4332.00,1.19
4331.00,1.19
4330.00,1.19
4329.00,1.19
4328.00,1.19
4327.00,1.19
4326.00,1.20
4325.00,1.20
4324.00,1.20
4323.00,1.20
4322.00,1.20
4321.00,1.20
4320.00,1.20
4319.00,1.20
4318.00,1.21
4317.00,1.21
4316.00,1.21
4315.00,1.21
4314.00,1.21
4313.00,1.22
4312.00,1.22
4311.00,1.22
4310.00,1.22
4309.00,1.22
4308.00,1.23
4307.00,1.23
4306.00,1.23
4305.00,1.23
4304.00,1.23
4303.00,1.23
4302.00,1.24
4301.00,1.24
4300.00,1.24
4299.00,1.24
4298.00,1.24
4297.00,1.24
4296.00,1.24
4295.00,1.25
4294.00,1.25
4293.00,1.25
4292.00,1.25
4291.00,1.25
4290.00,1.25
4289.00,1.25
4288.00,1.25
4287.00,1.25
4286.00,1.25
4285.00,1.25
4284.00,1.25
4283.00,1.25
4282.00,1.25
4281.00,1.25
4280.00,1.25
4279.00,1.25
4278.00,1.25
4277.00,1.26
4276.00,1.26
4275.00,1.26
4274.00,1.26
4273.00,1.26
4272.00,1.26
4271.00,1.26
4270.00,1.26
4269.00,1.26
4268.00,1.26
4267.00,1.26
4266.00,1.26
4265.00,1.26
4264.00,1.26
4263.00,1.26
4262.00,1.26
4261.00,1.26
4260.00,1.26
4259.00,1.26
4258.00,1.26
4257.00,1.26
4256.00,1.26
4255.00,1.26
4254.00,1.26
4253.00,1.26
4252.00,1.26
4251.00,1.27
4250.00,1.27
4249.00,1.27
4248.00,1.27
4247.00,1.27
4246.00,1.27
4245.00,1.27
4244.00,1.28
4243.00,1.28
4242.00,1.28
4241.00,1.28
4240.00,1.28
4239.00,1.28
4238.00,1.28
4237.00,1.28
4236.00,1.28
4235.00,1.28
4234.00,1.29
4233.00,1.29
4232.00,1.29
4231.00,1.29
4230.00,1.29
4229.00,1.29
4228.00,1.29
4227.00,1.29
4226.00,1.29
4225.00,1.29
4224.00,1.29
4223.00,1.29
4222.00,1.29
4221.00,1.29
4220.00,1.28
4219.00,1.28
4218.00,1.28
4217.00,1.28
4216.00,1.28
4215.00,1.28
4214.00,1.28
4213.00,1.28
4212.00,1.28
4211.00,1.28
4210.00,1.28
4209.00,1.28
4208.00,1.28
4207.00,1.28
4206.00,1.28
4205.00,1.28
4204.00,1.29
4203.00,1.29
4202.00,1.29
4201.00,1.29
4200.00,1.29
4199.00,1.30
4198.00,1.30
4197.00,1.30
4196.00,1.30
4195.00,1.30
4194.00,1.30
4193.00,1.30
4192.00,1.31
4191.00,1.31
4190.00,1.31
4189.00,1.31
4188.00,1.31
4187.00,1.31
4186.00,1.31
4185.00,1.31
4184.00,1.31
4183.00,1.31
4182.00,1.31
4181.00,1.31
4180.00,1.31
4179.00,1.31
4178.00,1.31
4177.00,1.31
4176.00,1.31
4175.00,1.31
4174.00,1.31
4173.00,1.31
4172.00,1.31
4171.00,1.31
4170.00,1.31
4169.00,1.31
4168.00,1.31
4167.00,1.31
4166.00,1.31
4165.00,1.31
4164.00,1.31
4163.00,1.31
4162.00,1.31
4161.00,1.31
4160.00,1.31
4159.00,1.30
4158.00,1.30
4157.00,1.30
4156.00,1.30
4155.00,1.30
4154.00,1.30
4153.00,1.30
4152.00,1.30
4151.00,1.30
4150.00,1.31
4149.00,1.31
4148.00,1.31
4147.00,1.31
4146.00,1.31
4145.00,1.31
4144.00,1.31
4143.00,1.31
4142.00,1.31
4141.00,1.31
4140.00,1.32
4139.00,1.32
4138.00,1.32
4137.00,1.32
4136.00,1.32
4135.00,1.32
4134.00,1.32
4133.00,1.32
4132.00,1.32
4131.00,1.32
4130.00,1.32
4129.00,1.32
4128.00,1.32
4127.00,1.32
4126.00,1.32
4125.00,1.32
4124.00,1.32
4123.00,1.32
4122.00,1.32
4121.00,1.32
4120.00,1.31
4119.00,1.31
4118.00,1.31
4117.00,1.31
4116.00,1.31
4115.00,1.31
4114.00,1.31
4113.00,1.31
4112.00,1.31
4111.00,1.31
4110.00,1.32
4109.00,1.32
4108.00,1.32
4107.00,1.32
4106.00,1.32
4105.00,1.33
4104.00,1.33
4103.00,1.33
4102.00,1.33
4101.00,1.34
4100.00,1.34
4099.00,1.34
4098.00,1.34
4097.00,1.34
4096.00,1.35
4095.00,1.35
4094.00,1.35
4093.00,1.35
4092.00,1.35
4091.00,1.35
4090.00,1.35
4089.00,1.35
4088.00,1.35
4087.00,1.35
4086.00,1.35
4085.00,1.35
4084.00,1.35
4083.00,1.35
4082.00,1.35
4081.00,1.35
4080.00,1.35
4079.00,1.35
4078.00,1.35
4077.00,1.35
4076.00,1.35
4075.00,1.35
4074.00,1.35
4073.00,1.35
4072.00,1.35
4071.00,1.36
4070.00,1.36
4069.00,1.36
4068.00,1.36
4067.00,1.36
4066.00,1.36
4065.00,1.36
4064.00,1.36
4063.00,1.36
4062.00,1.36
4061.00,1.36
4060.00,1.36
4059.00,1.36
4058.00,1.36
4057.00,1.36
4056.00,1.36
4055.00,1.36
4054.00,1.36
4053.00,1.37
4052.00,1.37
4051.00,1.37
4050.00,1.37
4049.00,1.37
4048.00,1.38
4047.00,1.38
4046.00,1.38
4045.00,1.38
4044.00,1.38
4043.00,1.38
4042.00,1.39
4041.00,1.39
4040.00,1.39
4039.00,1.39
4038.00,1.39
4037.00,1.39
4036.00,1.39
4035.00,1.39
4034.00,1.39
4033.00,1.39
4032.00,1.39
4031.00,1.39
4030.00,1.39
4029.00,1.39
4028.00,1.39
4027.00,1.40
4026.00,1.40
4025.00,1.40
4024.00,1.40
4023.00,1.40
4022.00,1.40
4021.00,1.40
4020.00,1.40
4019.00,1.40
4018.00,1.40
4017.00,1.40
4016.00,1.40
4015.00,1.40
4014.00,1.40
4013.00,1.40
4012.00,1.40
4011.00,1.40
4010.00,1.40
4009.00,1.40
4008.00,1.40
4007.00,1.40
4006.00,1.40
4005.00,1.40
4004.00,1.40
4003.00,1.40
4002.00,1.40
4001.00,1.40
4000.00,1.40
