创建为新数据集,样品 107 用户 Administrator 日期 星期六, 七月 21 2018
cm-1,%T
10000.00,1.53
9999.00,1.53
9998.00,1.53
9997.00,1.53
9996.00,1.53
9995.00,1.53
9994.00,1.53
9993.00,1.53
9992.00,1.53
9991.00,1.52
9990.00,1.52
9989.00,1.52
9988.00,1.52
9987.00,1.52
9986.00,1.52
9985.00,1.52
9984.00,1.52
9983.00,1.51
9982.00,1.51
9981.00,1.51
9980.00,1.52
9979.00,1.52
9978.00,1.52
9977.00,1.52
9976.00,1.52
9975.00,1.52
9974.00,1.52
9973.00,1.53
9972.00,1.53
9971.00,1.53
9970.00,1.53
9969.00,1.53
9968.00,1.53
9967.00,1.53
9966.00,1.53
9965.00,1.53
9964.00,1.53
9963.00,1.53
9962.00,1.53
9961.00,1.53
9960.00,1.53
9959.00,1.53
9958.00,1.53
9957.00,1.53
9956.00,1.53
9955.00,1.53
9954.00,1.53
9953.00,1.53
9952.00,1.53
9951.00,1.53
9950.00,1.53
9949.00,1.52
9948.00,1.52
9947.00,1.52
9946.00,1.52
9945.00,1.52
9944.00,1.51
9943.00,1.51
9942.00,1.51
9941.00,1.51
9940.00,1.50
9939.00,1.50
9938.00,1.50
9937.00,1.50
9936.00,1.50
9935.00,1.49
9934.00,1.49
9933.00,1.49
9932.00,1.49
9931.00,1.49
9930.00,1.49
9929.00,1.49
9928.00,1.49
9927.00,1.49
9926.00,1.49
9925.00,1.49
9924.00,1.49
9923.00,1.49
9922.00,1.50
9921.00,1.50
9920.00,1.50
9919.00,1.50
9918.00,1.50
9917.00,1.50
9916.00,1.51
9915.00,1.51
9914.00,1.51
9913.00,1.51
9912.00,1.51
9911.00,1.51
9910.00,1.51
9909.00,1.51
9908.00,1.51
9907.00,1.51
9906.00,1.50
9905.00,1.50
9904.00,1.50
9903.00,1.50
9902.00,1.49
9901.00,1.49
9900.00,1.49
9899.00,1.49
9898.00,1.49
9897.00,1.49
9896.00,1.48
9895.00,1.48
9894.00,1.48
9893.00,1.48
9892.00,1.48
9891.00,1.49
9890.00,1.49
9889.00,1.49
9888.00,1.49
9887.00,1.49
9886.00,1.49
9885.00,1.49
9884.00,1.49
9883.00,1.49
9882.00,1.49
9881.00,1.49
9880.00,1.49
9879.00,1.48
9878.00,1.48
9877.00,1.48
9876.00,1.48
9875.00,1.48
9874.00,1.48
9873.00,1.48
9872.00,1.48
9871.00,1.48
9870.00,1.48
9869.00,1.49
9868.00,1.49
9867.00,1.49
9866.00,1.49
9865.00,1.50
9864.00,1.50
9863.00,1.50
9862.00,1.50
9861.00,1.50
9860.00,1.51
9859.00,1.51
9858.00,1.51
9857.00,1.51
9856.00,1.51
9855.00,1.51
9854.00,1.50
9853.00,1.50
9852.00,1.50
9851.00,1.50
9850.00,1.49
9849.00,1.49
9848.00,1.49
9847.00,1.48
9846.00,1.48
9845.00,1.48
9844.00,1.48
9843.00,1.47
9842.00,1.47
9841.00,1.47
9840.00,1.47
9839.00,1.47
9838.00,1.47
9837.00,1.48
9836.00,1.48
9835.00,1.48
9834.00,1.48
9833.00,1.48
9832.00,1.49
9831.00,1.49
9830.00,1.49
9829.00,1.49
9828.00,1.49
9827.00,1.49
9826.00,1.50
9825.00,1.50
9824.00,1.50
9823.00,1.49
9822.00,1.49
9821.00,1.49
9820.00,1.49
9819.00,1.49
9818.00,1.49
9817.00,1.49
9816.00,1.49
9815.00,1.49
9814.00,1.49
9813.00,1.49
9812.00,1.49
9811.00,1.49
9810.00,1.49
9809.00,1.50
9808.00,1.50
9807.00,1.50
9806.00,1.50
9805.00,1.50
9804.00,1.51
9803.00,1.51
9802.00,1.51
9801.00,1.51
9800.00,1.51
9799.00,1.51
9798.00,1.51
9797.00,1.51
9796.00,1.51
9795.00,1.51
9794.00,1.51
9793.00,1.51
9792.00,1.51
9791.00,1.51
9790.00,1.51
9789.00,1.51
9788.00,1.50
9787.00,1.50
9786.00,1.50
9785.00,1.50
9784.00,1.50
9783.00,1.50
9782.00,1.50
9781.00,1.50
9780.00,1.50
9779.00,1.49
9778.00,1.49
9777.00,1.49
9776.00,1.49
9775.00,1.49
9774.00,1.49
9773.00,1.50
9772.00,1.50
9771.00,1.50
9770.00,1.50
9769.00,1.50
9768.00,1.50
9767.00,1.50
9766.00,1.50
9765.00,1.50
9764.00,1.50
9763.00,1.50
9762.00,1.50
9761.00,1.50
9760.00,1.50
9759.00,1.50
9758.00,1.50
9757.00,1.50
9756.00,1.50
9755.00,1.50
9754.00,1.50
9753.00,1.50
9752.00,1.49
9751.00,1.49
9750.00,1.49
9749.00,1.49
9748.00,1.49
9747.00,1.49
9746.00,1.49
9745.00,1.49
9744.00,1.49
9743.00,1.49
9742.00,1.49
9741.00,1.49
9740.00,1.49
9739.00,1.49
9738.00,1.49
9737.00,1.49
9736.00,1.49
9735.00,1.49
9734.00,1.48
9733.00,1.48
9732.00,1.48
9731.00,1.48
9730.00,1.48
9729.00,1.48
9728.00,1.48
9727.00,1.48
9726.00,1.48
9725.00,1.48
9724.00,1.49
9723.00,1.49
9722.00,1.49
9721.00,1.49
9720.00,1.49
9719.00,1.50
9718.00,1.50
9717.00,1.50
9716.00,1.50
9715.00,1.50
9714.00,1.50
9713.00,1.50
9712.00,1.50
9711.00,1.50
9710.00,1.50
9709.00,1.49
9708.00,1.49
9707.00,1.49
9706.00,1.49
9705.00,1.49
9704.00,1.49
9703.00,1.49
9702.00,1.49
9701.00,1.48
9700.00,1.48
9699.00,1.48
9698.00,1.48
9697.00,1.49
9696.00,1.49
9695.00,1.49
9694.00,1.49
9693.00,1.49
9692.00,1.49
9691.00,1.49
9690.00,1.49
9689.00,1.49
9688.00,1.49
9687.00,1.49
9686.00,1.49
9685.00,1.49
9684.00,1.49
9683.00,1.49
9682.00,1.49
9681.00,1.49
9680.00,1.49
9679.00,1.49
9678.00,1.49
9677.00,1.49
9676.00,1.49
9675.00,1.49
9674.00,1.49
9673.00,1.49
9672.00,1.49
9671.00,1.49
9670.00,1.49
9669.00,1.49
9668.00,1.49
9667.00,1.49
9666.00,1.49
9665.00,1.49
9664.00,1.49
9663.00,1.49
9662.00,1.49
9661.00,1.49
9660.00,1.49
9659.00,1.49
9658.00,1.49
9657.00,1.49
9656.00,1.49
9655.00,1.49
9654.00,1.49
9653.00,1.49
9652.00,1.49
9651.00,1.49
9650.00,1.49
9649.00,1.49
9648.00,1.49
9647.00,1.49
9646.00,1.49
9645.00,1.49
9644.00,1.49
9643.00,1.49
9642.00,1.49
9641.00,1.49
9640.00,1.49
9639.00,1.50
9638.00,1.50
9637.00,1.50
9636.00,1.50
9635.00,1.50
9634.00,1.51
9633.00,1.51
9632.00,1.51
9631.00,1.51
9630.00,1.51
9629.00,1.51
9628.00,1.51
9627.00,1.51
9626.00,1.52
9625.00,1.52
9624.00,1.52
9623.00,1.52
9622.00,1.52
9621.00,1.52
9620.00,1.52
9619.00,1.52
9618.00,1.52
9617.00,1.51
9616.00,1.51
9615.00,1.51
9614.00,1.51
9613.00,1.51
9612.00,1.51
9611.00,1.51
9610.00,1.51
9609.00,1.50
9608.00,1.50
9607.00,1.50
9606.00,1.50
9605.00,1.49
9604.00,1.49
9603.00,1.49
9602.00,1.49
9601.00,1.48
9600.00,1.48
9599.00,1.48
9598.00,1.48
9597.00,1.48
9596.00,1.48
9595.00,1.48
9594.00,1.48
9593.00,1.49
9592.00,1.49
9591.00,1.49
9590.00,1.49
9589.00,1.50
9588.00,1.50
9587.00,1.50
9586.00,1.51
9585.00,1.51
9584.00,1.51
9583.00,1.51
9582.00,1.51
9581.00,1.52
9580.00,1.52
9579.00,1.52
9578.00,1.52
9577.00,1.52
9576.00,1.52
9575.00,1.51
9574.00,1.51
9573.00,1.51
9572.00,1.51
9571.00,1.51
9570.00,1.51
9569.00,1.50
9568.00,1.50
9567.00,1.50
9566.00,1.50
9565.00,1.50
9564.00,1.50
9563.00,1.50
9562.00,1.49
9561.00,1.49
9560.00,1.50
9559.00,1.50
9558.00,1.50
9557.00,1.50
9556.00,1.50
9555.00,1.50
9554.00,1.50
9553.00,1.50
9552.00,1.51
9551.00,1.51
9550.00,1.51
9549.00,1.51
9548.00,1.51
9547.00,1.52
9546.00,1.52
9545.00,1.52
9544.00,1.52
9543.00,1.52
9542.00,1.52
9541.00,1.52
9540.00,1.52
9539.00,1.52
9538.00,1.52
9537.00,1.52
9536.00,1.52
9535.00,1.52
9534.00,1.51
9533.00,1.51
9532.00,1.51
9531.00,1.51
9530.00,1.51
9529.00,1.50
9528.00,1.50
9527.00,1.50
9526.00,1.50
9525.00,1.49
9524.00,1.49
9523.00,1.49
9522.00,1.49
9521.00,1.48
9520.00,1.48
9519.00,1.48
9518.00,1.48
9517.00,1.47
9516.00,1.47
9515.00,1.47
9514.00,1.47
9513.00,1.46
9512.00,1.46
9511.00,1.46
9510.00,1.46
9509.00,1.46
9508.00,1.46
9507.00,1.46
9506.00,1.46
9505.00,1.46
9504.00,1.46
9503.00,1.46
9502.00,1.47
9501.00,1.47
9500.00,1.47
9499.00,1.48
9498.00,1.48
9497.00,1.48
9496.00,1.49
9495.00,1.49
9494.00,1.50
9493.00,1.50
9492.00,1.50
9491.00,1.51
9490.00,1.51
9489.00,1.51
9488.00,1.51
9487.00,1.51
9486.00,1.51
9485.00,1.52
9484.00,1.51
9483.00,1.51
9482.00,1.51
9481.00,1.51
9480.00,1.51
9479.00,1.51
9478.00,1.51
9477.00,1.50
9476.00,1.50
9475.00,1.50
9474.00,1.50
9473.00,1.49
9472.00,1.49
9471.00,1.49
9470.00,1.49
9469.00,1.48
9468.00,1.48
9467.00,1.48
9466.00,1.48
9465.00,1.48
9464.00,1.48
9463.00,1.48
9462.00,1.48
9461.00,1.48
9460.00,1.48
9459.00,1.48
9458.00,1.48
9457.00,1.48
9456.00,1.48
9455.00,1.48
9454.00,1.48
9453.00,1.48
9452.00,1.48
9451.00,1.49
9450.00,1.49
9449.00,1.49
9448.00,1.49
9447.00,1.50
9446.00,1.50
9445.00,1.50
9444.00,1.50
9443.00,1.51
9442.00,1.51
9441.00,1.51
9440.00,1.51
9439.00,1.51
9438.00,1.51
9437.00,1.51
9436.00,1.52
9435.00,1.52
9434.00,1.52
9433.00,1.52
9432.00,1.52
9431.00,1.52
9430.00,1.51
9429.00,1.51
9428.00,1.51
9427.00,1.51
9426.00,1.51
9425.00,1.51
9424.00,1.51
9423.00,1.52
9422.00,1.52
9421.00,1.52
9420.00,1.52
9419.00,1.52
9418.00,1.52
9417.00,1.52
9416.00,1.52
9415.00,1.52
9414.00,1.52
9413.00,1.52
9412.00,1.52
9411.00,1.52
9410.00,1.52
9409.00,1.52
9408.00,1.52
9407.00,1.52
9406.00,1.52
9405.00,1.52
9404.00,1.52
9403.00,1.52
9402.00,1.52
9401.00,1.52
9400.00,1.52
9399.00,1.53
9398.00,1.53
9397.00,1.53
9396.00,1.53
9395.00,1.52
9394.00,1.52
9393.00,1.52
9392.00,1.52
9391.00,1.52
9390.00,1.52
9389.00,1.52
9388.00,1.52
9387.00,1.52
9386.00,1.51
9385.00,1.51
9384.00,1.51
9383.00,1.51
9382.00,1.51
9381.00,1.50
9380.00,1.50
9379.00,1.50
9378.00,1.50
9377.00,1.50
9376.00,1.50
9375.00,1.49
9374.00,1.49
9373.00,1.49
9372.00,1.49
9371.00,1.49
9370.00,1.49
9369.00,1.49
9368.00,1.49
9367.00,1.49
9366.00,1.49
9365.00,1.49
9364.00,1.49
9363.00,1.49
9362.00,1.49
9361.00,1.49
9360.00,1.49
9359.00,1.49
9358.00,1.50
9357.00,1.50
9356.00,1.50
9355.00,1.51
9354.00,1.51
9353.00,1.51
9352.00,1.51
9351.00,1.52
9350.00,1.52
9349.00,1.52
9348.00,1.52
9347.00,1.53
9346.00,1.53
9345.00,1.53
9344.00,1.53
9343.00,1.53
9342.00,1.53
9341.00,1.53
9340.00,1.53
9339.00,1.53
9338.00,1.53
9337.00,1.53
9336.00,1.53
9335.00,1.52
9334.00,1.52
9333.00,1.52
9332.00,1.52
9331.00,1.51
9330.00,1.51
9329.00,1.51
9328.00,1.50
9327.00,1.50
9326.00,1.50
9325.00,1.50
9324.00,1.49
9323.00,1.49
9322.00,1.49
9321.00,1.49
9320.00,1.49
9319.00,1.49
9318.00,1.49
9317.00,1.49
9316.00,1.50
9315.00,1.50
9314.00,1.50
9313.00,1.50
9312.00,1.50
9311.00,1.50
9310.00,1.51
9309.00,1.51
9308.00,1.51
9307.00,1.51
9306.00,1.51
9305.00,1.51
9304.00,1.51
9303.00,1.51
9302.00,1.51
9301.00,1.51
9300.00,1.51
9299.00,1.50
9298.00,1.50
9297.00,1.50
9296.00,1.50
9295.00,1.50
9294.00,1.50
9293.00,1.50
9292.00,1.50
9291.00,1.50
9290.00,1.50
9289.00,1.50
9288.00,1.50
9287.00,1.50
9286.00,1.50
9285.00,1.50
9284.00,1.50
9283.00,1.50
9282.00,1.50
9281.00,1.50
9280.00,1.50
9279.00,1.50
9278.00,1.50
9277.00,1.50
9276.00,1.50
9275.00,1.51
9274.00,1.51
9273.00,1.51
9272.00,1.51
9271.00,1.51
9270.00,1.51
9269.00,1.51
9268.00,1.51
9267.00,1.51
9266.00,1.51
9265.00,1.51
9264.00,1.51
9263.00,1.51
9262.00,1.50
9261.00,1.50
9260.00,1.50
9259.00,1.50
9258.00,1.50
9257.00,1.49
9256.00,1.49
9255.00,1.49
9254.00,1.49
9253.00,1.49
9252.00,1.49
9251.00,1.49
9250.00,1.49
9249.00,1.49
9248.00,1.49
9247.00,1.49
9246.00,1.49
9245.00,1.49
9244.00,1.49
9243.00,1.50
9242.00,1.50
9241.00,1.50
9240.00,1.50
9239.00,1.50
9238.00,1.50
9237.00,1.50
9236.00,1.50
9235.00,1.50
9234.00,1.50
9233.00,1.50
9232.00,1.50
9231.00,1.49
9230.00,1.49
9229.00,1.49
9228.00,1.49
9227.00,1.49
9226.00,1.49
9225.00,1.49
9224.00,1.49
9223.00,1.49
9222.00,1.50
9221.00,1.50
9220.00,1.50
9219.00,1.50
9218.00,1.50
9217.00,1.51
9216.00,1.51
9215.00,1.51
9214.00,1.51
9213.00,1.51
9212.00,1.52
9211.00,1.52
9210.00,1.52
9209.00,1.52
9208.00,1.52
9207.00,1.52
9206.00,1.52
9205.00,1.52
9204.00,1.52
9203.00,1.53
9202.00,1.53
9201.00,1.53
9200.00,1.53
9199.00,1.53
9198.00,1.53
9197.00,1.53
9196.00,1.53
9195.00,1.53
9194.00,1.53
9193.00,1.53
9192.00,1.52
9191.00,1.52
9190.00,1.52
9189.00,1.52
9188.00,1.52
9187.00,1.52
9186.00,1.51
9185.00,1.51
9184.00,1.51
9183.00,1.50
9182.00,1.50
9181.00,1.50
9180.00,1.50
9179.00,1.49
9178.00,1.49
9177.00,1.49
9176.00,1.49
9175.00,1.49
9174.00,1.48
9173.00,1.48
9172.00,1.48
9171.00,1.48
9170.00,1.48
9169.00,1.49
9168.00,1.49
9167.00,1.49
9166.00,1.49
9165.00,1.49
9164.00,1.49
9163.00,1.49
9162.00,1.49
9161.00,1.49
9160.00,1.49
9159.00,1.49
9158.00,1.50
9157.00,1.50
9156.00,1.50
9155.00,1.50
9154.00,1.50
9153.00,1.50
9152.00,1.50
9151.00,1.50
9150.00,1.50
9149.00,1.50
9148.00,1.51
9147.00,1.51
9146.00,1.51
9145.00,1.51
9144.00,1.51
9143.00,1.51
9142.00,1.51
9141.00,1.51
9140.00,1.51
9139.00,1.51
9138.00,1.51
9137.00,1.51
9136.00,1.51
9135.00,1.52
9134.00,1.52
9133.00,1.52
9132.00,1.52
9131.00,1.52
9130.00,1.52
9129.00,1.52
9128.00,1.52
9127.00,1.52
9126.00,1.52
9125.00,1.53
9124.00,1.53
9123.00,1.53
9122.00,1.53
9121.00,1.53
9120.00,1.53
9119.00,1.53
9118.00,1.53
9117.00,1.53
9116.00,1.53
9115.00,1.53
9114.00,1.53
9113.00,1.53
9112.00,1.53
9111.00,1.53
9110.00,1.53
9109.00,1.53
9108.00,1.53
9107.00,1.53
9106.00,1.53
9105.00,1.53
9104.00,1.53
9103.00,1.53
9102.00,1.53
9101.00,1.52
9100.00,1.52
9099.00,1.52
9098.00,1.52
9097.00,1.52
9096.00,1.52
9095.00,1.52
9094.00,1.51
9093.00,1.51
9092.00,1.51
9091.00,1.51
9090.00,1.51
9089.00,1.51
9088.00,1.51
9087.00,1.50
9086.00,1.50
9085.00,1.50
9084.00,1.50
9083.00,1.50
9082.00,1.50
9081.00,1.51
9080.00,1.51
9079.00,1.51
9078.00,1.51
9077.00,1.51
9076.00,1.51
9075.00,1.52
9074.00,1.52
9073.00,1.52
9072.00,1.52
9071.00,1.52
9070.00,1.52
9069.00,1.52
9068.00,1.52
9067.00,1.52
9066.00,1.52
9065.00,1.52
9064.00,1.52
9063.00,1.52
9062.00,1.52
9061.00,1.52
9060.00,1.52
9059.00,1.51
9058.00,1.51
9057.00,1.51
9056.00,1.51
9055.00,1.51
9054.00,1.51
9053.00,1.51
9052.00,1.51
9051.00,1.52
9050.00,1.52
9049.00,1.52
9048.00,1.52
9047.00,1.52
9046.00,1.52
9045.00,1.52
9044.00,1.52
9043.00,1.52
9042.00,1.52
9041.00,1.53
9040.00,1.53
9039.00,1.53
9038.00,1.53
9037.00,1.53
9036.00,1.53
9035.00,1.53
9034.00,1.53
9033.00,1.53
9032.00,1.53
9031.00,1.53
9030.00,1.53
9029.00,1.53
9028.00,1.53
9027.00,1.53
9026.00,1.53
9025.00,1.53
9024.00,1.53
9023.00,1.53
9022.00,1.53
9021.00,1.53
9020.00,1.53
9019.00,1.52
9018.00,1.52
9017.00,1.52
9016.00,1.52
9015.00,1.52
9014.00,1.52
9013.00,1.52
9012.00,1.52
9011.00,1.52
9010.00,1.53
9009.00,1.53
9008.00,1.53
9007.00,1.53
9006.00,1.53
9005.00,1.53
9004.00,1.53
9003.00,1.53
9002.00,1.53
9001.00,1.53
9000.00,1.53
8999.00,1.53
8998.00,1.53
8997.00,1.53
8996.00,1.53
8995.00,1.53
8994.00,1.53
8993.00,1.53
8992.00,1.53
8991.00,1.53
8990.00,1.53
8989.00,1.53
8988.00,1.53
8987.00,1.53
8986.00,1.52
8985.00,1.52
8984.00,1.52
8983.00,1.52
8982.00,1.52
8981.00,1.52
8980.00,1.52
8979.00,1.52
8978.00,1.52
8977.00,1.52
8976.00,1.51
8975.00,1.51
8974.00,1.51
8973.00,1.51
8972.00,1.51
8971.00,1.51
8970.00,1.51
8969.00,1.51
8968.00,1.51
8967.00,1.51
8966.00,1.50
8965.00,1.50
8964.00,1.50
8963.00,1.50
8962.00,1.51
8961.00,1.51
8960.00,1.51
8959.00,1.51
8958.00,1.51
8957.00,1.51
8956.00,1.51
8955.00,1.51
8954.00,1.51
8953.00,1.51
8952.00,1.51
8951.00,1.51
8950.00,1.51
8949.00,1.51
8948.00,1.51
8947.00,1.51
8946.00,1.51
8945.00,1.51
8944.00,1.51
8943.00,1.51
8942.00,1.51
8941.00,1.51
8940.00,1.51
8939.00,1.51
8938.00,1.51
8937.00,1.51
8936.00,1.51
8935.00,1.51
8934.00,1.50
8933.00,1.50
8932.00,1.50
8931.00,1.50
8930.00,1.50
8929.00,1.50
8928.00,1.50
8927.00,1.50
8926.00,1.50
8925.00,1.50
8924.00,1.51
8923.00,1.51
8922.00,1.51
8921.00,1.51
8920.00,1.51
8919.00,1.51
8918.00,1.51
8917.00,1.51
8916.00,1.51
8915.00,1.51
8914.00,1.51
8913.00,1.51
8912.00,1.50
8911.00,1.50
8910.00,1.50
8909.00,1.50
8908.00,1.50
8907.00,1.50
8906.00,1.50
8905.00,1.50
8904.00,1.50
8903.00,1.50
8902.00,1.50
8901.00,1.50
8900.00,1.50
8899.00,1.50
8898.00,1.50
8897.00,1.50
8896.00,1.51
8895.00,1.51
8894.00,1.51
8893.00,1.51
8892.00,1.51
8891.00,1.51
8890.00,1.52
8889.00,1.52
8888.00,1.52
8887.00,1.52
8886.00,1.52
8885.00,1.53
8884.00,1.53
8883.00,1.53
8882.00,1.53
8881.00,1.53
8880.00,1.53
8879.00,1.53
8878.00,1.53
8877.00,1.53
8876.00,1.53
8875.00,1.53
8874.00,1.53
8873.00,1.53
8872.00,1.52
8871.00,1.52
8870.00,1.52
8869.00,1.52
8868.00,1.51
8867.00,1.51
8866.00,1.51
8865.00,1.51
8864.00,1.50
8863.00,1.50
8862.00,1.50
8861.00,1.50
8860.00,1.50
8859.00,1.50
8858.00,1.50
8857.00,1.49
8856.00,1.49
8855.00,1.49
8854.00,1.49
8853.00,1.49
8852.00,1.49
8851.00,1.49
8850.00,1.49
8849.00,1.49
8848.00,1.49
8847.00,1.49
8846.00,1.49
8845.00,1.50
8844.00,1.50
8843.00,1.50
8842.00,1.50
8841.00,1.50
8840.00,1.50
8839.00,1.50
8838.00,1.50
8837.00,1.50
8836.00,1.50
8835.00,1.50
8834.00,1.50
8833.00,1.50
8832.00,1.50
8831.00,1.50
8830.00,1.50
8829.00,1.51
8828.00,1.51
8827.00,1.51
8826.00,1.51
8825.00,1.51
8824.00,1.51
8823.00,1.51
8822.00,1.51
8821.00,1.51
8820.00,1.51
8819.00,1.51
8818.00,1.51
8817.00,1.51
8816.00,1.51
8815.00,1.51
8814.00,1.51
8813.00,1.51
8812.00,1.51
8811.00,1.51
8810.00,1.51
8809.00,1.51
8808.00,1.51
8807.00,1.51
8806.00,1.51
8805.00,1.51
8804.00,1.51
8803.00,1.50
8802.00,1.50
8801.00,1.50
8800.00,1.50
8799.00,1.50
8798.00,1.50
8797.00,1.50
8796.00,1.49
8795.00,1.49
8794.00,1.49
8793.00,1.49
8792.00,1.49
8791.00,1.49
8790.00,1.49
8789.00,1.49
8788.00,1.49
8787.00,1.49
8786.00,1.49
8785.00,1.49
8784.00,1.49
8783.00,1.48
8782.00,1.48
8781.00,1.48
8780.00,1.48
8779.00,1.48
8778.00,1.48
8777.00,1.48
8776.00,1.47
8775.00,1.47
8774.00,1.47
8773.00,1.47
8772.00,1.47
8771.00,1.47
8770.00,1.46
8769.00,1.46
8768.00,1.46
8767.00,1.46
8766.00,1.46
8765.00,1.46
8764.00,1.46
8763.00,1.46
8762.00,1.46
8761.00,1.46
8760.00,1.45
8759.00,1.45
8758.00,1.45
8757.00,1.45
8756.00,1.45
8755.00,1.45
8754.00,1.45
8753.00,1.45
8752.00,1.45
8751.00,1.45
8750.00,1.45
8749.00,1.44
8748.00,1.44
8747.00,1.44
8746.00,1.44
8745.00,1.44
8744.00,1.44
8743.00,1.44
8742.00,1.44
8741.00,1.44
8740.00,1.44
8739.00,1.44
8738.00,1.44
8737.00,1.44
8736.00,1.44
8735.00,1.44
8734.00,1.44
8733.00,1.44
8732.00,1.44
8731.00,1.44
8730.00,1.44
8729.00,1.44
8728.00,1.44
8727.00,1.44
8726.00,1.45
8725.00,1.45
8724.00,1.45
8723.00,1.45
8722.00,1.45
8721.00,1.45
8720.00,1.45
8719.00,1.45
8718.00,1.45
8717.00,1.45
8716.00,1.46
8715.00,1.46
8714.00,1.46
8713.00,1.46
8712.00,1.46
8711.00,1.46
8710.00,1.46
8709.00,1.46
8708.00,1.46
8707.00,1.46
8706.00,1.45
8705.00,1.45
8704.00,1.45
8703.00,1.45
8702.00,1.45
8701.00,1.45
8700.00,1.45
8699.00,1.44
8698.00,1.44
8697.00,1.44
8696.00,1.44
8695.00,1.44
8694.00,1.44
8693.00,1.44
8692.00,1.44
8691.00,1.44
8690.00,1.44
8689.00,1.44
8688.00,1.44
8687.00,1.44
8686.00,1.44
8685.00,1.44
8684.00,1.44
8683.00,1.44
8682.00,1.44
8681.00,1.44
8680.00,1.44
8679.00,1.43
8678.00,1.43
8677.00,1.43
8676.00,1.43
8675.00,1.43
8674.00,1.43
8673.00,1.43
8672.00,1.42
8671.00,1.42
8670.00,1.42
8669.00,1.42
8668.00,1.42
8667.00,1.42
8666.00,1.42
8665.00,1.42
8664.00,1.42
8663.00,1.42
8662.00,1.42
8661.00,1.42
8660.00,1.42
8659.00,1.42
8658.00,1.42
8657.00,1.42
8656.00,1.42
8655.00,1.42
8654.00,1.42
8653.00,1.42
8652.00,1.42
8651.00,1.41
8650.00,1.41
8649.00,1.41
8648.00,1.41
8647.00,1.41
8646.00,1.41
8645.00,1.41
8644.00,1.41
8643.00,1.41
8642.00,1.41
8641.00,1.40
8640.00,1.40
8639.00,1.40
8638.00,1.40
8637.00,1.40
8636.00,1.40
8635.00,1.40
8634.00,1.40
8633.00,1.40
8632.00,1.40
8631.00,1.40
8630.00,1.40
8629.00,1.40
8628.00,1.40
8627.00,1.40
8626.00,1.40
8625.00,1.40
8624.00,1.40
8623.00,1.40
8622.00,1.40
8621.00,1.41
8620.00,1.41
8619.00,1.41
8618.00,1.41
8617.00,1.41
8616.00,1.41
8615.00,1.41
8614.00,1.41
8613.00,1.41
8612.00,1.41
8611.00,1.41
8610.00,1.41
8609.00,1.41
8608.00,1.41
8607.00,1.41
8606.00,1.41
8605.00,1.41
8604.00,1.41
8603.00,1.41
8602.00,1.41
8601.00,1.41
8600.00,1.41
8599.00,1.41
8598.00,1.40
8597.00,1.40
8596.00,1.40
8595.00,1.40
8594.00,1.40
8593.00,1.40
8592.00,1.40
8591.00,1.40
8590.00,1.40
8589.00,1.40
8588.00,1.40
8587.00,1.40
8586.00,1.40
8585.00,1.40
8584.00,1.40
8583.00,1.40
8582.00,1.40
8581.00,1.40
8580.00,1.40
8579.00,1.40
8578.00,1.40
8577.00,1.40
8576.00,1.40
8575.00,1.40
8574.00,1.40
8573.00,1.40
8572.00,1.40
8571.00,1.40
8570.00,1.39
8569.00,1.39
8568.00,1.39
8567.00,1.39
8566.00,1.39
8565.00,1.39
8564.00,1.39
8563.00,1.38
8562.00,1.38
8561.00,1.38
8560.00,1.38
8559.00,1.38
8558.00,1.38
8557.00,1.37
8556.00,1.37
8555.00,1.37
8554.00,1.37
8553.00,1.37
8552.00,1.37
8551.00,1.37
8550.00,1.37
8549.00,1.37
8548.00,1.37
8547.00,1.37
8546.00,1.37
8545.00,1.37
8544.00,1.37
8543.00,1.37
8542.00,1.38
8541.00,1.38
8540.00,1.38
8539.00,1.38
8538.00,1.38
8537.00,1.38
8536.00,1.38
8535.00,1.37
8534.00,1.37
8533.00,1.37
8532.00,1.37
8531.00,1.37
8530.00,1.37
8529.00,1.37
8528.00,1.37
8527.00,1.36
8526.00,1.36
8525.00,1.36
8524.00,1.36
8523.00,1.36
8522.00,1.36
8521.00,1.35
8520.00,1.35
8519.00,1.35
8518.00,1.35
8517.00,1.35
8516.00,1.35
8515.00,1.35
8514.00,1.35
8513.00,1.35
8512.00,1.35
8511.00,1.35
8510.00,1.35
8509.00,1.35
8508.00,1.35
8507.00,1.35
8506.00,1.35
8505.00,1.35
8504.00,1.35
8503.00,1.35
8502.00,1.35
8501.00,1.36
8500.00,1.36
8499.00,1.36
8498.00,1.36
8497.00,1.36
8496.00,1.36
8495.00,1.36
8494.00,1.36
8493.00,1.36
8492.00,1.36
8491.00,1.36
8490.00,1.36
8489.00,1.36
8488.00,1.36
8487.00,1.36
8486.00,1.36
8485.00,1.36
8484.00,1.35
8483.00,1.35
8482.00,1.35
8481.00,1.35
8480.00,1.35
8479.00,1.35
8478.00,1.34
8477.00,1.34
8476.00,1.34
8475.00,1.34
8474.00,1.34
8473.00,1.33
8472.00,1.33
8471.00,1.33
8470.00,1.33
8469.00,1.33
8468.00,1.33
8467.00,1.32
8466.00,1.32
8465.00,1.32
8464.00,1.32
8463.00,1.32
8462.00,1.32
8461.00,1.32
8460.00,1.32
8459.00,1.32
8458.00,1.32
8457.00,1.32
8456.00,1.32
8455.00,1.32
8454.00,1.32
8453.00,1.32
8452.00,1.32
8451.00,1.33
8450.00,1.33
8449.00,1.33
8448.00,1.33
8447.00,1.33
8446.00,1.33
8445.00,1.33
8444.00,1.33
8443.00,1.33
8442.00,1.34
8441.00,1.34
8440.00,1.34
8439.00,1.34
8438.00,1.34
8437.00,1.34
8436.00,1.34
8435.00,1.34
8434.00,1.34
8433.00,1.34
8432.00,1.33
8431.00,1.33
8430.00,1.33
8429.00,1.33
8428.00,1.33
8427.00,1.33
8426.00,1.33
8425.00,1.33
8424.00,1.33
8423.00,1.33
8422.00,1.33
8421.00,1.33
8420.00,1.33
8419.00,1.33
8418.00,1.33
8417.00,1.33
8416.00,1.33
8415.00,1.33
8414.00,1.33
8413.00,1.33
8412.00,1.33
8411.00,1.33
8410.00,1.33
8409.00,1.33
8408.00,1.33
8407.00,1.33
8406.00,1.33
8405.00,1.34
8404.00,1.34
8403.00,1.34
8402.00,1.34
8401.00,1.34
8400.00,1.34
8399.00,1.34
8398.00,1.34
8397.00,1.34
8396.00,1.34
8395.00,1.34
8394.00,1.34
8393.00,1.34
8392.00,1.34
8391.00,1.34
8390.00,1.34
8389.00,1.34
8388.00,1.35
8387.00,1.35
8386.00,1.35
8385.00,1.35
8384.00,1.35
8383.00,1.35
8382.00,1.35
8381.00,1.35
8380.00,1.35
8379.00,1.35
8378.00,1.35
8377.00,1.35
8376.00,1.35
8375.00,1.35
8374.00,1.35
8373.00,1.35
8372.00,1.35
8371.00,1.35
8370.00,1.35
8369.00,1.36
8368.00,1.36
8367.00,1.36
8366.00,1.36
8365.00,1.36
8364.00,1.36
8363.00,1.36
8362.00,1.36
8361.00,1.36
8360.00,1.36
8359.00,1.36
8358.00,1.36
8357.00,1.36
8356.00,1.36
8355.00,1.36
8354.00,1.36
8353.00,1.36
8352.00,1.35
8351.00,1.35
8350.00,1.35
8349.00,1.35
8348.00,1.35
8347.00,1.35
8346.00,1.35
8345.00,1.35
8344.00,1.35
8343.00,1.36
8342.00,1.36
8341.00,1.36
8340.00,1.36
8339.00,1.36
8338.00,1.37
8337.00,1.37
8336.00,1.37
8335.00,1.37
8334.00,1.38
8333.00,1.38
8332.00,1.38
8331.00,1.38
8330.00,1.38
8329.00,1.38
8328.00,1.38
8327.00,1.38
8326.00,1.38
8325.00,1.38
8324.00,1.38
8323.00,1.38
8322.00,1.38
8321.00,1.38
8320.00,1.38
8319.00,1.38
8318.00,1.38
8317.00,1.38
8316.00,1.38
8315.00,1.38
8314.00,1.38
8313.00,1.38
8312.00,1.38
8311.00,1.38
8310.00,1.38
8309.00,1.38
8308.00,1.38
8307.00,1.38
8306.00,1.38
8305.00,1.38
8304.00,1.38
8303.00,1.38
8302.00,1.38
8301.00,1.38
8300.00,1.38
8299.00,1.39
8298.00,1.39
8297.00,1.39
8296.00,1.39
8295.00,1.39
8294.00,1.39
8293.00,1.39
8292.00,1.39
8291.00,1.40
8290.00,1.40
8289.00,1.40
8288.00,1.40
8287.00,1.40
8286.00,1.40
8285.00,1.40
8284.00,1.40
8283.00,1.40
8282.00,1.40
8281.00,1.41
8280.00,1.41
8279.00,1.41
8278.00,1.41
8277.00,1.41
8276.00,1.41
8275.00,1.41
8274.00,1.41
8273.00,1.41
8272.00,1.41
8271.00,1.41
8270.00,1.41
8269.00,1.41
8268.00,1.41
8267.00,1.41
8266.00,1.41
8265.00,1.41
8264.00,1.41
8263.00,1.41
8262.00,1.41
8261.00,1.41
8260.00,1.41
8259.00,1.41
8258.00,1.41
8257.00,1.41
8256.00,1.41
8255.00,1.41
8254.00,1.41
8253.00,1.41
8252.00,1.41
8251.00,1.41
8250.00,1.41
8249.00,1.41
8248.00,1.41
8247.00,1.41
8246.00,1.41
8245.00,1.41
8244.00,1.41
8243.00,1.41
8242.00,1.41
8241.00,1.41
8240.00,1.41
8239.00,1.41
8238.00,1.41
8237.00,1.41
8236.00,1.42
8235.00,1.42
8234.00,1.42
8233.00,1.42
8232.00,1.42
8231.00,1.42
8230.00,1.42
8229.00,1.43
8228.00,1.43
8227.00,1.43
8226.00,1.43
8225.00,1.43
8224.00,1.43
8223.00,1.43
8222.00,1.43
8221.00,1.43
8220.00,1.43
8219.00,1.43
8218.00,1.42
8217.00,1.42
8216.00,1.42
8215.00,1.42
8214.00,1.42
8213.00,1.42
8212.00,1.41
8211.00,1.41
8210.00,1.41
8209.00,1.41
8208.00,1.41
8207.00,1.41
8206.00,1.41
8205.00,1.41
8204.00,1.41
8203.00,1.41
8202.00,1.41
8201.00,1.41
8200.00,1.41
8199.00,1.41
8198.00,1.41
8197.00,1.41
8196.00,1.41
8195.00,1.42
8194.00,1.42
8193.00,1.42
8192.00,1.42
8191.00,1.42
8190.00,1.42
8189.00,1.42
8188.00,1.42
8187.00,1.42
8186.00,1.42
8185.00,1.42
8184.00,1.42
8183.00,1.43
8182.00,1.43
8181.00,1.43
8180.00,1.43
8179.00,1.43
8178.00,1.43
8177.00,1.43
8176.00,1.43
8175.00,1.44
8174.00,1.44
8173.00,1.44
8172.00,1.44
8171.00,1.44
8170.00,1.44
8169.00,1.44
8168.00,1.45
8167.00,1.45
8166.00,1.45
8165.00,1.45
8164.00,1.45
8163.00,1.45
8162.00,1.45
8161.00,1.45
8160.00,1.44
8159.00,1.44
8158.00,1.44
8157.00,1.44
8156.00,1.44
8155.00,1.44
8154.00,1.44
8153.00,1.44
8152.00,1.44
8151.00,1.44
8150.00,1.44
8149.00,1.44
8148.00,1.44
8147.00,1.44
8146.00,1.44
8145.00,1.44
8144.00,1.44
8143.00,1.44
8142.00,1.44
8141.00,1.44
8140.00,1.44
8139.00,1.44
8138.00,1.44
8137.00,1.44
8136.00,1.44
8135.00,1.44
8134.00,1.44
8133.00,1.44
8132.00,1.44
8131.00,1.44
8130.00,1.44
8129.00,1.44
8128.00,1.45
8127.00,1.45
8126.00,1.45
8125.00,1.45
8124.00,1.45
8123.00,1.46
8122.00,1.46
8121.00,1.46
8120.00,1.46
8119.00,1.47
8118.00,1.47
8117.00,1.47
8116.00,1.47
8115.00,1.47
8114.00,1.47
8113.00,1.47
8112.00,1.47
8111.00,1.47
8110.00,1.47
8109.00,1.47
8108.00,1.47
8107.00,1.47
8106.00,1.47
8105.00,1.47
8104.00,1.47
8103.00,1.47
8102.00,1.47
8101.00,1.47
8100.00,1.46
8099.00,1.46
8098.00,1.46
8097.00,1.46
8096.00,1.46
8095.00,1.46
8094.00,1.45
8093.00,1.45
8092.00,1.45
8091.00,1.45
8090.00,1.45
8089.00,1.45
8088.00,1.45
8087.00,1.45
8086.00,1.45
8085.00,1.45
8084.00,1.45
8083.00,1.45
8082.00,1.45
8081.00,1.46
8080.00,1.46
8079.00,1.46
8078.00,1.46
8077.00,1.46
8076.00,1.47
8075.00,1.47
8074.00,1.47
8073.00,1.47
8072.00,1.47
8071.00,1.47
8070.00,1.48
8069.00,1.48
8068.00,1.48
8067.00,1.48
8066.00,1.48
8065.00,1.48
8064.00,1.48
8063.00,1.48
8062.00,1.48
8061.00,1.48
8060.00,1.48
8059.00,1.48
8058.00,1.48
8057.00,1.48
8056.00,1.48
8055.00,1.48
8054.00,1.48
8053.00,1.48
8052.00,1.48
8051.00,1.48
8050.00,1.48
8049.00,1.48
8048.00,1.48
8047.00,1.47
8046.00,1.47
8045.00,1.47
8044.00,1.47
8043.00,1.47
8042.00,1.47
8041.00,1.47
8040.00,1.47
8039.00,1.47
8038.00,1.46
8037.00,1.46
8036.00,1.46
8035.00,1.46
8034.00,1.46
8033.00,1.46
8032.00,1.46
8031.00,1.46
8030.00,1.46
8029.00,1.46
8028.00,1.46
8027.00,1.46
8026.00,1.46
8025.00,1.46
8024.00,1.46
8023.00,1.46
8022.00,1.46
8021.00,1.46
8020.00,1.47
8019.00,1.47
8018.00,1.47
8017.00,1.47
8016.00,1.47
8015.00,1.48
8014.00,1.48
8013.00,1.48
8012.00,1.48
8011.00,1.48
8010.00,1.48
8009.00,1.49
8008.00,1.49
8007.00,1.49
8006.00,1.49
8005.00,1.49
8004.00,1.49
8003.00,1.49
8002.00,1.49
8001.00,1.48
8000.00,1.48
7999.00,1.48
7998.00,1.48
7997.00,1.48
7996.00,1.48
7995.00,1.48
7994.00,1.48
7993.00,1.48
7992.00,1.48
7991.00,1.47
7990.00,1.48
7989.00,1.48
7988.00,1.48
7987.00,1.48
7986.00,1.48
7985.00,1.48
7984.00,1.48
7983.00,1.48
7982.00,1.48
7981.00,1.48
7980.00,1.48
7979.00,1.48
7978.00,1.48
7977.00,1.48
7976.00,1.49
7975.00,1.49
7974.00,1.49
7973.00,1.49
7972.00,1.49
7971.00,1.49
7970.00,1.49
7969.00,1.49
7968.00,1.49
7967.00,1.49
7966.00,1.49
7965.00,1.49
7964.00,1.49
7963.00,1.49
7962.00,1.49
7961.00,1.49
7960.00,1.49
7959.00,1.49
7958.00,1.49
7957.00,1.49
7956.00,1.49
7955.00,1.49
7954.00,1.49
7953.00,1.49
7952.00,1.49
7951.00,1.49
7950.00,1.49
7949.00,1.49
7948.00,1.49
7947.00,1.49
7946.00,1.49
7945.00,1.49
7944.00,1.49
7943.00,1.49
7942.00,1.49
7941.00,1.49
7940.00,1.49
7939.00,1.49
7938.00,1.49
7937.00,1.49
7936.00,1.49
7935.00,1.49
7934.00,1.50
7933.00,1.50
7932.00,1.50
7931.00,1.50
7930.00,1.50
7929.00,1.50
7928.00,1.50
7927.00,1.50
7926.00,1.50
7925.00,1.50
7924.00,1.50
7923.00,1.50
7922.00,1.50
7921.00,1.50
7920.00,1.50
7919.00,1.50
7918.00,1.50
7917.00,1.50
7916.00,1.50
7915.00,1.50
7914.00,1.50
7913.00,1.50
7912.00,1.50
7911.00,1.50
7910.00,1.50
7909.00,1.50
7908.00,1.50
7907.00,1.50
7906.00,1.50
7905.00,1.50
7904.00,1.50
7903.00,1.50
7902.00,1.50
7901.00,1.50
7900.00,1.50
7899.00,1.50
7898.00,1.50
7897.00,1.51
7896.00,1.51
7895.00,1.51
7894.00,1.51
7893.00,1.51
7892.00,1.51
7891.00,1.51
7890.00,1.51
7889.00,1.51
7888.00,1.51
7887.00,1.51
7886.00,1.51
7885.00,1.51
7884.00,1.51
7883.00,1.52
7882.00,1.52
7881.00,1.52
7880.00,1.52
7879.00,1.51
7878.00,1.51
7877.00,1.51
7876.00,1.51
7875.00,1.51
7874.00,1.51
7873.00,1.51
7872.00,1.51
7871.00,1.51
7870.00,1.51
7869.00,1.51
7868.00,1.51
7867.00,1.51
7866.00,1.50
7865.00,1.50
7864.00,1.50
7863.00,1.50
7862.00,1.50
7861.00,1.50
7860.00,1.50
7859.00,1.50
7858.00,1.50
7857.00,1.50
7856.00,1.50
7855.00,1.50
7854.00,1.50
7853.00,1.50
7852.00,1.50
7851.00,1.50
7850.00,1.50
7849.00,1.50
7848.00,1.50
7847.00,1.50
7846.00,1.50
7845.00,1.50
7844.00,1.50
7843.00,1.50
7842.00,1.50
7841.00,1.50
7840.00,1.51
7839.00,1.51
7838.00,1.51
7837.00,1.51
7836.00,1.51
7835.00,1.51
7834.00,1.51
7833.00,1.52
7832.00,1.52
7831.00,1.52
7830.00,1.52
7829.00,1.52
7828.00,1.52
7827.00,1.52
7826.00,1.52
7825.00,1.52
7824.00,1.52
7823.00,1.52
7822.00,1.52
7821.00,1.52
7820.00,1.52
7819.00,1.52
7818.00,1.52
7817.00,1.52
7816.00,1.52
7815.00,1.52
7814.00,1.52
7813.00,1.52
7812.00,1.52
7811.00,1.51
7810.00,1.51
7809.00,1.51
7808.00,1.51
7807.00,1.51
7806.00,1.51
7805.00,1.51
7804.00,1.51
7803.00,1.51
7802.00,1.51
7801.00,1.51
7800.00,1.51
7799.00,1.51
7798.00,1.51
7797.00,1.51
7796.00,1.52
7795.00,1.52
7794.00,1.52
7793.00,1.52
7792.00,1.52
7791.00,1.52
7790.00,1.52
7789.00,1.52
7788.00,1.52
7787.00,1.52
7786.00,1.52
7785.00,1.52
7784.00,1.52
7783.00,1.52
7782.00,1.52
7781.00,1.52
7780.00,1.52
7779.00,1.52
7778.00,1.52
7777.00,1.52
7776.00,1.52
7775.00,1.52
7774.00,1.52
7773.00,1.52
7772.00,1.52
7771.00,1.52
7770.00,1.52
7769.00,1.52
7768.00,1.52
7767.00,1.52
7766.00,1.52
7765.00,1.53
7764.00,1.53
7763.00,1.53
7762.00,1.53
7761.00,1.53
7760.00,1.53
7759.00,1.53
7758.00,1.53
7757.00,1.53
7756.00,1.53
7755.00,1.53
7754.00,1.53
7753.00,1.53
7752.00,1.53
7751.00,1.53
7750.00,1.53
7749.00,1.53
7748.00,1.53
7747.00,1.53
7746.00,1.53
7745.00,1.53
7744.00,1.53
7743.00,1.53
7742.00,1.53
7741.00,1.53
7740.00,1.52
7739.00,1.52
7738.00,1.52
7737.00,1.52
7736.00,1.52
7735.00,1.52
7734.00,1.52
7733.00,1.52
7732.00,1.52
7731.00,1.52
7730.00,1.52
7729.00,1.52
7728.00,1.52
7727.00,1.52
7726.00,1.52
7725.00,1.52
7724.00,1.52
7723.00,1.53
7722.00,1.53
7721.00,1.53
7720.00,1.53
7719.00,1.53
7718.00,1.53
7717.00,1.53
7716.00,1.53
7715.00,1.53
7714.00,1.53
7713.00,1.53
7712.00,1.53
7711.00,1.53
7710.00,1.53
7709.00,1.53
7708.00,1.53
7707.00,1.53
7706.00,1.53
7705.00,1.53
7704.00,1.53
7703.00,1.53
7702.00,1.53
7701.00,1.53
7700.00,1.53
7699.00,1.53
7698.00,1.53
7697.00,1.53
7696.00,1.53
7695.00,1.53
7694.00,1.53
7693.00,1.53
7692.00,1.53
7691.00,1.53
7690.00,1.53
7689.00,1.53
7688.00,1.53
7687.00,1.53
7686.00,1.53
7685.00,1.53
7684.00,1.53
7683.00,1.53
7682.00,1.53
7681.00,1.53
7680.00,1.53
7679.00,1.52
7678.00,1.52
7677.00,1.52
7676.00,1.52
7675.00,1.52
7674.00,1.52
7673.00,1.52
7672.00,1.52
7671.00,1.52
7670.00,1.52
7669.00,1.52
7668.00,1.52
7667.00,1.52
7666.00,1.52
7665.00,1.52
7664.00,1.52
7663.00,1.52
7662.00,1.52
7661.00,1.52
7660.00,1.52
7659.00,1.52
7658.00,1.52
7657.00,1.52
7656.00,1.52
7655.00,1.52
7654.00,1.52
7653.00,1.52
7652.00,1.52
7651.00,1.52
7650.00,1.53
7649.00,1.53
7648.00,1.53
7647.00,1.53
7646.00,1.53
7645.00,1.53
7644.00,1.53
7643.00,1.53
7642.00,1.53
7641.00,1.53
7640.00,1.53
7639.00,1.53
7638.00,1.53
7637.00,1.53
7636.00,1.53
7635.00,1.53
7634.00,1.53
7633.00,1.53
7632.00,1.53
7631.00,1.53
7630.00,1.53
7629.00,1.53
7628.00,1.53
7627.00,1.53
7626.00,1.53
7625.00,1.53
7624.00,1.53
7623.00,1.53
7622.00,1.53
7621.00,1.53
7620.00,1.53
7619.00,1.53
7618.00,1.53
7617.00,1.53
7616.00,1.53
7615.00,1.53
7614.00,1.53
7613.00,1.53
7612.00,1.53
7611.00,1.53
7610.00,1.53
7609.00,1.53
7608.00,1.53
7607.00,1.53
7606.00,1.53
7605.00,1.53
7604.00,1.52
7603.00,1.52
7602.00,1.52
7601.00,1.52
7600.00,1.52
7599.00,1.52
7598.00,1.52
7597.00,1.52
7596.00,1.52
7595.00,1.52
7594.00,1.52
7593.00,1.52
7592.00,1.52
7591.00,1.52
7590.00,1.52
7589.00,1.52
7588.00,1.52
7587.00,1.52
7586.00,1.52
7585.00,1.52
7584.00,1.52
7583.00,1.52
7582.00,1.52
7581.00,1.52
7580.00,1.52
7579.00,1.51
7578.00,1.51
7577.00,1.51
7576.00,1.51
7575.00,1.51
7574.00,1.51
7573.00,1.51
7572.00,1.51
7571.00,1.51
7570.00,1.51
7569.00,1.51
7568.00,1.50
7567.00,1.50
7566.00,1.50
7565.00,1.50
7564.00,1.50
7563.00,1.50
7562.00,1.50
7561.00,1.50
7560.00,1.50
7559.00,1.50
7558.00,1.49
7557.00,1.49
7556.00,1.49
7555.00,1.49
7554.00,1.49
7553.00,1.49
7552.00,1.49
7551.00,1.49
7550.00,1.49
7549.00,1.49
7548.00,1.49
7547.00,1.49
7546.00,1.49
7545.00,1.49
7544.00,1.49
7543.00,1.49
7542.00,1.49
7541.00,1.49
7540.00,1.49
7539.00,1.49
7538.00,1.49
7537.00,1.49
7536.00,1.49
7535.00,1.49
7534.00,1.49
7533.00,1.49
7532.00,1.49
7531.00,1.49
7530.00,1.49
7529.00,1.49
7528.00,1.49
7527.00,1.49
7526.00,1.49
7525.00,1.49
7524.00,1.49
7523.00,1.49
7522.00,1.49
7521.00,1.49
7520.00,1.49
7519.00,1.48
7518.00,1.48
7517.00,1.48
7516.00,1.48
7515.00,1.48
7514.00,1.48
7513.00,1.48
7512.00,1.48
7511.00,1.47
7510.00,1.47
7509.00,1.47
7508.00,1.47
7507.00,1.47
7506.00,1.47
7505.00,1.47
7504.00,1.47
7503.00,1.47
7502.00,1.47
7501.00,1.47
7500.00,1.47
7499.00,1.47
7498.00,1.47
7497.00,1.46
7496.00,1.46
7495.00,1.46
7494.00,1.46
7493.00,1.46
7492.00,1.46
7491.00,1.46
7490.00,1.46
7489.00,1.46
7488.00,1.46
7487.00,1.46
7486.00,1.46
7485.00,1.46
7484.00,1.46
7483.00,1.46
7482.00,1.46
7481.00,1.46
7480.00,1.46
7479.00,1.46
7478.00,1.46
7477.00,1.46
7476.00,1.46
7475.00,1.46
7474.00,1.46
7473.00,1.45
7472.00,1.45
7471.00,1.45
7470.00,1.45
7469.00,1.45
7468.00,1.45
7467.00,1.45
7466.00,1.45
7465.00,1.45
7464.00,1.44
7463.00,1.44
7462.00,1.44
7461.00,1.44
7460.00,1.44
7459.00,1.44
7458.00,1.44
7457.00,1.44
7456.00,1.44
7455.00,1.44
7454.00,1.44
7453.00,1.44
7452.00,1.44
7451.00,1.44
7450.00,1.44
7449.00,1.44
7448.00,1.44
7447.00,1.44
7446.00,1.44
7445.00,1.43
7444.00,1.43
7443.00,1.43
7442.00,1.43
7441.00,1.43
7440.00,1.43
7439.00,1.43
7438.00,1.43
7437.00,1.42
7436.00,1.42
7435.00,1.42
7434.00,1.42
7433.00,1.42
7432.00,1.42
7431.00,1.42
7430.00,1.42
7429.00,1.42
7428.00,1.41
7427.00,1.41
7426.00,1.41
7425.00,1.41
7424.00,1.41
7423.00,1.41
7422.00,1.41
7421.00,1.41
7420.00,1.41
7419.00,1.41
7418.00,1.41
7417.00,1.41
7416.00,1.41
7415.00,1.41
7414.00,1.41
7413.00,1.41
7412.00,1.41
7411.00,1.40
7410.00,1.40
7409.00,1.40
7408.00,1.40
7407.00,1.40
7406.00,1.40
7405.00,1.39
7404.00,1.39
7403.00,1.39
7402.00,1.39
7401.00,1.39
7400.00,1.38
7399.00,1.38
7398.00,1.38
7397.00,1.38
7396.00,1.38
7395.00,1.38
7394.00,1.38
7393.00,1.38
7392.00,1.37
7391.00,1.37
7390.00,1.37
7389.00,1.37
7388.00,1.37
7387.00,1.37
7386.00,1.37
7385.00,1.37
7384.00,1.37
7383.00,1.37
7382.00,1.37
7381.00,1.37
7380.00,1.37
7379.00,1.36
7378.00,1.36
7377.00,1.36
7376.00,1.36
7375.00,1.36
7374.00,1.36
7373.00,1.36
7372.00,1.36
7371.00,1.36
7370.00,1.36
7369.00,1.36
7368.00,1.36
7367.00,1.36
7366.00,1.36
7365.00,1.35
7364.00,1.35
7363.00,1.35
7362.00,1.35
7361.00,1.35
7360.00,1.35
7359.00,1.35
7358.00,1.35
7357.00,1.35
7356.00,1.35
7355.00,1.35
7354.00,1.35
7353.00,1.35
7352.00,1.34
7351.00,1.34
7350.00,1.34
7349.00,1.34
7348.00,1.34
7347.00,1.34
7346.00,1.34
7345.00,1.34
7344.00,1.34
7343.00,1.34
7342.00,1.34
7341.00,1.34
7340.00,1.34
7339.00,1.34
7338.00,1.34
7337.00,1.34
7336.00,1.34
7335.00,1.35
7334.00,1.35
7333.00,1.35
7332.00,1.35
7331.00,1.35
7330.00,1.35
7329.00,1.35
7328.00,1.35
7327.00,1.35
7326.00,1.34
7325.00,1.34
7324.00,1.34
7323.00,1.34
7322.00,1.34
7321.00,1.34
7320.00,1.34
7319.00,1.34
7318.00,1.34
7317.00,1.34
7316.00,1.34
7315.00,1.33
7314.00,1.33
7313.00,1.33
7312.00,1.33
7311.00,1.33
7310.00,1.33
7309.00,1.33
7308.00,1.32
7307.00,1.32
7306.00,1.32
7305.00,1.32
7304.00,1.32
7303.00,1.31
7302.00,1.31
7301.00,1.31
7300.00,1.31
7299.00,1.31
7298.00,1.31
7297.00,1.30
7296.00,1.30
7295.00,1.30
7294.00,1.30
7293.00,1.30
7292.00,1.30
7291.00,1.29
7290.00,1.29
7289.00,1.29
7288.00,1.29
7287.00,1.29
7286.00,1.29
7285.00,1.29
7284.00,1.29
7283.00,1.29
7282.00,1.28
7281.00,1.28
7280.00,1.28
7279.00,1.28
7278.00,1.28
7277.00,1.28
7276.00,1.28
7275.00,1.28
7274.00,1.27
7273.00,1.27
7272.00,1.27
7271.00,1.27
7270.00,1.27
7269.00,1.27
7268.00,1.27
7267.00,1.26
7266.00,1.26
7265.00,1.26
7264.00,1.26
7263.00,1.26
7262.00,1.26
7261.00,1.25
7260.00,1.25
7259.00,1.25
7258.00,1.25
7257.00,1.25
7256.00,1.24
7255.00,1.24
7254.00,1.24
7253.00,1.23
7252.00,1.23
7251.00,1.23
7250.00,1.22
7249.00,1.22
7248.00,1.22
7247.00,1.21
7246.00,1.21
7245.00,1.21
7244.00,1.20
7243.00,1.20
7242.00,1.20
7241.00,1.19
7240.00,1.19
7239.00,1.19
7238.00,1.19
7237.00,1.18
7236.00,1.18
7235.00,1.18
7234.00,1.18
7233.00,1.17
7232.00,1.17
7231.00,1.17
7230.00,1.17
7229.00,1.16
7228.00,1.16
7227.00,1.16
7226.00,1.15
7225.00,1.15
7224.00,1.14
7223.00,1.14
7222.00,1.13
7221.00,1.13
7220.00,1.13
7219.00,1.12
7218.00,1.11
7217.00,1.11
7216.00,1.10
7215.00,1.10
7214.00,1.09
7213.00,1.09
7212.00,1.08
7211.00,1.08
7210.00,1.07
7209.00,1.07
7208.00,1.06
7207.00,1.06
7206.00,1.05
7205.00,1.05
7204.00,1.05
7203.00,1.04
7202.00,1.04
7201.00,1.03
7200.00,1.03
7199.00,1.03
7198.00,1.02
7197.00,1.02
7196.00,1.02
7195.00,1.01
7194.00,1.01
7193.00,1.01
7192.00,1.00
7191.00,1.00
7190.00,0.99
7189.00,0.99
7188.00,0.99
7187.00,0.98
7186.00,0.98
7185.00,0.97
7184.00,0.97
7183.00,0.96
7182.00,0.95
7181.00,0.95
7180.00,0.94
7179.00,0.94
7178.00,0.94
7177.00,0.93
7176.00,0.93
7175.00,0.92
7174.00,0.92
7173.00,0.92
7172.00,0.92
7171.00,0.91
7170.00,0.91
7169.00,0.91
7168.00,0.91
7167.00,0.91
7166.00,0.91
7165.00,0.90
7164.00,0.90
7163.00,0.90
7162.00,0.90
7161.00,0.89
7160.00,0.89
7159.00,0.89
7158.00,0.89
7157.00,0.88
7156.00,0.88
7155.00,0.88
7154.00,0.88
7153.00,0.87
7152.00,0.87
7151.00,0.87
7150.00,0.86
7149.00,0.86
7148.00,0.86
7147.00,0.86
7146.00,0.85
7145.00,0.85
7144.00,0.85
7143.00,0.84
7142.00,0.84
7141.00,0.84
7140.00,0.84
7139.00,0.83
7138.00,0.83
7137.00,0.83
7136.00,0.83
7135.00,0.82
7134.00,0.82
7133.00,0.82
7132.00,0.82
7131.00,0.82
7130.00,0.82
7129.00,0.82
7128.00,0.82
7127.00,0.81
7126.00,0.81
7125.00,0.81
7124.00,0.81
7123.00,0.81
7122.00,0.81
7121.00,0.81
7120.00,0.81
7119.00,0.80
7118.00,0.80
7117.00,0.80
7116.00,0.80
7115.00,0.80
7114.00,0.79
7113.00,0.79
7112.00,0.79
7111.00,0.78
7110.00,0.78
7109.00,0.78
7108.00,0.78
7107.00,0.77
7106.00,0.77
7105.00,0.77
7104.00,0.77
7103.00,0.77
7102.00,0.76
7101.00,0.76
7100.00,0.76
7099.00,0.76
7098.00,0.76
7097.00,0.76
7096.00,0.76
7095.00,0.76
7094.00,0.75
7093.00,0.75
7092.00,0.75
7091.00,0.75
7090.00,0.75
7089.00,0.75
7088.00,0.75
7087.00,0.75
7086.00,0.75
7085.00,0.75
7084.00,0.75
7083.00,0.74
7082.00,0.74
7081.00,0.74
7080.00,0.74
7079.00,0.74
7078.00,0.74
7077.00,0.74
7076.00,0.74
7075.00,0.74
7074.00,0.74
7073.00,0.74
7072.00,0.74
7071.00,0.74
7070.00,0.74
7069.00,0.74
7068.00,0.74
7067.00,0.74
7066.00,0.74
7065.00,0.74
7064.00,0.74
7063.00,0.74
7062.00,0.74
7061.00,0.74
7060.00,0.74
7059.00,0.73
7058.00,0.73
7057.00,0.73
7056.00,0.73
7055.00,0.73
7054.00,0.73
7053.00,0.73
7052.00,0.72
7051.00,0.72
7050.00,0.72
7049.00,0.72
7048.00,0.72
7047.00,0.72
7046.00,0.72
7045.00,0.72
7044.00,0.72
7043.00,0.72
7042.00,0.72
7041.00,0.72
7040.00,0.72
7039.00,0.72
7038.00,0.72
7037.00,0.72
7036.00,0.72
7035.00,0.72
7034.00,0.72
7033.00,0.72
7032.00,0.72
7031.00,0.72
7030.00,0.72
7029.00,0.72
7028.00,0.72
7027.00,0.72
7026.00,0.72
7025.00,0.72
7024.00,0.72
7023.00,0.72
7022.00,0.72
7021.00,0.72
7020.00,0.72
7019.00,0.72
7018.00,0.72
7017.00,0.71
7016.00,0.71
7015.00,0.71
7014.00,0.71
7013.00,0.71
7012.00,0.71
7011.00,0.71
7010.00,0.71
7009.00,0.71
7008.00,0.71
7007.00,0.71
7006.00,0.71
7005.00,0.71
7004.00,0.71
7003.00,0.71
7002.00,0.71
7001.00,0.71
7000.00,0.71
6999.00,0.71
6998.00,0.71
6997.00,0.71
6996.00,0.72
6995.00,0.72
6994.00,0.72
6993.00,0.72
6992.00,0.72
6991.00,0.72
6990.00,0.72
6989.00,0.72
6988.00,0.72
6987.00,0.72
6986.00,0.72
6985.00,0.72
6984.00,0.72
6983.00,0.72
6982.00,0.72
6981.00,0.72
6980.00,0.72
6979.00,0.72
6978.00,0.72
6977.00,0.72
6976.00,0.72
6975.00,0.72
6974.00,0.72
6973.00,0.72
6972.00,0.72
6971.00,0.72
6970.00,0.72
6969.00,0.72
6968.00,0.72
6967.00,0.72
6966.00,0.72
6965.00,0.72
6964.00,0.72
6963.00,0.72
6962.00,0.72
6961.00,0.71
6960.00,0.71
6959.00,0.71
6958.00,0.71
6957.00,0.71
6956.00,0.71
6955.00,0.71
6954.00,0.71
6953.00,0.71
6952.00,0.71
6951.00,0.71
6950.00,0.71
6949.00,0.71
6948.00,0.71
6947.00,0.71
6946.00,0.71
6945.00,0.71
6944.00,0.71
6943.00,0.71
6942.00,0.70
6941.00,0.70
6940.00,0.70
6939.00,0.70
6938.00,0.70
6937.00,0.70
6936.00,0.70
6935.00,0.70
6934.00,0.70
6933.00,0.70
6932.00,0.70
6931.00,0.70
6930.00,0.70
6929.00,0.70
6928.00,0.70
6927.00,0.70
6926.00,0.70
6925.00,0.70
6924.00,0.70
6923.00,0.71
6922.00,0.71
6921.00,0.71
6920.00,0.71
6919.00,0.71
6918.00,0.71
6917.00,0.71
6916.00,0.71
6915.00,0.71
6914.00,0.71
6913.00,0.71
6912.00,0.71
6911.00,0.71
6910.00,0.71
6909.00,0.71
6908.00,0.71
6907.00,0.71
6906.00,0.71
6905.00,0.71
6904.00,0.71
6903.00,0.71
6902.00,0.71
6901.00,0.71
6900.00,0.71
6899.00,0.71
6898.00,0.71
6897.00,0.71
6896.00,0.71
6895.00,0.71
6894.00,0.71
6893.00,0.71
6892.00,0.71
6891.00,0.71
6890.00,0.71
6889.00,0.71
6888.00,0.71
6887.00,0.71
6886.00,0.71
6885.00,0.71
6884.00,0.72
6883.00,0.72
6882.00,0.72
6881.00,0.72
6880.00,0.72
6879.00,0.72
6878.00,0.72
6877.00,0.72
6876.00,0.72
6875.00,0.72
6874.00,0.72
6873.00,0.72
6872.00,0.72
6871.00,0.72
6870.00,0.72
6869.00,0.72
6868.00,0.72
6867.00,0.72
6866.00,0.73
6865.00,0.73
6864.00,0.73
6863.00,0.73
6862.00,0.73
6861.00,0.73
6860.00,0.73
6859.00,0.73
6858.00,0.73
6857.00,0.73
6856.00,0.72
6855.00,0.72
6854.00,0.72
6853.00,0.72
6852.00,0.72
6851.00,0.72
6850.00,0.72
6849.00,0.72
6848.00,0.72
6847.00,0.72
6846.00,0.72
6845.00,0.72
6844.00,0.72
6843.00,0.72
6842.00,0.72
6841.00,0.72
6840.00,0.72
6839.00,0.73
6838.00,0.73
6837.00,0.73
6836.00,0.73
6835.00,0.73
6834.00,0.73
6833.00,0.73
6832.00,0.73
6831.00,0.73
6830.00,0.73
6829.00,0.73
6828.00,0.73
6827.00,0.73
6826.00,0.73
6825.00,0.74
6824.00,0.74
6823.00,0.74
6822.00,0.74
6821.00,0.74
6820.00,0.74
6819.00,0.74
6818.00,0.74
6817.00,0.74
6816.00,0.74
6815.00,0.74
6814.00,0.74
6813.00,0.74
6812.00,0.74
6811.00,0.74
6810.00,0.74
6809.00,0.74
6808.00,0.74
6807.00,0.74
6806.00,0.74
6805.00,0.74
6804.00,0.74
6803.00,0.74
6802.00,0.74
6801.00,0.74
6800.00,0.74
6799.00,0.74
6798.00,0.74
6797.00,0.74
6796.00,0.74
6795.00,0.74
6794.00,0.74
6793.00,0.74
6792.00,0.74
6791.00,0.74
6790.00,0.74
6789.00,0.74
6788.00,0.74
6787.00,0.74
6786.00,0.74
6785.00,0.74
6784.00,0.74
6783.00,0.74
6782.00,0.74
6781.00,0.74
6780.00,0.74
6779.00,0.74
6778.00,0.74
6777.00,0.74
6776.00,0.74
6775.00,0.74
6774.00,0.74
6773.00,0.74
6772.00,0.74
6771.00,0.75
6770.00,0.75
6769.00,0.75
6768.00,0.75
6767.00,0.75
6766.00,0.75
6765.00,0.75
6764.00,0.75
6763.00,0.75
6762.00,0.75
6761.00,0.75
6760.00,0.75
6759.00,0.75
6758.00,0.75
6757.00,0.75
6756.00,0.75
6755.00,0.75
6754.00,0.75
6753.00,0.75
6752.00,0.75
6751.00,0.75
6750.00,0.75
6749.00,0.75
6748.00,0.75
6747.00,0.75
6746.00,0.75
6745.00,0.76
6744.00,0.76
6743.00,0.76
6742.00,0.76
6741.00,0.76
6740.00,0.76
6739.00,0.76
6738.00,0.76
6737.00,0.76
6736.00,0.76
6735.00,0.76
6734.00,0.76
6733.00,0.76
6732.00,0.76
6731.00,0.76
6730.00,0.76
6729.00,0.76
6728.00,0.76
6727.00,0.76
6726.00,0.76
6725.00,0.76
6724.00,0.76
6723.00,0.77
6722.00,0.77
6721.00,0.77
6720.00,0.77
6719.00,0.77
6718.00,0.77
6717.00,0.77
6716.00,0.77
6715.00,0.77
6714.00,0.77
6713.00,0.77
6712.00,0.77
6711.00,0.77
6710.00,0.77
6709.00,0.77
6708.00,0.77
6707.00,0.77
6706.00,0.77
6705.00,0.77
6704.00,0.77
6703.00,0.77
6702.00,0.77
6701.00,0.77
6700.00,0.77
6699.00,0.77
6698.00,0.77
6697.00,0.77
6696.00,0.77
6695.00,0.77
6694.00,0.77
6693.00,0.77
6692.00,0.77
6691.00,0.77
6690.00,0.78
6689.00,0.78
6688.00,0.78
6687.00,0.78
6686.00,0.78
6685.00,0.78
6684.00,0.78
6683.00,0.78
6682.00,0.78
6681.00,0.78
6680.00,0.78
6679.00,0.78
6678.00,0.78
6677.00,0.78
6676.00,0.78
6675.00,0.78
6674.00,0.78
6673.00,0.78
6672.00,0.78
6671.00,0.78
6670.00,0.78
6669.00,0.79
6668.00,0.79
6667.00,0.79
6666.00,0.79
6665.00,0.79
6664.00,0.79
6663.00,0.79
6662.00,0.80
6661.00,0.80
6660.00,0.80
6659.00,0.80
6658.00,0.80
6657.00,0.80
6656.00,0.80
6655.00,0.81
6654.00,0.81
6653.00,0.81
6652.00,0.81
6651.00,0.81
6650.00,0.81
6649.00,0.81
6648.00,0.81
6647.00,0.81
6646.00,0.81
6645.00,0.81
6644.00,0.81
6643.00,0.81
6642.00,0.81
6641.00,0.81
6640.00,0.81
6639.00,0.81
6638.00,0.81
6637.00,0.81
6636.00,0.81
6635.00,0.81
6634.00,0.81
6633.00,0.82
6632.00,0.82
6631.00,0.82
6630.00,0.82
6629.00,0.82
6628.00,0.82
6627.00,0.82
6626.00,0.82
6625.00,0.82
6624.00,0.82
6623.00,0.82
6622.00,0.82
6621.00,0.82
6620.00,0.82
6619.00,0.82
6618.00,0.83
6617.00,0.83
6616.00,0.83
6615.00,0.83
6614.00,0.83
6613.00,0.83
6612.00,0.83
6611.00,0.84
6610.00,0.84
6609.00,0.84
6608.00,0.84
6607.00,0.84
6606.00,0.84
6605.00,0.84
6604.00,0.84
6603.00,0.84
6602.00,0.84
6601.00,0.85
6600.00,0.85
6599.00,0.85
6598.00,0.85
6597.00,0.85
6596.00,0.85
6595.00,0.85
6594.00,0.85
6593.00,0.85
6592.00,0.85
6591.00,0.85
6590.00,0.85
6589.00,0.85
6588.00,0.85
6587.00,0.85
6586.00,0.85
6585.00,0.85
6584.00,0.85
6583.00,0.85
6582.00,0.85
6581.00,0.85
6580.00,0.85
6579.00,0.85
6578.00,0.85
6577.00,0.85
6576.00,0.85
6575.00,0.85
6574.00,0.86
6573.00,0.86
6572.00,0.86
6571.00,0.86
6570.00,0.86
6569.00,0.86
6568.00,0.86
6567.00,0.86
6566.00,0.87
6565.00,0.87
6564.00,0.87
6563.00,0.87
6562.00,0.87
6561.00,0.87
6560.00,0.87
6559.00,0.87
6558.00,0.88
6557.00,0.88
6556.00,0.88
6555.00,0.88
6554.00,0.88
6553.00,0.88
6552.00,0.88
6551.00,0.88
6550.00,0.88
6549.00,0.88
6548.00,0.88
6547.00,0.88
6546.00,0.88
6545.00,0.88
6544.00,0.89
6543.00,0.89
6542.00,0.89
6541.00,0.89
6540.00,0.89
6539.00,0.89
6538.00,0.89
6537.00,0.89
6536.00,0.90
6535.00,0.90
6534.00,0.90
6533.00,0.90
6532.00,0.90
6531.00,0.90
6530.00,0.91
6529.00,0.91
6528.00,0.91
6527.00,0.91
6526.00,0.91
6525.00,0.91
6524.00,0.91
6523.00,0.91
6522.00,0.91
6521.00,0.91
6520.00,0.91
6519.00,0.91
6518.00,0.91
6517.00,0.92
6516.00,0.92
6515.00,0.92
6514.00,0.92
6513.00,0.92
6512.00,0.92
6511.00,0.92
6510.00,0.92
6509.00,0.92
6508.00,0.92
6507.00,0.92
6506.00,0.92
6505.00,0.92
6504.00,0.92
6503.00,0.92
6502.00,0.92
6501.00,0.92
6500.00,0.92
6499.00,0.92
6498.00,0.93
6497.00,0.93
6496.00,0.93
6495.00,0.93
6494.00,0.93
6493.00,0.93
6492.00,0.93
6491.00,0.93
6490.00,0.93
6489.00,0.93
6488.00,0.93
6487.00,0.93
6486.00,0.93
6485.00,0.93
6484.00,0.93
6483.00,0.93
6482.00,0.93
6481.00,0.93
6480.00,0.93
6479.00,0.93
6478.00,0.93
6477.00,0.94
6476.00,0.94
6475.00,0.94
6474.00,0.94
6473.00,0.94
6472.00,0.94
6471.00,0.94
6470.00,0.94
6469.00,0.95
6468.00,0.95
6467.00,0.95
6466.00,0.95
6465.00,0.95
6464.00,0.95
6463.00,0.95
6462.00,0.95
6461.00,0.96
6460.00,0.96
6459.00,0.96
6458.00,0.96
6457.00,0.96
6456.00,0.96
6455.00,0.96
6454.00,0.96
6453.00,0.96
6452.00,0.96
6451.00,0.96
6450.00,0.96
6449.00,0.97
6448.00,0.97
6447.00,0.97
6446.00,0.97
6445.00,0.97
6444.00,0.97
6443.00,0.97
6442.00,0.97
6441.00,0.97
6440.00,0.97
6439.00,0.97
6438.00,0.97
6437.00,0.97
6436.00,0.97
6435.00,0.97
6434.00,0.97
6433.00,0.97
6432.00,0.97
6431.00,0.97
6430.00,0.98
6429.00,0.98
6428.00,0.98
6427.00,0.98
6426.00,0.98
6425.00,0.98
6424.00,0.98
6423.00,0.98
6422.00,0.98
6421.00,0.98
6420.00,0.98
6419.00,0.98
6418.00,0.98
6417.00,0.98
6416.00,0.99
6415.00,0.99
6414.00,0.99
6413.00,0.99
6412.00,0.99
6411.00,0.99
6410.00,0.99
6409.00,0.99
6408.00,0.99
6407.00,0.99
6406.00,0.99
6405.00,0.99
6404.00,0.99
6403.00,0.99
6402.00,0.99
6401.00,1.00
6400.00,1.00
6399.00,1.00
6398.00,1.00
6397.00,1.01
6396.00,1.01
6395.00,1.01
6394.00,1.01
6393.00,1.01
6392.00,1.01
6391.00,1.02
6390.00,1.02
6389.00,1.02
6388.00,1.02
6387.00,1.02
6386.00,1.02
6385.00,1.02
6384.00,1.02
6383.00,1.02
6382.00,1.02
6381.00,1.02
6380.00,1.02
6379.00,1.02
6378.00,1.02
6377.00,1.02
6376.00,1.02
6375.00,1.02
6374.00,1.03
6373.00,1.03
6372.00,1.03
6371.00,1.03
6370.00,1.03
6369.00,1.03
6368.00,1.03
6367.00,1.03
6366.00,1.04
6365.00,1.04
6364.00,1.04
6363.00,1.04
6362.00,1.04
6361.00,1.04
6360.00,1.04
6359.00,1.04
6358.00,1.05
6357.00,1.05
6356.00,1.05
6355.00,1.05
6354.00,1.05
6353.00,1.05
6352.00,1.05
6351.00,1.05
6350.00,1.05
6349.00,1.05
6348.00,1.05
6347.00,1.05
6346.00,1.05
6345.00,1.05
6344.00,1.06
6343.00,1.06
6342.00,1.06
6341.00,1.06
6340.00,1.06
6339.00,1.06
6338.00,1.06
6337.00,1.06
6336.00,1.06
6335.00,1.06
6334.00,1.07
6333.00,1.07
6332.00,1.07
6331.00,1.07
6330.00,1.07
6329.00,1.07
6328.00,1.07
6327.00,1.07
6326.00,1.08
6325.00,1.08
6324.00,1.08
6323.00,1.08
6322.00,1.08
6321.00,1.08
6320.00,1.09
6319.00,1.09
6318.00,1.09
6317.00,1.09
6316.00,1.09
6315.00,1.09
6314.00,1.09
6313.00,1.10
6312.00,1.10
6311.00,1.10
6310.00,1.10
6309.00,1.10
6308.00,1.10
6307.00,1.10
6306.00,1.11
6305.00,1.11
6304.00,1.11
6303.00,1.11
6302.00,1.11
6301.00,1.11
6300.00,1.11
6299.00,1.11
6298.00,1.12
6297.00,1.12
6296.00,1.12
6295.00,1.12
6294.00,1.12
6293.00,1.12
6292.00,1.12
6291.00,1.12
6290.00,1.12
6289.00,1.12
6288.00,1.12
6287.00,1.12
6286.00,1.12
6285.00,1.13
6284.00,1.13
6283.00,1.13
6282.00,1.13
6281.00,1.13
6280.00,1.13
6279.00,1.13
6278.00,1.13
6277.00,1.14
6276.00,1.14
6275.00,1.14
6274.00,1.14
6273.00,1.14
6272.00,1.14
6271.00,1.14
6270.00,1.15
6269.00,1.15
6268.00,1.15
6267.00,1.15
6266.00,1.15
6265.00,1.15
6264.00,1.16
6263.00,1.16
6262.00,1.16
6261.00,1.16
6260.00,1.16
6259.00,1.17
6258.00,1.17
6257.00,1.17
6256.00,1.17
6255.00,1.17
6254.00,1.17
6253.00,1.18
6252.00,1.18
6251.00,1.18
6250.00,1.18
6249.00,1.18
6248.00,1.18
6247.00,1.18
6246.00,1.18
6245.00,1.18
6244.00,1.18
6243.00,1.18
6242.00,1.19
6241.00,1.19
6240.00,1.19
6239.00,1.19
6238.00,1.19
6237.00,1.19
6236.00,1.19
6235.00,1.19
6234.00,1.19
6233.00,1.19
6232.00,1.19
6231.00,1.19
6230.00,1.19
6229.00,1.19
6228.00,1.19
6227.00,1.20
6226.00,1.20
6225.00,1.20
6224.00,1.20
6223.00,1.20
6222.00,1.20
6221.00,1.21
6220.00,1.21
6219.00,1.21
6218.00,1.21
6217.00,1.22
6216.00,1.22
6215.00,1.22
6214.00,1.22
6213.00,1.23
6212.00,1.23
6211.00,1.23
6210.00,1.23
6209.00,1.23
6208.00,1.24
6207.00,1.24
6206.00,1.24
6205.00,1.24
6204.00,1.24
6203.00,1.24
6202.00,1.24
6201.00,1.24
6200.00,1.24
6199.00,1.24
6198.00,1.24
6197.00,1.24
6196.00,1.25
6195.00,1.25
6194.00,1.25
6193.00,1.25
6192.00,1.25
6191.00,1.25
6190.00,1.25
6189.00,1.25
6188.00,1.25
6187.00,1.25
6186.00,1.25
6185.00,1.25
6184.00,1.26
6183.00,1.26
6182.00,1.26
6181.00,1.26
6180.00,1.26
6179.00,1.26
6178.00,1.26
6177.00,1.27
6176.00,1.27
6175.00,1.27
6174.00,1.27
6173.00,1.27
6172.00,1.27
6171.00,1.27
6170.00,1.27
6169.00,1.28
6168.00,1.28
6167.00,1.28
6166.00,1.28
6165.00,1.28
6164.00,1.28
6163.00,1.29
6162.00,1.29
6161.00,1.29
6160.00,1.29
6159.00,1.30
6158.00,1.30
6157.00,1.30
6156.00,1.30
6155.00,1.30
6154.00,1.31
6153.00,1.31
6152.00,1.31
6151.00,1.31
6150.00,1.31
6149.00,1.32
6148.00,1.32
6147.00,1.32
6146.00,1.32
6145.00,1.32
6144.00,1.32
6143.00,1.33
6142.00,1.33
6141.00,1.33
6140.00,1.33
6139.00,1.33
6138.00,1.33
6137.00,1.33
6136.00,1.33
6135.00,1.33
6134.00,1.34
6133.00,1.34
6132.00,1.34
6131.00,1.34
6130.00,1.34
6129.00,1.34
6128.00,1.34
6127.00,1.34
6126.00,1.35
6125.00,1.35
6124.00,1.35
6123.00,1.35
6122.00,1.35
6121.00,1.35
6120.00,1.35
6119.00,1.35
6118.00,1.36
6117.00,1.36
6116.00,1.36
6115.00,1.36
6114.00,1.36
6113.00,1.36
6112.00,1.36
6111.00,1.36
6110.00,1.36
6109.00,1.37
6108.00,1.37
6107.00,1.37
6106.00,1.37
6105.00,1.37
6104.00,1.37
6103.00,1.37
6102.00,1.38
6101.00,1.38
6100.00,1.38
6099.00,1.38
6098.00,1.38
6097.00,1.38
6096.00,1.39
6095.00,1.39
6094.00,1.39
6093.00,1.39
6092.00,1.39
6091.00,1.39
6090.00,1.39
6089.00,1.39
6088.00,1.40
6087.00,1.40
6086.00,1.40
6085.00,1.40
6084.00,1.40
6083.00,1.40
6082.00,1.40
6081.00,1.41
6080.00,1.41
6079.00,1.41
6078.00,1.41
6077.00,1.41
6076.00,1.41
6075.00,1.41
6074.00,1.42
6073.00,1.42
6072.00,1.42
6071.00,1.42
6070.00,1.42
6069.00,1.42
6068.00,1.43
6067.00,1.43
6066.00,1.43
6065.00,1.43
6064.00,1.43
6063.00,1.43
6062.00,1.43
6061.00,1.43
6060.00,1.44
6059.00,1.44
6058.00,1.44
6057.00,1.44
6056.00,1.44
6055.00,1.44
6054.00,1.44
6053.00,1.44
6052.00,1.44
6051.00,1.45
6050.00,1.45
6049.00,1.45
6048.00,1.45
6047.00,1.45
6046.00,1.45
6045.00,1.45
6044.00,1.45
6043.00,1.45
6042.00,1.45
6041.00,1.45
6040.00,1.45
6039.00,1.45
6038.00,1.45
6037.00,1.45
6036.00,1.45
6035.00,1.45
6034.00,1.45
6033.00,1.46
6032.00,1.46
6031.00,1.46
6030.00,1.46
6029.00,1.46
6028.00,1.46
6027.00,1.46
6026.00,1.46
6025.00,1.46
6024.00,1.46
6023.00,1.46
6022.00,1.46
6021.00,1.46
6020.00,1.46
6019.00,1.46
6018.00,1.46
6017.00,1.46
6016.00,1.46
6015.00,1.46
6014.00,1.46
6013.00,1.46
6012.00,1.46
6011.00,1.46
6010.00,1.46
6009.00,1.46
6008.00,1.46
6007.00,1.46
6006.00,1.46
6005.00,1.46
6004.00,1.46
6003.00,1.46
6002.00,1.46
6001.00,1.46
6000.00,1.46
5999.00,1.46
5998.00,1.46
5997.00,1.46
5996.00,1.46
5995.00,1.46
5994.00,1.46
5993.00,1.46
5992.00,1.46
5991.00,1.46
5990.00,1.46
5989.00,1.46
5988.00,1.46
5987.00,1.45
5986.00,1.45
5985.00,1.45
5984.00,1.45
5983.00,1.44
5982.00,1.44
5981.00,1.44
5980.00,1.44
5979.00,1.43
5978.00,1.43
5977.00,1.43
5976.00,1.42
5975.00,1.42
5974.00,1.42
5973.00,1.41
5972.00,1.41
5971.00,1.40
5970.00,1.40
5969.00,1.39
5968.00,1.39
5967.00,1.39
5966.00,1.38
5965.00,1.38
5964.00,1.37
5963.00,1.37
5962.00,1.36
5961.00,1.36
5960.00,1.35
5959.00,1.35
5958.00,1.35
5957.00,1.34
5956.00,1.34
5955.00,1.34
5954.00,1.33
5953.00,1.33
5952.00,1.33
5951.00,1.32
5950.00,1.32
5949.00,1.32
5948.00,1.31
5947.00,1.31
5946.00,1.31
5945.00,1.31
5944.00,1.31
5943.00,1.30
5942.00,1.30
5941.00,1.30
5940.00,1.30
5939.00,1.30
5938.00,1.30
5937.00,1.30
5936.00,1.30
5935.00,1.30
5934.00,1.30
5933.00,1.30
5932.00,1.30
5931.00,1.30
5930.00,1.30
5929.00,1.29
5928.00,1.29
5927.00,1.29
5926.00,1.29
5925.00,1.29
5924.00,1.29
5923.00,1.29
5922.00,1.29
5921.00,1.28
5920.00,1.28
5919.00,1.28
5918.00,1.28
5917.00,1.28
5916.00,1.27
5915.00,1.27
5914.00,1.27
5913.00,1.27
5912.00,1.27
5911.00,1.27
5910.00,1.27
5909.00,1.27
5908.00,1.26
5907.00,1.26
5906.00,1.26
5905.00,1.26
5904.00,1.26
5903.00,1.26
5902.00,1.26
5901.00,1.27
5900.00,1.27
5899.00,1.27
5898.00,1.27
5897.00,1.27
5896.00,1.27
5895.00,1.27
5894.00,1.27
5893.00,1.28
5892.00,1.28
5891.00,1.28
5890.00,1.28
5889.00,1.28
5888.00,1.29
5887.00,1.29
5886.00,1.29
5885.00,1.29
5884.00,1.30
5883.00,1.30
5882.00,1.30
5881.00,1.31
5880.00,1.31
5879.00,1.31
5878.00,1.31
5877.00,1.32
5876.00,1.32
5875.00,1.32
5874.00,1.32
5873.00,1.32
5872.00,1.33
5871.00,1.33
5870.00,1.33
5869.00,1.33
5868.00,1.33
5867.00,1.33
5866.00,1.33
5865.00,1.34
5864.00,1.34
5863.00,1.34
5862.00,1.34
5861.00,1.34
5860.00,1.34
5859.00,1.34
5858.00,1.34
5857.00,1.34
5856.00,1.35
5855.00,1.35
5854.00,1.35
5853.00,1.35
5852.00,1.35
5851.00,1.35
5850.00,1.35
5849.00,1.35
5848.00,1.36
5847.00,1.36
5846.00,1.36
5845.00,1.36
5844.00,1.36
5843.00,1.36
5842.00,1.36
5841.00,1.36
5840.00,1.36
5839.00,1.36
5838.00,1.36
5837.00,1.36
5836.00,1.36
5835.00,1.35
5834.00,1.35
5833.00,1.35
5832.00,1.35
5831.00,1.35
5830.00,1.35
5829.00,1.35
5828.00,1.35
5827.00,1.35
5826.00,1.35
5825.00,1.35
5824.00,1.35
5823.00,1.35
5822.00,1.35
5821.00,1.35
5820.00,1.35
5819.00,1.35
5818.00,1.35
5817.00,1.35
5816.00,1.35
5815.00,1.35
5814.00,1.35
5813.00,1.35
5812.00,1.35
5811.00,1.35
5810.00,1.35
5809.00,1.35
5808.00,1.35
5807.00,1.35
5806.00,1.35
5805.00,1.34
5804.00,1.34
5803.00,1.34
5802.00,1.34
5801.00,1.34
5800.00,1.34
5799.00,1.33
5798.00,1.33
5797.00,1.33
5796.00,1.33
5795.00,1.33
5794.00,1.32
5793.00,1.32
5792.00,1.32
5791.00,1.32
5790.00,1.32
5789.00,1.31
5788.00,1.31
5787.00,1.31
5786.00,1.31
5785.00,1.31
5784.00,1.31
5783.00,1.31
5782.00,1.31
5781.00,1.31
5780.00,1.31
5779.00,1.31
5778.00,1.31
5777.00,1.31
5776.00,1.31
5775.00,1.31
5774.00,1.31
5773.00,1.31
5772.00,1.31
5771.00,1.31
5770.00,1.31
5769.00,1.31
5768.00,1.32
5767.00,1.32
5766.00,1.32
5765.00,1.32
5764.00,1.32
5763.00,1.32
5762.00,1.33
5761.00,1.33
5760.00,1.33
5759.00,1.33
5758.00,1.33
5757.00,1.33
5756.00,1.34
5755.00,1.34
5754.00,1.34
5753.00,1.34
5752.00,1.34
5751.00,1.34
5750.00,1.34
5749.00,1.35
5748.00,1.35
5747.00,1.35
5746.00,1.35
5745.00,1.35
5744.00,1.35
5743.00,1.35
5742.00,1.35
5741.00,1.36
5740.00,1.36
5739.00,1.36
5738.00,1.36
5737.00,1.36
5736.00,1.36
5735.00,1.36
5734.00,1.36
5733.00,1.37
5732.00,1.37
5731.00,1.37
5730.00,1.37
5729.00,1.37
5728.00,1.37
5727.00,1.37
5726.00,1.37
5725.00,1.37
5724.00,1.37
5723.00,1.37
5722.00,1.37
5721.00,1.37
5720.00,1.37
5719.00,1.37
5718.00,1.37
5717.00,1.37
5716.00,1.37
5715.00,1.37
5714.00,1.37
5713.00,1.37
5712.00,1.36
5711.00,1.36
5710.00,1.36
5709.00,1.36
5708.00,1.36
5707.00,1.36
5706.00,1.35
5705.00,1.35
5704.00,1.35
5703.00,1.35
5702.00,1.35
5701.00,1.35
5700.00,1.35
5699.00,1.34
5698.00,1.34
5697.00,1.34
5696.00,1.34
5695.00,1.34
5694.00,1.34
5693.00,1.34
5692.00,1.34
5691.00,1.34
5690.00,1.34
5689.00,1.34
5688.00,1.33
5687.00,1.33
5686.00,1.33
5685.00,1.33
5684.00,1.33
5683.00,1.33
5682.00,1.33
5681.00,1.33
5680.00,1.33
5679.00,1.33
5678.00,1.33
5677.00,1.33
5676.00,1.33
5675.00,1.33
5674.00,1.33
5673.00,1.33
5672.00,1.33
5671.00,1.33
5670.00,1.33
5669.00,1.33
5668.00,1.33
5667.00,1.33
5666.00,1.33
5665.00,1.33
5664.00,1.33
5663.00,1.33
5662.00,1.34
5661.00,1.34
5660.00,1.34
5659.00,1.34
5658.00,1.34
5657.00,1.34
5656.00,1.34
5655.00,1.34
5654.00,1.34
5653.00,1.34
5652.00,1.34
5651.00,1.35
5650.00,1.35
5649.00,1.35
5648.00,1.35
5647.00,1.35
5646.00,1.35
5645.00,1.35
5644.00,1.35
5643.00,1.35
5642.00,1.35
5641.00,1.35
5640.00,1.35
5639.00,1.36
5638.00,1.36
5637.00,1.36
5636.00,1.36
5635.00,1.36
5634.00,1.36
5633.00,1.36
5632.00,1.36
5631.00,1.36
5630.00,1.36
5629.00,1.36
5628.00,1.36
5627.00,1.36
5626.00,1.36
5625.00,1.36
5624.00,1.37
5623.00,1.37
5622.00,1.37
5621.00,1.37
5620.00,1.37
5619.00,1.37
5618.00,1.37
5617.00,1.37
5616.00,1.38
5615.00,1.38
5614.00,1.38
5613.00,1.38
5612.00,1.38
5611.00,1.38
5610.00,1.38
5609.00,1.38
5608.00,1.39
5607.00,1.39
5606.00,1.39
5605.00,1.39
5604.00,1.39
5603.00,1.39
5602.00,1.39
5601.00,1.39
5600.00,1.39
5599.00,1.40
5598.00,1.40
5597.00,1.40
5596.00,1.40
5595.00,1.40
5594.00,1.40
5593.00,1.40
5592.00,1.40
5591.00,1.41
5590.00,1.41
5589.00,1.41
5588.00,1.41
5587.00,1.41
5586.00,1.41
5585.00,1.41
5584.00,1.41
5583.00,1.42
5582.00,1.42
5581.00,1.42
5580.00,1.42
5579.00,1.42
5578.00,1.42
5577.00,1.42
5576.00,1.42
5575.00,1.42
5574.00,1.42
5573.00,1.42
5572.00,1.42
5571.00,1.43
5570.00,1.43
5569.00,1.43
5568.00,1.43
5567.00,1.43
5566.00,1.43
5565.00,1.43
5564.00,1.43
5563.00,1.43
5562.00,1.44
5561.00,1.44
5560.00,1.44
5559.00,1.44
5558.00,1.44
5557.00,1.44
5556.00,1.45
5555.00,1.45
5554.00,1.45
5553.00,1.45
5552.00,1.45
5551.00,1.46
5550.00,1.46
5549.00,1.46
5548.00,1.46
5547.00,1.46
5546.00,1.46
5545.00,1.46
5544.00,1.46
5543.00,1.46
5542.00,1.46
5541.00,1.47
5540.00,1.47
5539.00,1.47
5538.00,1.47
5537.00,1.47
5536.00,1.47
5535.00,1.47
5534.00,1.47
5533.00,1.47
5532.00,1.47
5531.00,1.47
5530.00,1.47
5529.00,1.47
5528.00,1.48
5527.00,1.48
5526.00,1.48
5525.00,1.48
5524.00,1.48
5523.00,1.48
5522.00,1.48
5521.00,1.48
5520.00,1.48
5519.00,1.49
5518.00,1.49
5517.00,1.49
5516.00,1.49
5515.00,1.49
5514.00,1.49
5513.00,1.49
5512.00,1.49
5511.00,1.49
5510.00,1.49
5509.00,1.49
5508.00,1.49
5507.00,1.49
5506.00,1.49
5505.00,1.49
5504.00,1.49
5503.00,1.49
5502.00,1.49
5501.00,1.49
5500.00,1.49
5499.00,1.50
5498.00,1.50
5497.00,1.50
5496.00,1.50
5495.00,1.50
5494.00,1.50
5493.00,1.50
5492.00,1.50
5491.00,1.50
5490.00,1.51
5489.00,1.51
5488.00,1.51
5487.00,1.51
5486.00,1.51
5485.00,1.51
5484.00,1.52
5483.00,1.52
5482.00,1.52
5481.00,1.52
5480.00,1.52
5479.00,1.52
5478.00,1.52
5477.00,1.52
5476.00,1.52
5475.00,1.52
5474.00,1.52
5473.00,1.52
5472.00,1.52
5471.00,1.52
5470.00,1.53
5469.00,1.53
5468.00,1.53
5467.00,1.53
5466.00,1.53
5465.00,1.53
5464.00,1.53
5463.00,1.53
5462.00,1.53
5461.00,1.53
5460.00,1.53
5459.00,1.53
5458.00,1.53
5457.00,1.53
5456.00,1.53
5455.00,1.53
5454.00,1.53
5453.00,1.53
5452.00,1.53
5451.00,1.52
5450.00,1.52
5449.00,1.52
5448.00,1.52
5447.00,1.52
5446.00,1.52
5445.00,1.52
5444.00,1.52
5443.00,1.52
5442.00,1.52
5441.00,1.52
5440.00,1.52
5439.00,1.52
5438.00,1.52
5437.00,1.52
5436.00,1.52
5435.00,1.53
5434.00,1.53
5433.00,1.53
5432.00,1.53
5431.00,1.53
5430.00,1.53
5429.00,1.53
5428.00,1.53
5427.00,1.53
5426.00,1.53
5425.00,1.53
5424.00,1.53
5423.00,1.53
5422.00,1.53
5421.00,1.53
5420.00,1.53
5419.00,1.53
5418.00,1.52
5417.00,1.52
5416.00,1.52
5415.00,1.52
5414.00,1.52
5413.00,1.52
5412.00,1.52
5411.00,1.52
5410.00,1.51
5409.00,1.51
5408.00,1.51
5407.00,1.51
5406.00,1.51
5405.00,1.51
5404.00,1.50
5403.00,1.50
5402.00,1.50
5401.00,1.50
5400.00,1.49
5399.00,1.49
5398.00,1.49
5397.00,1.49
5396.00,1.48
5395.00,1.48
5394.00,1.47
5393.00,1.47
5392.00,1.47
5391.00,1.46
5390.00,1.46
5389.00,1.46
5388.00,1.45
5387.00,1.45
5386.00,1.44
5385.00,1.44
5384.00,1.44
5383.00,1.43
5382.00,1.43
5381.00,1.42
5380.00,1.42
5379.00,1.41
5378.00,1.41
5377.00,1.41
5376.00,1.40
5375.00,1.40
5374.00,1.39
5373.00,1.39
5372.00,1.39
5371.00,1.38
5370.00,1.38
5369.00,1.37
5368.00,1.37
5367.00,1.36
5366.00,1.36
5365.00,1.35
5364.00,1.34
5363.00,1.34
5362.00,1.33
5361.00,1.32
5360.00,1.32
5359.00,1.31
5358.00,1.30
5357.00,1.30
5356.00,1.29
5355.00,1.28
5354.00,1.28
5353.00,1.27
5352.00,1.26
5351.00,1.26
5350.00,1.25
5349.00,1.24
5348.00,1.24
5347.00,1.23
5346.00,1.22
5345.00,1.21
5344.00,1.21
5343.00,1.20
5342.00,1.19
5341.00,1.19
5340.00,1.18
5339.00,1.17
5338.00,1.17
5337.00,1.16
5336.00,1.15
5335.00,1.15
5334.00,1.14
5333.00,1.13
5332.00,1.13
5331.00,1.12
5330.00,1.12
5329.00,1.11
5328.00,1.11
5327.00,1.10
5326.00,1.10
5325.00,1.09
5324.00,1.09
5323.00,1.08
5322.00,1.08
5321.00,1.08
5320.00,1.07
5319.00,1.07
5318.00,1.07
5317.00,1.06
5316.00,1.06
5315.00,1.06
5314.00,1.06
5313.00,1.05
5312.00,1.05
5311.00,1.05
5310.00,1.05
5309.00,1.05
5308.00,1.05
5307.00,1.04
5306.00,1.04
5305.00,1.04
5304.00,1.04
5303.00,1.04
5302.00,1.04
5301.00,1.04
5300.00,1.04
5299.00,1.04
5298.00,1.04
5297.00,1.03
5296.00,1.03
5295.00,1.03
5294.00,1.03
5293.00,1.03
5292.00,1.03
5291.00,1.03
5290.00,1.03
5289.00,1.03
5288.00,1.02
5287.00,1.02
5286.00,1.02
5285.00,1.02
5284.00,1.02
5283.00,1.02
5282.00,1.02
5281.00,1.02
5280.00,1.02
5279.00,1.02
5278.00,1.02
5277.00,1.02
5276.00,1.02
5275.00,1.02
5274.00,1.02
5273.00,1.02
5272.00,1.02
5271.00,1.02
5270.00,1.02
5269.00,1.02
5268.00,1.02
5267.00,1.02
5266.00,1.02
5265.00,1.02
5264.00,1.02
5263.00,1.02
5262.00,1.02
5261.00,1.02
5260.00,1.02
5259.00,1.02
5258.00,1.02
5257.00,1.03
5256.00,1.03
5255.00,1.03
5254.00,1.03
5253.00,1.03
5252.00,1.03
5251.00,1.03
5250.00,1.03
5249.00,1.03
5248.00,1.03
5247.00,1.03
5246.00,1.03
5245.00,1.03
5244.00,1.03
5243.00,1.03
5242.00,1.03
5241.00,1.03
5240.00,1.03
5239.00,1.03
5238.00,1.03
5237.00,1.03
5236.00,1.03
5235.00,1.03
5234.00,1.03
5233.00,1.03
5232.00,1.03
5231.00,1.03
5230.00,1.03
5229.00,1.03
5228.00,1.03
5227.00,1.03
5226.00,1.03
5225.00,1.03
5224.00,1.03
5223.00,1.03
5222.00,1.04
5221.00,1.04
5220.00,1.04
5219.00,1.04
5218.00,1.04
5217.00,1.04
5216.00,1.04
5215.00,1.04
5214.00,1.04
5213.00,1.04
5212.00,1.04
5211.00,1.04
5210.00,1.04
5209.00,1.04
5208.00,1.04
5207.00,1.04
5206.00,1.04
5205.00,1.04
5204.00,1.04
5203.00,1.04
5202.00,1.04
5201.00,1.04
5200.00,1.04
5199.00,1.04
5198.00,1.04
5197.00,1.04
5196.00,1.04
5195.00,1.04
5194.00,1.05
5193.00,1.05
5192.00,1.05
5191.00,1.05
5190.00,1.05
5189.00,1.05
5188.00,1.05
5187.00,1.05
5186.00,1.06
5185.00,1.06
5184.00,1.06
5183.00,1.06
5182.00,1.06
5181.00,1.06
5180.00,1.06
5179.00,1.06
5178.00,1.06
5177.00,1.06
5176.00,1.06
5175.00,1.06
5174.00,1.06
5173.00,1.06
5172.00,1.06
5171.00,1.06
5170.00,1.06
5169.00,1.06
5168.00,1.06
5167.00,1.06
5166.00,1.06
5165.00,1.06
5164.00,1.06
5163.00,1.06
5162.00,1.06
5161.00,1.06
5160.00,1.06
5159.00,1.06
5158.00,1.06
5157.00,1.06
5156.00,1.06
5155.00,1.06
5154.00,1.06
5153.00,1.06
5152.00,1.06
5151.00,1.06
5150.00,1.06
5149.00,1.06
5148.00,1.06
5147.00,1.06
5146.00,1.06
5145.00,1.06
5144.00,1.06
5143.00,1.06
5142.00,1.06
5141.00,1.06
5140.00,1.06
5139.00,1.06
5138.00,1.06
5137.00,1.06
5136.00,1.06
5135.00,1.06
5134.00,1.06
5133.00,1.06
5132.00,1.06
5131.00,1.06
5130.00,1.06
5129.00,1.07
5128.00,1.07
5127.00,1.07
5126.00,1.07
5125.00,1.07
5124.00,1.07
5123.00,1.07
5122.00,1.08
5121.00,1.08
5120.00,1.08
5119.00,1.08
5118.00,1.08
5117.00,1.08
5116.00,1.08
5115.00,1.08
5114.00,1.08
5113.00,1.08
5112.00,1.08
5111.00,1.08
5110.00,1.08
5109.00,1.08
5108.00,1.08
5107.00,1.08
5106.00,1.08
5105.00,1.08
5104.00,1.08
5103.00,1.08
5102.00,1.08
5101.00,1.08
5100.00,1.08
5099.00,1.08
5098.00,1.08
5097.00,1.08
5096.00,1.08
5095.00,1.08
5094.00,1.08
5093.00,1.08
5092.00,1.08
5091.00,1.08
5090.00,1.08
5089.00,1.08
5088.00,1.08
5087.00,1.08
5086.00,1.08
5085.00,1.09
5084.00,1.09
5083.00,1.09
5082.00,1.09
5081.00,1.09
5080.00,1.09
5079.00,1.09
5078.00,1.09
5077.00,1.09
5076.00,1.09
5075.00,1.09
5074.00,1.09
5073.00,1.09
5072.00,1.10
5071.00,1.10
5070.00,1.10
5069.00,1.10
5068.00,1.10
5067.00,1.10
5066.00,1.10
5065.00,1.10
5064.00,1.10
5063.00,1.10
5062.00,1.10
5061.00,1.10
5060.00,1.10
5059.00,1.10
5058.00,1.10
5057.00,1.10
5056.00,1.10
5055.00,1.10
5054.00,1.10
5053.00,1.10
5052.00,1.10
5051.00,1.10
5050.00,1.10
5049.00,1.10
5048.00,1.10
5047.00,1.10
5046.00,1.10
5045.00,1.11
5044.00,1.11
5043.00,1.11
5042.00,1.11
5041.00,1.11
5040.00,1.11
5039.00,1.11
5038.00,1.11
5037.00,1.11
5036.00,1.11
5035.00,1.11
5034.00,1.11
5033.00,1.11
5032.00,1.11
5031.00,1.11
5030.00,1.11
5029.00,1.11
5028.00,1.11
5027.00,1.11
5026.00,1.11
5025.00,1.11
5024.00,1.11
5023.00,1.11
5022.00,1.11
5021.00,1.11
5020.00,1.11
5019.00,1.11
5018.00,1.11
5017.00,1.11
5016.00,1.11
5015.00,1.11
5014.00,1.11
5013.00,1.11
5012.00,1.11
5011.00,1.11
5010.00,1.11
5009.00,1.11
5008.00,1.11
5007.00,1.11
5006.00,1.12
5005.00,1.12
5004.00,1.12
5003.00,1.12
5002.00,1.12
5001.00,1.12
5000.00,1.12
4999.00,1.12
4998.00,1.12
4997.00,1.12
4996.00,1.12
4995.00,1.13
4994.00,1.13
4993.00,1.13
4992.00,1.13
4991.00,1.13
4990.00,1.13
4989.00,1.13
4988.00,1.13
4987.00,1.13
4986.00,1.13
4985.00,1.13
4984.00,1.13
4983.00,1.13
4982.00,1.13
4981.00,1.13
4980.00,1.13
4979.00,1.13
4978.00,1.13
4977.00,1.13
4976.00,1.13
4975.00,1.13
4974.00,1.13
4973.00,1.13
4972.00,1.13
4971.00,1.13
4970.00,1.13
4969.00,1.13
4968.00,1.13
4967.00,1.13
4966.00,1.13
4965.00,1.13
4964.00,1.13
4963.00,1.13
4962.00,1.13
4961.00,1.13
4960.00,1.13
4959.00,1.13
4958.00,1.13
4957.00,1.13
4956.00,1.13
4955.00,1.13
4954.00,1.13
4953.00,1.13
4952.00,1.13
4951.00,1.13
4950.00,1.13
4949.00,1.13
4948.00,1.13
4947.00,1.13
4946.00,1.14
4945.00,1.14
4944.00,1.14
4943.00,1.14
4942.00,1.14
4941.00,1.14
4940.00,1.14
4939.00,1.14
4938.00,1.14
4937.00,1.14
4936.00,1.14
4935.00,1.14
4934.00,1.14
4933.00,1.14
4932.00,1.14
4931.00,1.14
4930.00,1.14
4929.00,1.14
4928.00,1.15
4927.00,1.15
4926.00,1.15
4925.00,1.15
4924.00,1.15
4923.00,1.15
4922.00,1.15
4921.00,1.15
4920.00,1.15
4919.00,1.16
4918.00,1.16
4917.00,1.16
4916.00,1.16
4915.00,1.16
4914.00,1.16
4913.00,1.16
4912.00,1.16
4911.00,1.16
4910.00,1.16
4909.00,1.16
4908.00,1.16
4907.00,1.16
4906.00,1.16
4905.00,1.16
4904.00,1.16
4903.00,1.16
4902.00,1.16
4901.00,1.16
4900.00,1.16
4899.00,1.16
4898.00,1.16
4897.00,1.16
4896.00,1.17
4895.00,1.17
4894.00,1.17
4893.00,1.17
4892.00,1.17
4891.00,1.17
4890.00,1.17
4889.00,1.17
4888.00,1.17
4887.00,1.17
4886.00,1.17
4885.00,1.17
4884.00,1.17
4883.00,1.17
4882.00,1.17
4881.00,1.17
4880.00,1.17
4879.00,1.17
4878.00,1.17
4877.00,1.17
4876.00,1.17
4875.00,1.17
4874.00,1.17
4873.00,1.17
4872.00,1.17
4871.00,1.17
4870.00,1.17
4869.00,1.18
4868.00,1.18
4867.00,1.18
4866.00,1.18
4865.00,1.18
4864.00,1.18
4863.00,1.18
4862.00,1.18
4861.00,1.18
4860.00,1.18
4859.00,1.18
4858.00,1.18
4857.00,1.18
4856.00,1.18
4855.00,1.18
4854.00,1.18
4853.00,1.18
4852.00,1.18
4851.00,1.18
4850.00,1.18
4849.00,1.19
4848.00,1.19
4847.00,1.19
4846.00,1.19
4845.00,1.19
4844.00,1.19
4843.00,1.19
4842.00,1.19
4841.00,1.19
4840.00,1.19
4839.00,1.19
4838.00,1.19
4837.00,1.19
4836.00,1.19
4835.00,1.19
4834.00,1.19
4833.00,1.19
4832.00,1.19
4831.00,1.19
4830.00,1.19
4829.00,1.19
4828.00,1.19
4827.00,1.19
4826.00,1.20
4825.00,1.20
4824.00,1.20
4823.00,1.20
4822.00,1.20
4821.00,1.20
4820.00,1.20
4819.00,1.20
4818.00,1.20
4817.00,1.20
4816.00,1.20
4815.00,1.20
4814.00,1.20
4813.00,1.20
4812.00,1.20
4811.00,1.20
4810.00,1.20
4809.00,1.20
4808.00,1.20
4807.00,1.20
4806.00,1.20
4805.00,1.20
4804.00,1.20
4803.00,1.20
4802.00,1.21
4801.00,1.21
4800.00,1.21
4799.00,1.21
4798.00,1.21
4797.00,1.21
4796.00,1.21
4795.00,1.21
4794.00,1.22
4793.00,1.22
4792.00,1.22
4791.00,1.22
4790.00,1.22
4789.00,1.22
4788.00,1.22
4787.00,1.23
4786.00,1.23
4785.00,1.23
4784.00,1.23
4783.00,1.23
4782.00,1.23
4781.00,1.23
4780.00,1.23
4779.00,1.23
4778.00,1.23
4777.00,1.23
4776.00,1.23
4775.00,1.23
4774.00,1.23
4773.00,1.23
4772.00,1.23
4771.00,1.23
4770.00,1.23
4769.00,1.23
4768.00,1.23
4767.00,1.23
4766.00,1.23
4765.00,1.23
4764.00,1.23
4763.00,1.23
4762.00,1.23
4761.00,1.23
4760.00,1.23
4759.00,1.23
4758.00,1.23
4757.00,1.23
4756.00,1.23
4755.00,1.23
4754.00,1.23
4753.00,1.23
4752.00,1.23
4751.00,1.23
4750.00,1.23
4749.00,1.23
4748.00,1.23
4747.00,1.23
4746.00,1.23
4745.00,1.23
4744.00,1.23
4743.00,1.23
4742.00,1.23
4741.00,1.23
4740.00,1.24
4739.00,1.24
4738.00,1.24
4737.00,1.24
4736.00,1.24
4735.00,1.24
4734.00,1.24
4733.00,1.24
4732.00,1.24
4731.00,1.24
4730.00,1.24
4729.00,1.24
4728.00,1.25
4727.00,1.25
4726.00,1.25
4725.00,1.25
4724.00,1.25
4723.00,1.25
4722.00,1.25
4721.00,1.25
4720.00,1.25
4719.00,1.25
4718.00,1.26
4717.00,1.26
4716.00,1.26
4715.00,1.26
4714.00,1.26
4713.00,1.26
4712.00,1.26
4711.00,1.26
4710.00,1.27
4709.00,1.27
4708.00,1.27
4707.00,1.27
4706.00,1.27
4705.00,1.27
4704.00,1.27
4703.00,1.28
4702.00,1.28
4701.00,1.28
4700.00,1.28
4699.00,1.28
4698.00,1.28
4697.00,1.28
4696.00,1.28
4695.00,1.28
4694.00,1.28
4693.00,1.28
4692.00,1.28
4691.00,1.28
4690.00,1.28
4689.00,1.28
4688.00,1.28
4687.00,1.28
4686.00,1.28
4685.00,1.28
4684.00,1.28
4683.00,1.28
4682.00,1.28
4681.00,1.28
4680.00,1.28
4679.00,1.28
4678.00,1.28
4677.00,1.29
4676.00,1.29
4675.00,1.29
4674.00,1.29
4673.00,1.29
4672.00,1.29
4671.00,1.29
4670.00,1.29
4669.00,1.29
4668.00,1.29
4667.00,1.30
4666.00,1.30
4665.00,1.30
4664.00,1.30
4663.00,1.30
4662.00,1.30
4661.00,1.30
4660.00,1.30
4659.00,1.30
4658.00,1.30
4657.00,1.30
4656.00,1.30
4655.00,1.30
4654.00,1.30
4653.00,1.30
4652.00,1.30
4651.00,1.30
4650.00,1.30
4649.00,1.30
4648.00,1.30
4647.00,1.30
4646.00,1.31
4645.00,1.31
4644.00,1.31
4643.00,1.31
4642.00,1.31
4641.00,1.31
4640.00,1.31
4639.00,1.31
4638.00,1.31
4637.00,1.31
4636.00,1.31
4635.00,1.31
4634.00,1.31
4633.00,1.31
4632.00,1.31
4631.00,1.31
4630.00,1.31
4629.00,1.31
4628.00,1.31
4627.00,1.32
4626.00,1.32
4625.00,1.32
4624.00,1.32
4623.00,1.32
4622.00,1.32
4621.00,1.32
4620.00,1.32
4619.00,1.32
4618.00,1.32
4617.00,1.32
4616.00,1.32
4615.00,1.32
4614.00,1.33
4613.00,1.33
4612.00,1.33
4611.00,1.33
4610.00,1.33
4609.00,1.33
4608.00,1.33
4607.00,1.33
4606.00,1.33
4605.00,1.33
4604.00,1.33
4603.00,1.33
4602.00,1.33
4601.00,1.34
4600.00,1.34
4599.00,1.34
4598.00,1.34
4597.00,1.34
4596.00,1.34
4595.00,1.34
4594.00,1.34
4593.00,1.34
4592.00,1.34
4591.00,1.34
4590.00,1.34
4589.00,1.34
4588.00,1.34
4587.00,1.34
4586.00,1.34
4585.00,1.34
4584.00,1.34
4583.00,1.35
4582.00,1.35
4581.00,1.35
4580.00,1.35
4579.00,1.35
4578.00,1.35
4577.00,1.35
4576.00,1.35
4575.00,1.35
4574.00,1.35
4573.00,1.35
4572.00,1.35
4571.00,1.35
4570.00,1.36
4569.00,1.36
4568.00,1.36
4567.00,1.36
4566.00,1.36
4565.00,1.36
4564.00,1.36
4563.00,1.36
4562.00,1.36
4561.00,1.36
4560.00,1.36
4559.00,1.36
4558.00,1.36
4557.00,1.36
4556.00,1.36
4555.00,1.36
4554.00,1.36
4553.00,1.36
4552.00,1.36
4551.00,1.36
4550.00,1.36
4549.00,1.36
4548.00,1.36
4547.00,1.36
4546.00,1.36
4545.00,1.36
4544.00,1.36
4543.00,1.36
4542.00,1.36
4541.00,1.36
4540.00,1.36
4539.00,1.36
4538.00,1.36
4537.00,1.36
4536.00,1.36
4535.00,1.36
4534.00,1.36
4533.00,1.36
4532.00,1.36
4531.00,1.36
4530.00,1.36
4529.00,1.36
4528.00,1.36
4527.00,1.36
4526.00,1.37
4525.00,1.37
4524.00,1.37
4523.00,1.37
4522.00,1.37
4521.00,1.37
4520.00,1.37
4519.00,1.37
4518.00,1.37
4517.00,1.37
4516.00,1.37
4515.00,1.37
4514.00,1.37
4513.00,1.37
4512.00,1.37
4511.00,1.37
4510.00,1.37
4509.00,1.37
4508.00,1.37
4507.00,1.37
4506.00,1.37
4505.00,1.37
4504.00,1.37
4503.00,1.38
4502.00,1.38
4501.00,1.38
4500.00,1.38
4499.00,1.38
4498.00,1.38
4497.00,1.38
4496.00,1.38
4495.00,1.38
4494.00,1.38
4493.00,1.38
4492.00,1.38
4491.00,1.38
4490.00,1.38
4489.00,1.38
4488.00,1.38
4487.00,1.38
4486.00,1.38
4485.00,1.37
4484.00,1.37
4483.00,1.37
4482.00,1.37
4481.00,1.37
4480.00,1.37
4479.00,1.37
4478.00,1.37
4477.00,1.37
4476.00,1.37
4475.00,1.37
4474.00,1.37
4473.00,1.37
4472.00,1.37
4471.00,1.37
4470.00,1.37
4469.00,1.37
4468.00,1.37
4467.00,1.37
4466.00,1.36
4465.00,1.36
4464.00,1.36
4463.00,1.36
4462.00,1.36
4461.00,1.36
4460.00,1.36
4459.00,1.36
4458.00,1.36
4457.00,1.36
4456.00,1.36
4455.00,1.35
4454.00,1.35
4453.00,1.35
4452.00,1.35
4451.00,1.35
4450.00,1.35
4449.00,1.35
4448.00,1.34
4447.00,1.34
4446.00,1.34
4445.00,1.34
4444.00,1.34
4443.00,1.34
4442.00,1.34
4441.00,1.33
4440.00,1.33
4439.00,1.33
4438.00,1.33
4437.00,1.33
4436.00,1.33
4435.00,1.33
4434.00,1.33
4433.00,1.33
4432.00,1.33
4431.00,1.33
4430.00,1.33
4429.00,1.33
4428.00,1.33
4427.00,1.33
4426.00,1.33
4425.00,1.33
4424.00,1.33
4423.00,1.33
4422.00,1.33
4421.00,1.33
4420.00,1.33
4419.00,1.33
4418.00,1.33
4417.00,1.33
4416.00,1.33
4415.00,1.33
4414.00,1.33
4413.00,1.33
4412.00,1.33
4411.00,1.33
4410.00,1.33
4409.00,1.33
4408.00,1.33
4407.00,1.33
4406.00,1.33
4405.00,1.33
4404.00,1.33
4403.00,1.33
4402.00,1.33
4401.00,1.33
4400.00,1.33
4399.00,1.34
4398.00,1.34
4397.00,1.34
4396.00,1.34
4395.00,1.34
4394.00,1.34
4393.00,1.34
4392.00,1.34
4391.00,1.35
4390.00,1.35
4389.00,1.35
4388.00,1.35
4387.00,1.35
4386.00,1.35
4385.00,1.35
4384.00,1.35
4383.00,1.35
4382.00,1.35
4381.00,1.35
4380.00,1.35
4379.00,1.35
4378.00,1.35
4377.00,1.35
4376.00,1.35
4375.00,1.35
4374.00,1.35
4373.00,1.36
4372.00,1.36
4371.00,1.36
4370.00,1.36
4369.00,1.36
4368.00,1.36
4367.00,1.36
4366.00,1.36
4365.00,1.36
4364.00,1.36
4363.00,1.36
4362.00,1.36
4361.00,1.36
4360.00,1.36
4359.00,1.36
4358.00,1.36
4357.00,1.36
4356.00,1.36
4355.00,1.36
4354.00,1.36
4353.00,1.36
4352.00,1.36
4351.00,1.36
4350.00,1.36
4349.00,1.36
4348.00,1.36
4347.00,1.36
4346.00,1.36
4345.00,1.36
4344.00,1.36
4343.00,1.36
4342.00,1.36
4341.00,1.36
4340.00,1.36
4339.00,1.36
4338.00,1.36
4337.00,1.36
4336.00,1.36
4335.00,1.36
4334.00,1.36
4333.00,1.36
4332.00,1.36
4331.00,1.36
4330.00,1.36
4329.00,1.37
4328.00,1.37
4327.00,1.37
4326.00,1.37
4325.00,1.37
4324.00,1.37
4323.00,1.37
4322.00,1.37
4321.00,1.37
4320.00,1.37
4319.00,1.37
4318.00,1.37
4317.00,1.37
4316.00,1.38
4315.00,1.38
4314.00,1.38
4313.00,1.38
4312.00,1.38
4311.00,1.38
4310.00,1.38
4309.00,1.38
4308.00,1.39
4307.00,1.39
4306.00,1.39
4305.00,1.39
4304.00,1.39
4303.00,1.39
4302.00,1.40
4301.00,1.40
4300.00,1.40
4299.00,1.40
4298.00,1.40
4297.00,1.40
4296.00,1.40
4295.00,1.40
4294.00,1.40
4293.00,1.40
4292.00,1.41
4291.00,1.41
4290.00,1.41
4289.00,1.41
4288.00,1.40
4287.00,1.40
4286.00,1.40
4285.00,1.40
4284.00,1.40
4283.00,1.40
4282.00,1.40
4281.00,1.40
4280.00,1.39
4279.00,1.39
4278.00,1.39
4277.00,1.39
4276.00,1.39
4275.00,1.39
4274.00,1.38
4273.00,1.38
4272.00,1.38
4271.00,1.38
4270.00,1.38
4269.00,1.38
4268.00,1.38
4267.00,1.38
4266.00,1.38
4265.00,1.38
4264.00,1.38
4263.00,1.39
4262.00,1.39
4261.00,1.39
4260.00,1.39
4259.00,1.39
4258.00,1.39
4257.00,1.39
4256.00,1.39
4255.00,1.39
4254.00,1.40
4253.00,1.40
4252.00,1.40
4251.00,1.40
4250.00,1.40
4249.00,1.40
4248.00,1.40
4247.00,1.40
4246.00,1.40
4245.00,1.40
4244.00,1.40
4243.00,1.40
4242.00,1.40
4241.00,1.41
4240.00,1.41
4239.00,1.41
4238.00,1.41
4237.00,1.41
4236.00,1.41
4235.00,1.41
4234.00,1.41
4233.00,1.41
4232.00,1.41
4231.00,1.41
4230.00,1.41
4229.00,1.41
4228.00,1.42
4227.00,1.42
4226.00,1.42
4225.00,1.42
4224.00,1.42
4223.00,1.42
4222.00,1.42
4221.00,1.42
4220.00,1.42
4219.00,1.43
4218.00,1.43
4217.00,1.43
4216.00,1.43
4215.00,1.43
4214.00,1.43
4213.00,1.43
4212.00,1.43
4211.00,1.43
4210.00,1.43
4209.00,1.43
4208.00,1.43
4207.00,1.43
4206.00,1.43
4205.00,1.43
4204.00,1.43
4203.00,1.43
4202.00,1.43
4201.00,1.43
4200.00,1.43
4199.00,1.43
4198.00,1.43
4197.00,1.43
4196.00,1.43
4195.00,1.43
4194.00,1.44
4193.00,1.44
4192.00,1.44
4191.00,1.44
4190.00,1.44
4189.00,1.44
4188.00,1.44
4187.00,1.44
4186.00,1.44
4185.00,1.44
4184.00,1.45
4183.00,1.45
4182.00,1.45
4181.00,1.45
4180.00,1.45
4179.00,1.45
4178.00,1.45
4177.00,1.45
4176.00,1.44
4175.00,1.44
4174.00,1.44
4173.00,1.44
4172.00,1.44
4171.00,1.44
4170.00,1.44
4169.00,1.44
4168.00,1.44
4167.00,1.44
4166.00,1.44
4165.00,1.44
4164.00,1.44
4163.00,1.44
4162.00,1.44
4161.00,1.44
4160.00,1.44
4159.00,1.44
4158.00,1.44
4157.00,1.44
4156.00,1.44
4155.00,1.44
4154.00,1.44
4153.00,1.45
4152.00,1.45
4151.00,1.45
4150.00,1.44
4149.00,1.44
4148.00,1.44
4147.00,1.44
4146.00,1.44
4145.00,1.44
4144.00,1.44
4143.00,1.44
4142.00,1.44
4141.00,1.44
4140.00,1.44
4139.00,1.44
4138.00,1.44
4137.00,1.44
4136.00,1.44
4135.00,1.44
4134.00,1.44
4133.00,1.44
4132.00,1.44
4131.00,1.44
4130.00,1.44
4129.00,1.45
4128.00,1.45
4127.00,1.45
4126.00,1.45
4125.00,1.45
4124.00,1.45
4123.00,1.45
4122.00,1.45
4121.00,1.45
4120.00,1.45
4119.00,1.46
4118.00,1.46
4117.00,1.46
4116.00,1.46
4115.00,1.46
4114.00,1.46
4113.00,1.46
4112.00,1.46
4111.00,1.46
4110.00,1.46
4109.00,1.46
4108.00,1.46
4107.00,1.46
4106.00,1.46
4105.00,1.46
4104.00,1.46
4103.00,1.46
4102.00,1.46
4101.00,1.46
4100.00,1.46
4099.00,1.46
4098.00,1.46
4097.00,1.46
4096.00,1.46
4095.00,1.46
4094.00,1.46
4093.00,1.46
4092.00,1.46
4091.00,1.46
4090.00,1.46
4089.00,1.46
4088.00,1.46
4087.00,1.46
4086.00,1.47
4085.00,1.47
4084.00,1.47
4083.00,1.47
4082.00,1.47
4081.00,1.47
4080.00,1.48
4079.00,1.48
4078.00,1.48
4077.00,1.48
4076.00,1.48
4075.00,1.48
4074.00,1.48
4073.00,1.48
4072.00,1.48
4071.00,1.48
4070.00,1.49
4069.00,1.49
4068.00,1.49
4067.00,1.49
4066.00,1.49
4065.00,1.49
4064.00,1.49
4063.00,1.49
4062.00,1.49
4061.00,1.49
4060.00,1.49
4059.00,1.49
4058.00,1.49
4057.00,1.49
4056.00,1.49
4055.00,1.49
4054.00,1.49
4053.00,1.49
4052.00,1.49
4051.00,1.49
4050.00,1.49
4049.00,1.49
4048.00,1.49
4047.00,1.49
4046.00,1.49
4045.00,1.49
4044.00,1.49
4043.00,1.50
4042.00,1.50
4041.00,1.50
4040.00,1.50
4039.00,1.50
4038.00,1.50
4037.00,1.50
4036.00,1.50
4035.00,1.50
4034.00,1.50
4033.00,1.50
4032.00,1.50
4031.00,1.50
4030.00,1.50
4029.00,1.50
4028.00,1.50
4027.00,1.50
4026.00,1.50
4025.00,1.50
4024.00,1.50
4023.00,1.50
4022.00,1.51
4021.00,1.51
4020.00,1.51
4019.00,1.51
4018.00,1.51
4017.00,1.51
4016.00,1.51
4015.00,1.52
4014.00,1.52
4013.00,1.52
4012.00,1.52
4011.00,1.52
4010.00,1.52
4009.00,1.53
4008.00,1.53
4007.00,1.53
4006.00,1.53
4005.00,1.53
4004.00,1.53
4003.00,1.53
4002.00,1.53
4001.00,1.53
4000.00,1.53
