创建为新数据集,样品 110 用户 Administrator 日期 星期六, 七月 21 2018
cm-1,%T
10000.00,1.64
9999.00,1.64
9998.00,1.64
9997.00,1.64
9996.00,1.63
9995.00,1.63
9994.00,1.63
9993.00,1.62
9992.00,1.62
9991.00,1.62
9990.00,1.62
9989.00,1.61
9988.00,1.61
9987.00,1.61
9986.00,1.61
9985.00,1.61
9984.00,1.61
9983.00,1.61
9982.00,1.61
9981.00,1.61
9980.00,1.61
9979.00,1.61
9978.00,1.61
9977.00,1.62
9976.00,1.62
9975.00,1.62
9974.00,1.62
9973.00,1.62
9972.00,1.62
9971.00,1.62
9970.00,1.62
9969.00,1.62
9968.00,1.62
9967.00,1.62
9966.00,1.62
9965.00,1.62
9964.00,1.62
9963.00,1.62
9962.00,1.63
9961.00,1.63
9960.00,1.63
9959.00,1.63
9958.00,1.63
9957.00,1.63
9956.00,1.63
9955.00,1.63
9954.00,1.63
9953.00,1.63
9952.00,1.64
9951.00,1.64
9950.00,1.64
9949.00,1.64
9948.00,1.64
9947.00,1.64
9946.00,1.64
9945.00,1.64
9944.00,1.64
9943.00,1.64
9942.00,1.64
9941.00,1.64
9940.00,1.64
9939.00,1.64
9938.00,1.64
9937.00,1.64
9936.00,1.64
9935.00,1.64
9934.00,1.64
9933.00,1.64
9932.00,1.64
9931.00,1.63
9930.00,1.63
9929.00,1.63
9928.00,1.63
9927.00,1.63
9926.00,1.63
9925.00,1.63
9924.00,1.63
9923.00,1.62
9922.00,1.62
9921.00,1.62
9920.00,1.62
9919.00,1.61
9918.00,1.61
9917.00,1.61
9916.00,1.61
9915.00,1.61
9914.00,1.61
9913.00,1.60
9912.00,1.60
9911.00,1.60
9910.00,1.60
9909.00,1.60
9908.00,1.60
9907.00,1.60
9906.00,1.60
9905.00,1.60
9904.00,1.60
9903.00,1.60
9902.00,1.60
9901.00,1.60
9900.00,1.60
9899.00,1.60
9898.00,1.60
9897.00,1.60
9896.00,1.60
9895.00,1.60
9894.00,1.60
9893.00,1.60
9892.00,1.60
9891.00,1.60
9890.00,1.60
9889.00,1.60
9888.00,1.60
9887.00,1.60
9886.00,1.60
9885.00,1.60
9884.00,1.60
9883.00,1.60
9882.00,1.60
9881.00,1.60
9880.00,1.60
9879.00,1.60
9878.00,1.60
9877.00,1.60
9876.00,1.60
9875.00,1.60
9874.00,1.60
9873.00,1.61
9872.00,1.61
9871.00,1.61
9870.00,1.61
9869.00,1.61
9868.00,1.61
9867.00,1.61
9866.00,1.61
9865.00,1.61
9864.00,1.61
9863.00,1.61
9862.00,1.61
9861.00,1.61
9860.00,1.61
9859.00,1.61
9858.00,1.62
9857.00,1.61
9856.00,1.61
9855.00,1.61
9854.00,1.61
9853.00,1.61
9852.00,1.61
9851.00,1.61
9850.00,1.61
9849.00,1.61
9848.00,1.60
9847.00,1.60
9846.00,1.60
9845.00,1.60
9844.00,1.60
9843.00,1.60
9842.00,1.59
9841.00,1.59
9840.00,1.59
9839.00,1.59
9838.00,1.59
9837.00,1.59
9836.00,1.59
9835.00,1.58
9834.00,1.58
9833.00,1.58
9832.00,1.58
9831.00,1.58
9830.00,1.58
9829.00,1.58
9828.00,1.58
9827.00,1.58
9826.00,1.58
9825.00,1.58
9824.00,1.58
9823.00,1.58
9822.00,1.58
9821.00,1.59
9820.00,1.59
9819.00,1.59
9818.00,1.59
9817.00,1.59
9816.00,1.59
9815.00,1.59
9814.00,1.59
9813.00,1.59
9812.00,1.60
9811.00,1.60
9810.00,1.60
9809.00,1.60
9808.00,1.60
9807.00,1.61
9806.00,1.61
9805.00,1.61
9804.00,1.61
9803.00,1.62
9802.00,1.62
9801.00,1.62
9800.00,1.63
9799.00,1.63
9798.00,1.63
9797.00,1.63
9796.00,1.64
9795.00,1.64
9794.00,1.64
9793.00,1.64
9792.00,1.64
9791.00,1.64
9790.00,1.64
9789.00,1.64
9788.00,1.64
9787.00,1.64
9786.00,1.64
9785.00,1.64
9784.00,1.64
9783.00,1.64
9782.00,1.64
9781.00,1.64
9780.00,1.64
9779.00,1.64
9778.00,1.64
9777.00,1.64
9776.00,1.64
9775.00,1.64
9774.00,1.64
9773.00,1.64
9772.00,1.64
9771.00,1.63
9770.00,1.63
9769.00,1.63
9768.00,1.63
9767.00,1.63
9766.00,1.63
9765.00,1.63
9764.00,1.62
9763.00,1.62
9762.00,1.62
9761.00,1.62
9760.00,1.62
9759.00,1.62
9758.00,1.61
9757.00,1.61
9756.00,1.61
9755.00,1.61
9754.00,1.61
9753.00,1.61
9752.00,1.60
9751.00,1.60
9750.00,1.60
9749.00,1.60
9748.00,1.60
9747.00,1.60
9746.00,1.60
9745.00,1.60
9744.00,1.59
9743.00,1.59
9742.00,1.59
9741.00,1.59
9740.00,1.59
9739.00,1.59
9738.00,1.60
9737.00,1.60
9736.00,1.60
9735.00,1.60
9734.00,1.60
9733.00,1.60
9732.00,1.60
9731.00,1.61
9730.00,1.61
9729.00,1.61
9728.00,1.61
9727.00,1.61
9726.00,1.61
9725.00,1.61
9724.00,1.61
9723.00,1.61
9722.00,1.61
9721.00,1.60
9720.00,1.60
9719.00,1.60
9718.00,1.60
9717.00,1.59
9716.00,1.59
9715.00,1.59
9714.00,1.59
9713.00,1.59
9712.00,1.59
9711.00,1.58
9710.00,1.58
9709.00,1.58
9708.00,1.58
9707.00,1.58
9706.00,1.58
9705.00,1.58
9704.00,1.58
9703.00,1.58
9702.00,1.58
9701.00,1.58
9700.00,1.59
9699.00,1.59
9698.00,1.59
9697.00,1.59
9696.00,1.59
9695.00,1.59
9694.00,1.59
9693.00,1.59
9692.00,1.60
9691.00,1.60
9690.00,1.60
9689.00,1.60
9688.00,1.61
9687.00,1.61
9686.00,1.61
9685.00,1.61
9684.00,1.62
9683.00,1.62
9682.00,1.62
9681.00,1.63
9680.00,1.63
9679.00,1.63
9678.00,1.63
9677.00,1.63
9676.00,1.63
9675.00,1.64
9674.00,1.64
9673.00,1.64
9672.00,1.64
9671.00,1.64
9670.00,1.63
9669.00,1.63
9668.00,1.63
9667.00,1.63
9666.00,1.63
9665.00,1.63
9664.00,1.63
9663.00,1.63
9662.00,1.63
9661.00,1.63
9660.00,1.63
9659.00,1.63
9658.00,1.63
9657.00,1.63
9656.00,1.63
9655.00,1.63
9654.00,1.63
9653.00,1.63
9652.00,1.63
9651.00,1.64
9650.00,1.64
9649.00,1.64
9648.00,1.64
9647.00,1.64
9646.00,1.64
9645.00,1.64
9644.00,1.64
9643.00,1.64
9642.00,1.64
9641.00,1.64
9640.00,1.64
9639.00,1.64
9638.00,1.64
9637.00,1.64
9636.00,1.64
9635.00,1.64
9634.00,1.64
9633.00,1.64
9632.00,1.64
9631.00,1.63
9630.00,1.63
9629.00,1.63
9628.00,1.63
9627.00,1.63
9626.00,1.63
9625.00,1.62
9624.00,1.62
9623.00,1.62
9622.00,1.62
9621.00,1.61
9620.00,1.61
9619.00,1.61
9618.00,1.61
9617.00,1.61
9616.00,1.60
9615.00,1.60
9614.00,1.60
9613.00,1.60
9612.00,1.60
9611.00,1.59
9610.00,1.59
9609.00,1.59
9608.00,1.59
9607.00,1.58
9606.00,1.58
9605.00,1.58
9604.00,1.58
9603.00,1.57
9602.00,1.57
9601.00,1.57
9600.00,1.57
9599.00,1.57
9598.00,1.57
9597.00,1.57
9596.00,1.57
9595.00,1.57
9594.00,1.58
9593.00,1.58
9592.00,1.58
9591.00,1.58
9590.00,1.59
9589.00,1.59
9588.00,1.59
9587.00,1.59
9586.00,1.60
9585.00,1.60
9584.00,1.60
9583.00,1.60
9582.00,1.60
9581.00,1.60
9580.00,1.60
9579.00,1.60
9578.00,1.60
9577.00,1.60
9576.00,1.59
9575.00,1.59
9574.00,1.59
9573.00,1.59
9572.00,1.59
9571.00,1.59
9570.00,1.58
9569.00,1.58
9568.00,1.58
9567.00,1.58
9566.00,1.58
9565.00,1.58
9564.00,1.58
9563.00,1.58
9562.00,1.58
9561.00,1.58
9560.00,1.58
9559.00,1.58
9558.00,1.58
9557.00,1.59
9556.00,1.59
9555.00,1.59
9554.00,1.59
9553.00,1.60
9552.00,1.60
9551.00,1.60
9550.00,1.60
9549.00,1.61
9548.00,1.61
9547.00,1.61
9546.00,1.62
9545.00,1.62
9544.00,1.62
9543.00,1.62
9542.00,1.62
9541.00,1.63
9540.00,1.63
9539.00,1.63
9538.00,1.63
9537.00,1.63
9536.00,1.63
9535.00,1.63
9534.00,1.63
9533.00,1.63
9532.00,1.62
9531.00,1.62
9530.00,1.62
9529.00,1.62
9528.00,1.62
9527.00,1.62
9526.00,1.62
9525.00,1.62
9524.00,1.62
9523.00,1.62
9522.00,1.61
9521.00,1.61
9520.00,1.61
9519.00,1.61
9518.00,1.61
9517.00,1.61
9516.00,1.61
9515.00,1.61
9514.00,1.61
9513.00,1.61
9512.00,1.61
9511.00,1.61
9510.00,1.60
9509.00,1.60
9508.00,1.60
9507.00,1.60
9506.00,1.60
9505.00,1.60
9504.00,1.60
9503.00,1.60
9502.00,1.60
9501.00,1.60
9500.00,1.60
9499.00,1.60
9498.00,1.60
9497.00,1.60
9496.00,1.60
9495.00,1.60
9494.00,1.60
9493.00,1.60
9492.00,1.60
9491.00,1.60
9490.00,1.60
9489.00,1.60
9488.00,1.61
9487.00,1.61
9486.00,1.61
9485.00,1.61
9484.00,1.61
9483.00,1.61
9482.00,1.62
9481.00,1.62
9480.00,1.62
9479.00,1.62
9478.00,1.62
9477.00,1.63
9476.00,1.63
9475.00,1.63
9474.00,1.63
9473.00,1.63
9472.00,1.63
9471.00,1.63
9470.00,1.63
9469.00,1.62
9468.00,1.62
9467.00,1.62
9466.00,1.62
9465.00,1.62
9464.00,1.61
9463.00,1.61
9462.00,1.61
9461.00,1.61
9460.00,1.61
9459.00,1.61
9458.00,1.60
9457.00,1.60
9456.00,1.60
9455.00,1.60
9454.00,1.60
9453.00,1.60
9452.00,1.60
9451.00,1.61
9450.00,1.61
9449.00,1.61
9448.00,1.61
9447.00,1.61
9446.00,1.61
9445.00,1.61
9444.00,1.61
9443.00,1.61
9442.00,1.61
9441.00,1.61
9440.00,1.61
9439.00,1.61
9438.00,1.61
9437.00,1.61
9436.00,1.61
9435.00,1.61
9434.00,1.61
9433.00,1.61
9432.00,1.61
9431.00,1.61
9430.00,1.61
9429.00,1.61
9428.00,1.62
9427.00,1.62
9426.00,1.62
9425.00,1.62
9424.00,1.62
9423.00,1.63
9422.00,1.63
9421.00,1.63
9420.00,1.63
9419.00,1.63
9418.00,1.64
9417.00,1.64
9416.00,1.64
9415.00,1.64
9414.00,1.63
9413.00,1.63
9412.00,1.63
9411.00,1.63
9410.00,1.63
9409.00,1.63
9408.00,1.62
9407.00,1.62
9406.00,1.62
9405.00,1.62
9404.00,1.61
9403.00,1.61
9402.00,1.61
9401.00,1.61
9400.00,1.60
9399.00,1.60
9398.00,1.60
9397.00,1.60
9396.00,1.59
9395.00,1.59
9394.00,1.59
9393.00,1.59
9392.00,1.59
9391.00,1.58
9390.00,1.58
9389.00,1.58
9388.00,1.58
9387.00,1.58
9386.00,1.58
9385.00,1.58
9384.00,1.58
9383.00,1.58
9382.00,1.58
9381.00,1.58
9380.00,1.59
9379.00,1.59
9378.00,1.59
9377.00,1.59
9376.00,1.59
9375.00,1.59
9374.00,1.60
9373.00,1.60
9372.00,1.60
9371.00,1.60
9370.00,1.60
9369.00,1.60
9368.00,1.61
9367.00,1.61
9366.00,1.61
9365.00,1.61
9364.00,1.61
9363.00,1.61
9362.00,1.61
9361.00,1.61
9360.00,1.61
9359.00,1.61
9358.00,1.62
9357.00,1.62
9356.00,1.62
9355.00,1.62
9354.00,1.62
9353.00,1.62
9352.00,1.62
9351.00,1.62
9350.00,1.62
9349.00,1.62
9348.00,1.63
9347.00,1.63
9346.00,1.63
9345.00,1.63
9344.00,1.63
9343.00,1.63
9342.00,1.63
9341.00,1.63
9340.00,1.63
9339.00,1.63
9338.00,1.63
9337.00,1.62
9336.00,1.62
9335.00,1.62
9334.00,1.62
9333.00,1.62
9332.00,1.62
9331.00,1.62
9330.00,1.62
9329.00,1.62
9328.00,1.62
9327.00,1.62
9326.00,1.62
9325.00,1.62
9324.00,1.62
9323.00,1.62
9322.00,1.62
9321.00,1.62
9320.00,1.63
9319.00,1.63
9318.00,1.63
9317.00,1.63
9316.00,1.63
9315.00,1.63
9314.00,1.63
9313.00,1.63
9312.00,1.63
9311.00,1.63
9310.00,1.63
9309.00,1.63
9308.00,1.63
9307.00,1.63
9306.00,1.62
9305.00,1.62
9304.00,1.62
9303.00,1.62
9302.00,1.62
9301.00,1.62
9300.00,1.62
9299.00,1.62
9298.00,1.62
9297.00,1.62
9296.00,1.62
9295.00,1.62
9294.00,1.62
9293.00,1.62
9292.00,1.62
9291.00,1.62
9290.00,1.62
9289.00,1.62
9288.00,1.62
9287.00,1.62
9286.00,1.63
9285.00,1.63
9284.00,1.63
9283.00,1.63
9282.00,1.63
9281.00,1.63
9280.00,1.63
9279.00,1.63
9278.00,1.63
9277.00,1.63
9276.00,1.63
9275.00,1.63
9274.00,1.63
9273.00,1.63
9272.00,1.63
9271.00,1.63
9270.00,1.63
9269.00,1.63
9268.00,1.63
9267.00,1.63
9266.00,1.62
9265.00,1.62
9264.00,1.62
9263.00,1.62
9262.00,1.62
9261.00,1.62
9260.00,1.61
9259.00,1.61
9258.00,1.61
9257.00,1.61
9256.00,1.61
9255.00,1.61
9254.00,1.61
9253.00,1.61
9252.00,1.61
9251.00,1.61
9250.00,1.61
9249.00,1.61
9248.00,1.61
9247.00,1.61
9246.00,1.61
9245.00,1.61
9244.00,1.61
9243.00,1.61
9242.00,1.61
9241.00,1.61
9240.00,1.61
9239.00,1.61
9238.00,1.61
9237.00,1.61
9236.00,1.61
9235.00,1.61
9234.00,1.61
9233.00,1.61
9232.00,1.60
9231.00,1.60
9230.00,1.60
9229.00,1.60
9228.00,1.60
9227.00,1.60
9226.00,1.60
9225.00,1.60
9224.00,1.61
9223.00,1.61
9222.00,1.61
9221.00,1.61
9220.00,1.61
9219.00,1.61
9218.00,1.61
9217.00,1.61
9216.00,1.61
9215.00,1.61
9214.00,1.61
9213.00,1.61
9212.00,1.61
9211.00,1.61
9210.00,1.61
9209.00,1.61
9208.00,1.61
9207.00,1.61
9206.00,1.61
9205.00,1.61
9204.00,1.61
9203.00,1.61
9202.00,1.61
9201.00,1.61
9200.00,1.61
9199.00,1.61
9198.00,1.61
9197.00,1.61
9196.00,1.61
9195.00,1.61
9194.00,1.61
9193.00,1.61
9192.00,1.61
9191.00,1.61
9190.00,1.61
9189.00,1.61
9188.00,1.61
9187.00,1.61
9186.00,1.61
9185.00,1.61
9184.00,1.61
9183.00,1.61
9182.00,1.62
9181.00,1.62
9180.00,1.62
9179.00,1.62
9178.00,1.62
9177.00,1.62
9176.00,1.62
9175.00,1.63
9174.00,1.63
9173.00,1.63
9172.00,1.63
9171.00,1.63
9170.00,1.64
9169.00,1.64
9168.00,1.64
9167.00,1.64
9166.00,1.64
9165.00,1.64
9164.00,1.64
9163.00,1.64
9162.00,1.64
9161.00,1.64
9160.00,1.64
9159.00,1.64
9158.00,1.64
9157.00,1.64
9156.00,1.64
9155.00,1.64
9154.00,1.64
9153.00,1.64
9152.00,1.64
9151.00,1.64
9150.00,1.64
9149.00,1.64
9148.00,1.64
9147.00,1.64
9146.00,1.64
9145.00,1.64
9144.00,1.64
9143.00,1.64
9142.00,1.64
9141.00,1.64
9140.00,1.64
9139.00,1.63
9138.00,1.63
9137.00,1.63
9136.00,1.63
9135.00,1.63
9134.00,1.63
9133.00,1.63
9132.00,1.63
9131.00,1.63
9130.00,1.63
9129.00,1.63
9128.00,1.62
9127.00,1.62
9126.00,1.62
9125.00,1.62
9124.00,1.62
9123.00,1.62
9122.00,1.62
9121.00,1.62
9120.00,1.62
9119.00,1.62
9118.00,1.62
9117.00,1.62
9116.00,1.62
9115.00,1.62
9114.00,1.62
9113.00,1.62
9112.00,1.61
9111.00,1.61
9110.00,1.61
9109.00,1.61
9108.00,1.61
9107.00,1.61
9106.00,1.61
9105.00,1.61
9104.00,1.60
9103.00,1.60
9102.00,1.60
9101.00,1.60
9100.00,1.60
9099.00,1.60
9098.00,1.60
9097.00,1.60
9096.00,1.60
9095.00,1.60
9094.00,1.60
9093.00,1.60
9092.00,1.60
9091.00,1.61
9090.00,1.61
9089.00,1.61
9088.00,1.61
9087.00,1.61
9086.00,1.61
9085.00,1.61
9084.00,1.61
9083.00,1.61
9082.00,1.61
9081.00,1.62
9080.00,1.62
9079.00,1.62
9078.00,1.61
9077.00,1.61
9076.00,1.61
9075.00,1.61
9074.00,1.61
9073.00,1.61
9072.00,1.61
9071.00,1.61
9070.00,1.61
9069.00,1.61
9068.00,1.61
9067.00,1.61
9066.00,1.61
9065.00,1.62
9064.00,1.62
9063.00,1.62
9062.00,1.62
9061.00,1.62
9060.00,1.62
9059.00,1.62
9058.00,1.62
9057.00,1.62
9056.00,1.63
9055.00,1.63
9054.00,1.63
9053.00,1.63
9052.00,1.63
9051.00,1.63
9050.00,1.63
9049.00,1.63
9048.00,1.63
9047.00,1.63
9046.00,1.63
9045.00,1.63
9044.00,1.63
9043.00,1.63
9042.00,1.63
9041.00,1.64
9040.00,1.64
9039.00,1.64
9038.00,1.64
9037.00,1.64
9036.00,1.64
9035.00,1.64
9034.00,1.64
9033.00,1.64
9032.00,1.64
9031.00,1.64
9030.00,1.64
9029.00,1.64
9028.00,1.64
9027.00,1.64
9026.00,1.64
9025.00,1.64
9024.00,1.64
9023.00,1.64
9022.00,1.64
9021.00,1.64
9020.00,1.64
9019.00,1.64
9018.00,1.64
9017.00,1.64
9016.00,1.64
9015.00,1.64
9014.00,1.64
9013.00,1.64
9012.00,1.64
9011.00,1.64
9010.00,1.64
9009.00,1.64
9008.00,1.63
9007.00,1.63
9006.00,1.63
9005.00,1.63
9004.00,1.63
9003.00,1.63
9002.00,1.63
9001.00,1.63
9000.00,1.63
8999.00,1.63
8998.00,1.63
8997.00,1.63
8996.00,1.64
8995.00,1.64
8994.00,1.64
8993.00,1.64
8992.00,1.64
8991.00,1.64
8990.00,1.64
8989.00,1.64
8988.00,1.64
8987.00,1.64
8986.00,1.64
8985.00,1.64
8984.00,1.64
8983.00,1.64
8982.00,1.64
8981.00,1.64
8980.00,1.64
8979.00,1.64
8978.00,1.64
8977.00,1.64
8976.00,1.64
8975.00,1.64
8974.00,1.64
8973.00,1.64
8972.00,1.64
8971.00,1.64
8970.00,1.64
8969.00,1.64
8968.00,1.64
8967.00,1.63
8966.00,1.63
8965.00,1.63
8964.00,1.63
8963.00,1.63
8962.00,1.62
8961.00,1.62
8960.00,1.62
8959.00,1.62
8958.00,1.61
8957.00,1.61
8956.00,1.61
8955.00,1.61
8954.00,1.60
8953.00,1.60
8952.00,1.60
8951.00,1.60
8950.00,1.60
8949.00,1.60
8948.00,1.60
8947.00,1.60
8946.00,1.60
8945.00,1.60
8944.00,1.60
8943.00,1.61
8942.00,1.61
8941.00,1.61
8940.00,1.61
8939.00,1.61
8938.00,1.62
8937.00,1.62
8936.00,1.62
8935.00,1.62
8934.00,1.63
8933.00,1.63
8932.00,1.63
8931.00,1.63
8930.00,1.63
8929.00,1.63
8928.00,1.64
8927.00,1.64
8926.00,1.64
8925.00,1.64
8924.00,1.64
8923.00,1.64
8922.00,1.64
8921.00,1.63
8920.00,1.63
8919.00,1.63
8918.00,1.63
8917.00,1.63
8916.00,1.62
8915.00,1.62
8914.00,1.62
8913.00,1.61
8912.00,1.61
8911.00,1.61
8910.00,1.61
8909.00,1.60
8908.00,1.60
8907.00,1.60
8906.00,1.60
8905.00,1.60
8904.00,1.60
8903.00,1.60
8902.00,1.60
8901.00,1.60
8900.00,1.60
8899.00,1.60
8898.00,1.60
8897.00,1.60
8896.00,1.60
8895.00,1.60
8894.00,1.60
8893.00,1.61
8892.00,1.61
8891.00,1.61
8890.00,1.61
8889.00,1.61
8888.00,1.61
8887.00,1.61
8886.00,1.61
8885.00,1.61
8884.00,1.61
8883.00,1.61
8882.00,1.61
8881.00,1.61
8880.00,1.61
8879.00,1.61
8878.00,1.61
8877.00,1.61
8876.00,1.61
8875.00,1.61
8874.00,1.61
8873.00,1.61
8872.00,1.61
8871.00,1.61
8870.00,1.61
8869.00,1.61
8868.00,1.62
8867.00,1.62
8866.00,1.62
8865.00,1.62
8864.00,1.62
8863.00,1.62
8862.00,1.62
8861.00,1.62
8860.00,1.62
8859.00,1.62
8858.00,1.62
8857.00,1.62
8856.00,1.62
8855.00,1.62
8854.00,1.62
8853.00,1.62
8852.00,1.62
8851.00,1.62
8850.00,1.62
8849.00,1.62
8848.00,1.62
8847.00,1.62
8846.00,1.62
8845.00,1.62
8844.00,1.63
8843.00,1.63
8842.00,1.63
8841.00,1.63
8840.00,1.63
8839.00,1.63
8838.00,1.63
8837.00,1.63
8836.00,1.63
8835.00,1.63
8834.00,1.63
8833.00,1.62
8832.00,1.62
8831.00,1.62
8830.00,1.62
8829.00,1.62
8828.00,1.62
8827.00,1.62
8826.00,1.62
8825.00,1.61
8824.00,1.61
8823.00,1.61
8822.00,1.61
8821.00,1.61
8820.00,1.61
8819.00,1.60
8818.00,1.60
8817.00,1.60
8816.00,1.60
8815.00,1.60
8814.00,1.59
8813.00,1.59
8812.00,1.59
8811.00,1.59
8810.00,1.59
8809.00,1.59
8808.00,1.58
8807.00,1.58
8806.00,1.58
8805.00,1.58
8804.00,1.58
8803.00,1.58
8802.00,1.58
8801.00,1.58
8800.00,1.58
8799.00,1.57
8798.00,1.57
8797.00,1.57
8796.00,1.57
8795.00,1.57
8794.00,1.57
8793.00,1.57
8792.00,1.57
8791.00,1.57
8790.00,1.57
8789.00,1.57
8788.00,1.57
8787.00,1.57
8786.00,1.57
8785.00,1.57
8784.00,1.57
8783.00,1.57
8782.00,1.57
8781.00,1.57
8780.00,1.57
8779.00,1.57
8778.00,1.57
8777.00,1.57
8776.00,1.57
8775.00,1.57
8774.00,1.57
8773.00,1.57
8772.00,1.57
8771.00,1.57
8770.00,1.57
8769.00,1.57
8768.00,1.57
8767.00,1.57
8766.00,1.57
8765.00,1.57
8764.00,1.57
8763.00,1.56
8762.00,1.56
8761.00,1.56
8760.00,1.56
8759.00,1.56
8758.00,1.55
8757.00,1.55
8756.00,1.55
8755.00,1.55
8754.00,1.55
8753.00,1.54
8752.00,1.54
8751.00,1.54
8750.00,1.54
8749.00,1.54
8748.00,1.54
8747.00,1.54
8746.00,1.54
8745.00,1.54
8744.00,1.54
8743.00,1.54
8742.00,1.54
8741.00,1.54
8740.00,1.54
8739.00,1.54
8738.00,1.54
8737.00,1.54
8736.00,1.54
8735.00,1.54
8734.00,1.53
8733.00,1.53
8732.00,1.53
8731.00,1.53
8730.00,1.53
8729.00,1.52
8728.00,1.52
8727.00,1.52
8726.00,1.52
8725.00,1.51
8724.00,1.51
8723.00,1.51
8722.00,1.51
8721.00,1.51
8720.00,1.50
8719.00,1.50
8718.00,1.50
8717.00,1.50
8716.00,1.50
8715.00,1.50
8714.00,1.50
8713.00,1.50
8712.00,1.51
8711.00,1.51
8710.00,1.51
8709.00,1.51
8708.00,1.51
8707.00,1.52
8706.00,1.52
8705.00,1.52
8704.00,1.52
8703.00,1.52
8702.00,1.53
8701.00,1.53
8700.00,1.53
8699.00,1.53
8698.00,1.53
8697.00,1.53
8696.00,1.53
8695.00,1.53
8694.00,1.53
8693.00,1.53
8692.00,1.53
8691.00,1.53
8690.00,1.53
8689.00,1.53
8688.00,1.53
8687.00,1.53
8686.00,1.52
8685.00,1.52
8684.00,1.52
8683.00,1.52
8682.00,1.52
8681.00,1.52
8680.00,1.51
8679.00,1.51
8678.00,1.51
8677.00,1.51
8676.00,1.51
8675.00,1.51
8674.00,1.51
8673.00,1.51
8672.00,1.51
8671.00,1.51
8670.00,1.51
8669.00,1.51
8668.00,1.51
8667.00,1.51
8666.00,1.51
8665.00,1.51
8664.00,1.51
8663.00,1.51
8662.00,1.51
8661.00,1.51
8660.00,1.51
8659.00,1.51
8658.00,1.51
8657.00,1.51
8656.00,1.51
8655.00,1.51
8654.00,1.51
8653.00,1.51
8652.00,1.52
8651.00,1.52
8650.00,1.52
8649.00,1.52
8648.00,1.52
8647.00,1.51
8646.00,1.51
8645.00,1.51
8644.00,1.51
8643.00,1.51
8642.00,1.50
8641.00,1.50
8640.00,1.50
8639.00,1.50
8638.00,1.49
8637.00,1.49
8636.00,1.49
8635.00,1.49
8634.00,1.49
8633.00,1.48
8632.00,1.48
8631.00,1.48
8630.00,1.48
8629.00,1.48
8628.00,1.48
8627.00,1.48
8626.00,1.48
8625.00,1.48
8624.00,1.48
8623.00,1.48
8622.00,1.48
8621.00,1.48
8620.00,1.48
8619.00,1.48
8618.00,1.48
8617.00,1.48
8616.00,1.48
8615.00,1.48
8614.00,1.48
8613.00,1.48
8612.00,1.48
8611.00,1.48
8610.00,1.48
8609.00,1.48
8608.00,1.48
8607.00,1.48
8606.00,1.48
8605.00,1.48
8604.00,1.48
8603.00,1.48
8602.00,1.48
8601.00,1.48
8600.00,1.48
8599.00,1.48
8598.00,1.47
8597.00,1.47
8596.00,1.47
8595.00,1.47
8594.00,1.47
8593.00,1.47
8592.00,1.47
8591.00,1.47
8590.00,1.47
8589.00,1.47
8588.00,1.47
8587.00,1.47
8586.00,1.47
8585.00,1.47
8584.00,1.47
8583.00,1.47
8582.00,1.47
8581.00,1.47
8580.00,1.47
8579.00,1.47
8578.00,1.46
8577.00,1.46
8576.00,1.46
8575.00,1.46
8574.00,1.46
8573.00,1.46
8572.00,1.46
8571.00,1.46
8570.00,1.46
8569.00,1.46
8568.00,1.46
8567.00,1.46
8566.00,1.46
8565.00,1.46
8564.00,1.46
8563.00,1.46
8562.00,1.46
8561.00,1.45
8560.00,1.45
8559.00,1.45
8558.00,1.45
8557.00,1.44
8556.00,1.44
8555.00,1.44
8554.00,1.43
8553.00,1.43
8552.00,1.43
8551.00,1.43
8550.00,1.43
8549.00,1.42
8548.00,1.42
8547.00,1.42
8546.00,1.42
8545.00,1.42
8544.00,1.42
8543.00,1.42
8542.00,1.43
8541.00,1.43
8540.00,1.43
8539.00,1.43
8538.00,1.43
8537.00,1.44
8536.00,1.44
8535.00,1.44
8534.00,1.44
8533.00,1.45
8532.00,1.45
8531.00,1.45
8530.00,1.45
8529.00,1.45
8528.00,1.46
8527.00,1.46
8526.00,1.46
8525.00,1.46
8524.00,1.46
8523.00,1.46
8522.00,1.46
8521.00,1.46
8520.00,1.46
8519.00,1.46
8518.00,1.45
8517.00,1.45
8516.00,1.45
8515.00,1.45
8514.00,1.45
8513.00,1.44
8512.00,1.44
8511.00,1.44
8510.00,1.44
8509.00,1.44
8508.00,1.43
8507.00,1.43
8506.00,1.43
8505.00,1.43
8504.00,1.43
8503.00,1.43
8502.00,1.43
8501.00,1.43
8500.00,1.42
8499.00,1.42
8498.00,1.42
8497.00,1.42
8496.00,1.42
8495.00,1.42
8494.00,1.42
8493.00,1.42
8492.00,1.41
8491.00,1.41
8490.00,1.41
8489.00,1.41
8488.00,1.41
8487.00,1.41
8486.00,1.41
8485.00,1.41
8484.00,1.41
8483.00,1.41
8482.00,1.41
8481.00,1.41
8480.00,1.41
8479.00,1.41
8478.00,1.41
8477.00,1.41
8476.00,1.41
8475.00,1.41
8474.00,1.41
8473.00,1.41
8472.00,1.41
8471.00,1.41
8470.00,1.40
8469.00,1.40
8468.00,1.40
8467.00,1.40
8466.00,1.39
8465.00,1.39
8464.00,1.39
8463.00,1.39
8462.00,1.38
8461.00,1.38
8460.00,1.38
8459.00,1.38
8458.00,1.37
8457.00,1.37
8456.00,1.37
8455.00,1.37
8454.00,1.37
8453.00,1.37
8452.00,1.37
8451.00,1.37
8450.00,1.37
8449.00,1.38
8448.00,1.38
8447.00,1.38
8446.00,1.38
8445.00,1.38
8444.00,1.38
8443.00,1.38
8442.00,1.39
8441.00,1.39
8440.00,1.39
8439.00,1.39
8438.00,1.39
8437.00,1.39
8436.00,1.39
8435.00,1.40
8434.00,1.40
8433.00,1.40
8432.00,1.40
8431.00,1.40
8430.00,1.40
8429.00,1.41
8428.00,1.41
8427.00,1.41
8426.00,1.41
8425.00,1.41
8424.00,1.41
8423.00,1.41
8422.00,1.41
8421.00,1.41
8420.00,1.41
8419.00,1.41
8418.00,1.41
8417.00,1.41
8416.00,1.41
8415.00,1.41
8414.00,1.41
8413.00,1.41
8412.00,1.41
8411.00,1.41
8410.00,1.41
8409.00,1.41
8408.00,1.41
8407.00,1.41
8406.00,1.41
8405.00,1.41
8404.00,1.41
8403.00,1.41
8402.00,1.41
8401.00,1.41
8400.00,1.41
8399.00,1.41
8398.00,1.41
8397.00,1.42
8396.00,1.42
8395.00,1.42
8394.00,1.42
8393.00,1.42
8392.00,1.42
8391.00,1.42
8390.00,1.42
8389.00,1.42
8388.00,1.42
8387.00,1.42
8386.00,1.43
8385.00,1.43
8384.00,1.43
8383.00,1.43
8382.00,1.43
8381.00,1.43
8380.00,1.43
8379.00,1.43
8378.00,1.43
8377.00,1.43
8376.00,1.43
8375.00,1.43
8374.00,1.43
8373.00,1.43
8372.00,1.43
8371.00,1.44
8370.00,1.44
8369.00,1.44
8368.00,1.44
8367.00,1.44
8366.00,1.44
8365.00,1.44
8364.00,1.44
8363.00,1.44
8362.00,1.44
8361.00,1.44
8360.00,1.44
8359.00,1.44
8358.00,1.44
8357.00,1.44
8356.00,1.44
8355.00,1.44
8354.00,1.44
8353.00,1.44
8352.00,1.44
8351.00,1.44
8350.00,1.44
8349.00,1.44
8348.00,1.44
8347.00,1.44
8346.00,1.45
8345.00,1.45
8344.00,1.45
8343.00,1.45
8342.00,1.45
8341.00,1.45
8340.00,1.45
8339.00,1.45
8338.00,1.45
8337.00,1.45
8336.00,1.45
8335.00,1.45
8334.00,1.45
8333.00,1.44
8332.00,1.44
8331.00,1.44
8330.00,1.44
8329.00,1.44
8328.00,1.44
8327.00,1.44
8326.00,1.44
8325.00,1.44
8324.00,1.44
8323.00,1.44
8322.00,1.44
8321.00,1.44
8320.00,1.44
8319.00,1.44
8318.00,1.45
8317.00,1.45
8316.00,1.45
8315.00,1.45
8314.00,1.45
8313.00,1.45
8312.00,1.45
8311.00,1.45
8310.00,1.45
8309.00,1.46
8308.00,1.46
8307.00,1.46
8306.00,1.46
8305.00,1.46
8304.00,1.46
8303.00,1.46
8302.00,1.46
8301.00,1.46
8300.00,1.46
8299.00,1.46
8298.00,1.46
8297.00,1.46
8296.00,1.46
8295.00,1.46
8294.00,1.46
8293.00,1.46
8292.00,1.46
8291.00,1.46
8290.00,1.47
8289.00,1.47
8288.00,1.47
8287.00,1.47
8286.00,1.47
8285.00,1.47
8284.00,1.47
8283.00,1.47
8282.00,1.47
8281.00,1.47
8280.00,1.47
8279.00,1.47
8278.00,1.46
8277.00,1.46
8276.00,1.46
8275.00,1.46
8274.00,1.46
8273.00,1.46
8272.00,1.46
8271.00,1.46
8270.00,1.46
8269.00,1.46
8268.00,1.46
8267.00,1.46
8266.00,1.46
8265.00,1.46
8264.00,1.46
8263.00,1.46
8262.00,1.46
8261.00,1.46
8260.00,1.47
8259.00,1.47
8258.00,1.47
8257.00,1.47
8256.00,1.47
8255.00,1.47
8254.00,1.47
8253.00,1.47
8252.00,1.47
8251.00,1.47
8250.00,1.47
8249.00,1.47
8248.00,1.47
8247.00,1.47
8246.00,1.47
8245.00,1.47
8244.00,1.47
8243.00,1.47
8242.00,1.46
8241.00,1.46
8240.00,1.46
8239.00,1.46
8238.00,1.46
8237.00,1.47
8236.00,1.47
8235.00,1.47
8234.00,1.47
8233.00,1.47
8232.00,1.47
8231.00,1.47
8230.00,1.47
8229.00,1.47
8228.00,1.47
8227.00,1.47
8226.00,1.47
8225.00,1.48
8224.00,1.48
8223.00,1.48
8222.00,1.48
8221.00,1.48
8220.00,1.48
8219.00,1.48
8218.00,1.48
8217.00,1.48
8216.00,1.48
8215.00,1.48
8214.00,1.48
8213.00,1.48
8212.00,1.48
8211.00,1.48
8210.00,1.49
8209.00,1.49
8208.00,1.49
8207.00,1.49
8206.00,1.49
8205.00,1.49
8204.00,1.49
8203.00,1.49
8202.00,1.49
8201.00,1.49
8200.00,1.50
8199.00,1.50
8198.00,1.50
8197.00,1.50
8196.00,1.50
8195.00,1.51
8194.00,1.51
8193.00,1.51
8192.00,1.51
8191.00,1.51
8190.00,1.52
8189.00,1.52
8188.00,1.52
8187.00,1.52
8186.00,1.52
8185.00,1.52
8184.00,1.52
8183.00,1.52
8182.00,1.51
8181.00,1.51
8180.00,1.51
8179.00,1.51
8178.00,1.51
8177.00,1.51
8176.00,1.51
8175.00,1.51
8174.00,1.51
8173.00,1.51
8172.00,1.51
8171.00,1.51
8170.00,1.51
8169.00,1.51
8168.00,1.51
8167.00,1.51
8166.00,1.51
8165.00,1.51
8164.00,1.51
8163.00,1.51
8162.00,1.51
8161.00,1.51
8160.00,1.51
8159.00,1.51
8158.00,1.52
8157.00,1.52
8156.00,1.52
8155.00,1.52
8154.00,1.52
8153.00,1.52
8152.00,1.52
8151.00,1.52
8150.00,1.52
8149.00,1.52
8148.00,1.53
8147.00,1.53
8146.00,1.53
8145.00,1.53
8144.00,1.53
8143.00,1.54
8142.00,1.54
8141.00,1.54
8140.00,1.54
8139.00,1.54
8138.00,1.54
8137.00,1.54
8136.00,1.54
8135.00,1.54
8134.00,1.54
8133.00,1.54
8132.00,1.54
8131.00,1.54
8130.00,1.54
8129.00,1.54
8128.00,1.54
8127.00,1.54
8126.00,1.54
8125.00,1.54
8124.00,1.54
8123.00,1.54
8122.00,1.54
8121.00,1.54
8120.00,1.54
8119.00,1.54
8118.00,1.54
8117.00,1.54
8116.00,1.54
8115.00,1.54
8114.00,1.54
8113.00,1.54
8112.00,1.54
8111.00,1.54
8110.00,1.53
8109.00,1.53
8108.00,1.53
8107.00,1.53
8106.00,1.53
8105.00,1.53
8104.00,1.53
8103.00,1.53
8102.00,1.53
8101.00,1.53
8100.00,1.53
8099.00,1.53
8098.00,1.53
8097.00,1.53
8096.00,1.53
8095.00,1.53
8094.00,1.53
8093.00,1.53
8092.00,1.53
8091.00,1.54
8090.00,1.54
8089.00,1.54
8088.00,1.54
8087.00,1.54
8086.00,1.54
8085.00,1.54
8084.00,1.54
8083.00,1.54
8082.00,1.54
8081.00,1.54
8080.00,1.54
8079.00,1.54
8078.00,1.54
8077.00,1.54
8076.00,1.54
8075.00,1.54
8074.00,1.54
8073.00,1.54
8072.00,1.55
8071.00,1.55
8070.00,1.55
8069.00,1.55
8068.00,1.55
8067.00,1.55
8066.00,1.55
8065.00,1.55
8064.00,1.56
8063.00,1.56
8062.00,1.56
8061.00,1.56
8060.00,1.56
8059.00,1.56
8058.00,1.56
8057.00,1.56
8056.00,1.56
8055.00,1.56
8054.00,1.56
8053.00,1.56
8052.00,1.56
8051.00,1.56
8050.00,1.55
8049.00,1.55
8048.00,1.55
8047.00,1.55
8046.00,1.55
8045.00,1.55
8044.00,1.55
8043.00,1.55
8042.00,1.55
8041.00,1.55
8040.00,1.55
8039.00,1.56
8038.00,1.56
8037.00,1.56
8036.00,1.56
8035.00,1.56
8034.00,1.56
8033.00,1.56
8032.00,1.56
8031.00,1.56
8030.00,1.57
8029.00,1.57
8028.00,1.57
8027.00,1.57
8026.00,1.57
8025.00,1.57
8024.00,1.57
8023.00,1.57
8022.00,1.57
8021.00,1.57
8020.00,1.57
8019.00,1.58
8018.00,1.58
8017.00,1.58
8016.00,1.58
8015.00,1.58
8014.00,1.58
8013.00,1.58
8012.00,1.58
8011.00,1.58
8010.00,1.58
8009.00,1.58
8008.00,1.57
8007.00,1.57
8006.00,1.57
8005.00,1.57
8004.00,1.57
8003.00,1.57
8002.00,1.57
8001.00,1.57
8000.00,1.57
7999.00,1.57
7998.00,1.57
7997.00,1.58
7996.00,1.58
7995.00,1.58
7994.00,1.58
7993.00,1.58
7992.00,1.58
7991.00,1.58
7990.00,1.58
7989.00,1.58
7988.00,1.58
7987.00,1.58
7986.00,1.58
7985.00,1.58
7984.00,1.58
7983.00,1.58
7982.00,1.58
7981.00,1.58
7980.00,1.58
7979.00,1.58
7978.00,1.58
7977.00,1.58
7976.00,1.58
7975.00,1.58
7974.00,1.58
7973.00,1.58
7972.00,1.58
7971.00,1.58
7970.00,1.58
7969.00,1.58
7968.00,1.58
7967.00,1.59
7966.00,1.59
7965.00,1.59
7964.00,1.59
7963.00,1.59
7962.00,1.59
7961.00,1.59
7960.00,1.58
7959.00,1.58
7958.00,1.58
7957.00,1.58
7956.00,1.58
7955.00,1.58
7954.00,1.58
7953.00,1.59
7952.00,1.59
7951.00,1.59
7950.00,1.59
7949.00,1.59
7948.00,1.59
7947.00,1.59
7946.00,1.59
7945.00,1.59
7944.00,1.59
7943.00,1.59
7942.00,1.59
7941.00,1.60
7940.00,1.60
7939.00,1.60
7938.00,1.60
7937.00,1.60
7936.00,1.60
7935.00,1.60
7934.00,1.60
7933.00,1.59
7932.00,1.59
7931.00,1.59
7930.00,1.59
7929.00,1.59
7928.00,1.59
7927.00,1.59
7926.00,1.59
7925.00,1.59
7924.00,1.59
7923.00,1.59
7922.00,1.59
7921.00,1.59
7920.00,1.59
7919.00,1.59
7918.00,1.59
7917.00,1.59
7916.00,1.60
7915.00,1.60
7914.00,1.60
7913.00,1.60
7912.00,1.60
7911.00,1.60
7910.00,1.60
7909.00,1.60
7908.00,1.60
7907.00,1.60
7906.00,1.60
7905.00,1.60
7904.00,1.60
7903.00,1.60
7902.00,1.60
7901.00,1.60
7900.00,1.60
7899.00,1.60
7898.00,1.60
7897.00,1.60
7896.00,1.60
7895.00,1.60
7894.00,1.60
7893.00,1.60
7892.00,1.60
7891.00,1.60
7890.00,1.60
7889.00,1.60
7888.00,1.60
7887.00,1.60
7886.00,1.60
7885.00,1.60
7884.00,1.60
7883.00,1.60
7882.00,1.60
7881.00,1.60
7880.00,1.60
7879.00,1.60
7878.00,1.61
7877.00,1.61
7876.00,1.61
7875.00,1.61
7874.00,1.61
7873.00,1.61
7872.00,1.61
7871.00,1.61
7870.00,1.61
7869.00,1.61
7868.00,1.61
7867.00,1.61
7866.00,1.61
7865.00,1.61
7864.00,1.61
7863.00,1.61
7862.00,1.61
7861.00,1.61
7860.00,1.61
7859.00,1.61
7858.00,1.61
7857.00,1.61
7856.00,1.61
7855.00,1.61
7854.00,1.61
7853.00,1.61
7852.00,1.61
7851.00,1.61
7850.00,1.61
7849.00,1.61
7848.00,1.61
7847.00,1.61
7846.00,1.61
7845.00,1.61
7844.00,1.61
7843.00,1.62
7842.00,1.62
7841.00,1.62
7840.00,1.62
7839.00,1.62
7838.00,1.62
7837.00,1.62
7836.00,1.62
7835.00,1.62
7834.00,1.62
7833.00,1.62
7832.00,1.62
7831.00,1.62
7830.00,1.62
7829.00,1.62
7828.00,1.62
7827.00,1.62
7826.00,1.62
7825.00,1.62
7824.00,1.62
7823.00,1.62
7822.00,1.62
7821.00,1.62
7820.00,1.62
7819.00,1.62
7818.00,1.62
7817.00,1.62
7816.00,1.62
7815.00,1.62
7814.00,1.62
7813.00,1.62
7812.00,1.62
7811.00,1.62
7810.00,1.62
7809.00,1.62
7808.00,1.62
7807.00,1.63
7806.00,1.63
7805.00,1.63
7804.00,1.63
7803.00,1.63
7802.00,1.63
7801.00,1.63
7800.00,1.63
7799.00,1.63
7798.00,1.63
7797.00,1.63
7796.00,1.63
7795.00,1.64
7794.00,1.64
7793.00,1.64
7792.00,1.64
7791.00,1.64
7790.00,1.63
7789.00,1.63
7788.00,1.63
7787.00,1.63
7786.00,1.63
7785.00,1.63
7784.00,1.63
7783.00,1.63
7782.00,1.63
7781.00,1.63
7780.00,1.62
7779.00,1.62
7778.00,1.62
7777.00,1.62
7776.00,1.62
7775.00,1.62
7774.00,1.62
7773.00,1.62
7772.00,1.62
7771.00,1.62
7770.00,1.62
7769.00,1.63
7768.00,1.63
7767.00,1.63
7766.00,1.63
7765.00,1.63
7764.00,1.63
7763.00,1.63
7762.00,1.63
7761.00,1.63
7760.00,1.63
7759.00,1.63
7758.00,1.63
7757.00,1.63
7756.00,1.63
7755.00,1.63
7754.00,1.63
7753.00,1.63
7752.00,1.63
7751.00,1.63
7750.00,1.63
7749.00,1.63
7748.00,1.63
7747.00,1.63
7746.00,1.63
7745.00,1.63
7744.00,1.63
7743.00,1.63
7742.00,1.63
7741.00,1.63
7740.00,1.63
7739.00,1.63
7738.00,1.63
7737.00,1.63
7736.00,1.63
7735.00,1.63
7734.00,1.63
7733.00,1.63
7732.00,1.63
7731.00,1.63
7730.00,1.63
7729.00,1.63
7728.00,1.63
7727.00,1.63
7726.00,1.63
7725.00,1.63
7724.00,1.64
7723.00,1.64
7722.00,1.64
7721.00,1.64
7720.00,1.64
7719.00,1.64
7718.00,1.64
7717.00,1.64
7716.00,1.64
7715.00,1.64
7714.00,1.64
7713.00,1.64
7712.00,1.64
7711.00,1.64
7710.00,1.64
7709.00,1.64
7708.00,1.64
7707.00,1.64
7706.00,1.64
7705.00,1.64
7704.00,1.64
7703.00,1.64
7702.00,1.64
7701.00,1.64
7700.00,1.64
7699.00,1.64
7698.00,1.64
7697.00,1.64
7696.00,1.64
7695.00,1.64
7694.00,1.64
7693.00,1.64
7692.00,1.64
7691.00,1.64
7690.00,1.64
7689.00,1.64
7688.00,1.64
7687.00,1.63
7686.00,1.63
7685.00,1.63
7684.00,1.63
7683.00,1.63
7682.00,1.63
7681.00,1.63
7680.00,1.63
7679.00,1.63
7678.00,1.63
7677.00,1.63
7676.00,1.63
7675.00,1.63
7674.00,1.63
7673.00,1.63
7672.00,1.63
7671.00,1.63
7670.00,1.63
7669.00,1.63
7668.00,1.63
7667.00,1.63
7666.00,1.63
7665.00,1.63
7664.00,1.63
7663.00,1.63
7662.00,1.63
7661.00,1.63
7660.00,1.63
7659.00,1.63
7658.00,1.63
7657.00,1.63
7656.00,1.63
7655.00,1.63
7654.00,1.63
7653.00,1.63
7652.00,1.63
7651.00,1.63
7650.00,1.63
7649.00,1.63
7648.00,1.63
7647.00,1.63
7646.00,1.63
7645.00,1.63
7644.00,1.63
7643.00,1.63
7642.00,1.63
7641.00,1.63
7640.00,1.63
7639.00,1.63
7638.00,1.63
7637.00,1.63
7636.00,1.63
7635.00,1.63
7634.00,1.63
7633.00,1.64
7632.00,1.64
7631.00,1.64
7630.00,1.64
7629.00,1.64
7628.00,1.64
7627.00,1.64
7626.00,1.64
7625.00,1.64
7624.00,1.64
7623.00,1.63
7622.00,1.63
7621.00,1.63
7620.00,1.63
7619.00,1.63
7618.00,1.63
7617.00,1.63
7616.00,1.63
7615.00,1.63
7614.00,1.63
7613.00,1.63
7612.00,1.63
7611.00,1.63
7610.00,1.63
7609.00,1.63
7608.00,1.63
7607.00,1.63
7606.00,1.63
7605.00,1.63
7604.00,1.63
7603.00,1.63
7602.00,1.63
7601.00,1.63
7600.00,1.63
7599.00,1.63
7598.00,1.62
7597.00,1.62
7596.00,1.62
7595.00,1.62
7594.00,1.62
7593.00,1.62
7592.00,1.62
7591.00,1.62
7590.00,1.62
7589.00,1.62
7588.00,1.62
7587.00,1.62
7586.00,1.62
7585.00,1.62
7584.00,1.62
7583.00,1.62
7582.00,1.61
7581.00,1.61
7580.00,1.61
7579.00,1.61
7578.00,1.61
7577.00,1.61
7576.00,1.61
7575.00,1.61
7574.00,1.61
7573.00,1.61
7572.00,1.61
7571.00,1.61
7570.00,1.61
7569.00,1.61
7568.00,1.61
7567.00,1.61
7566.00,1.61
7565.00,1.61
7564.00,1.61
7563.00,1.61
7562.00,1.61
7561.00,1.62
7560.00,1.62
7559.00,1.62
7558.00,1.62
7557.00,1.62
7556.00,1.62
7555.00,1.62
7554.00,1.62
7553.00,1.62
7552.00,1.62
7551.00,1.61
7550.00,1.61
7549.00,1.61
7548.00,1.61
7547.00,1.61
7546.00,1.61
7545.00,1.61
7544.00,1.60
7543.00,1.60
7542.00,1.60
7541.00,1.60
7540.00,1.60
7539.00,1.60
7538.00,1.60
7537.00,1.59
7536.00,1.59
7535.00,1.59
7534.00,1.59
7533.00,1.59
7532.00,1.59
7531.00,1.59
7530.00,1.59
7529.00,1.58
7528.00,1.58
7527.00,1.58
7526.00,1.58
7525.00,1.58
7524.00,1.58
7523.00,1.58
7522.00,1.58
7521.00,1.58
7520.00,1.58
7519.00,1.58
7518.00,1.58
7517.00,1.57
7516.00,1.57
7515.00,1.57
7514.00,1.57
7513.00,1.57
7512.00,1.57
7511.00,1.57
7510.00,1.57
7509.00,1.56
7508.00,1.56
7507.00,1.56
7506.00,1.56
7505.00,1.56
7504.00,1.56
7503.00,1.56
7502.00,1.56
7501.00,1.56
7500.00,1.56
7499.00,1.55
7498.00,1.55
7497.00,1.55
7496.00,1.55
7495.00,1.55
7494.00,1.55
7493.00,1.55
7492.00,1.55
7491.00,1.55
7490.00,1.55
7489.00,1.55
7488.00,1.55
7487.00,1.55
7486.00,1.55
7485.00,1.55
7484.00,1.54
7483.00,1.54
7482.00,1.54
7481.00,1.54
7480.00,1.54
7479.00,1.54
7478.00,1.54
7477.00,1.54
7476.00,1.53
7475.00,1.53
7474.00,1.53
7473.00,1.53
7472.00,1.53
7471.00,1.53
7470.00,1.53
7469.00,1.53
7468.00,1.53
7467.00,1.52
7466.00,1.52
7465.00,1.52
7464.00,1.52
7463.00,1.52
7462.00,1.52
7461.00,1.52
7460.00,1.52
7459.00,1.52
7458.00,1.52
7457.00,1.52
7456.00,1.52
7455.00,1.51
7454.00,1.51
7453.00,1.51
7452.00,1.51
7451.00,1.51
7450.00,1.51
7449.00,1.51
7448.00,1.51
7447.00,1.51
7446.00,1.50
7445.00,1.50
7444.00,1.50
7443.00,1.50
7442.00,1.50
7441.00,1.50
7440.00,1.50
7439.00,1.49
7438.00,1.49
7437.00,1.49
7436.00,1.49
7435.00,1.49
7434.00,1.49
7433.00,1.48
7432.00,1.48
7431.00,1.48
7430.00,1.48
7429.00,1.48
7428.00,1.48
7427.00,1.48
7426.00,1.47
7425.00,1.47
7424.00,1.47
7423.00,1.47
7422.00,1.47
7421.00,1.47
7420.00,1.47
7419.00,1.47
7418.00,1.47
7417.00,1.46
7416.00,1.46
7415.00,1.46
7414.00,1.46
7413.00,1.46
7412.00,1.46
7411.00,1.46
7410.00,1.46
7409.00,1.45
7408.00,1.45
7407.00,1.45
7406.00,1.45
7405.00,1.45
7404.00,1.45
7403.00,1.45
7402.00,1.45
7401.00,1.45
7400.00,1.45
7399.00,1.44
7398.00,1.44
7397.00,1.44
7396.00,1.44
7395.00,1.44
7394.00,1.44
7393.00,1.44
7392.00,1.44
7391.00,1.44
7390.00,1.44
7389.00,1.44
7388.00,1.43
7387.00,1.43
7386.00,1.43
7385.00,1.43
7384.00,1.43
7383.00,1.43
7382.00,1.43
7381.00,1.42
7380.00,1.42
7379.00,1.42
7378.00,1.42
7377.00,1.42
7376.00,1.42
7375.00,1.42
7374.00,1.42
7373.00,1.42
7372.00,1.42
7371.00,1.42
7370.00,1.42
7369.00,1.42
7368.00,1.42
7367.00,1.42
7366.00,1.43
7365.00,1.43
7364.00,1.43
7363.00,1.43
7362.00,1.43
7361.00,1.43
7360.00,1.42
7359.00,1.42
7358.00,1.42
7357.00,1.42
7356.00,1.42
7355.00,1.42
7354.00,1.42
7353.00,1.42
7352.00,1.41
7351.00,1.41
7350.00,1.41
7349.00,1.41
7348.00,1.41
7347.00,1.41
7346.00,1.40
7345.00,1.40
7344.00,1.40
7343.00,1.40
7342.00,1.40
7341.00,1.40
7340.00,1.40
7339.00,1.40
7338.00,1.40
7337.00,1.40
7336.00,1.40
7335.00,1.39
7334.00,1.39
7333.00,1.39
7332.00,1.39
7331.00,1.39
7330.00,1.39
7329.00,1.39
7328.00,1.39
7327.00,1.39
7326.00,1.38
7325.00,1.38
7324.00,1.38
7323.00,1.38
7322.00,1.38
7321.00,1.38
7320.00,1.38
7319.00,1.38
7318.00,1.38
7317.00,1.38
7316.00,1.38
7315.00,1.38
7314.00,1.38
7313.00,1.38
7312.00,1.38
7311.00,1.38
7310.00,1.38
7309.00,1.38
7308.00,1.38
7307.00,1.37
7306.00,1.37
7305.00,1.37
7304.00,1.37
7303.00,1.37
7302.00,1.37
7301.00,1.37
7300.00,1.36
7299.00,1.36
7298.00,1.36
7297.00,1.36
7296.00,1.35
7295.00,1.35
7294.00,1.35
7293.00,1.35
7292.00,1.34
7291.00,1.34
7290.00,1.34
7289.00,1.34
7288.00,1.33
7287.00,1.33
7286.00,1.33
7285.00,1.33
7284.00,1.33
7283.00,1.32
7282.00,1.32
7281.00,1.32
7280.00,1.32
7279.00,1.32
7278.00,1.32
7277.00,1.32
7276.00,1.31
7275.00,1.31
7274.00,1.31
7273.00,1.31
7272.00,1.31
7271.00,1.31
7270.00,1.31
7269.00,1.31
7268.00,1.30
7267.00,1.30
7266.00,1.30
7265.00,1.30
7264.00,1.30
7263.00,1.29
7262.00,1.29
7261.00,1.29
7260.00,1.28
7259.00,1.28
7258.00,1.28
7257.00,1.27
7256.00,1.27
7255.00,1.27
7254.00,1.26
7253.00,1.26
7252.00,1.25
7251.00,1.25
7250.00,1.24
7249.00,1.24
7248.00,1.23
7247.00,1.23
7246.00,1.23
7245.00,1.22
7244.00,1.22
7243.00,1.21
7242.00,1.21
7241.00,1.20
7240.00,1.20
7239.00,1.20
7238.00,1.19
7237.00,1.19
7236.00,1.18
7235.00,1.18
7234.00,1.18
7233.00,1.17
7232.00,1.17
7231.00,1.16
7230.00,1.16
7229.00,1.15
7228.00,1.15
7227.00,1.15
7226.00,1.14
7225.00,1.14
7224.00,1.13
7223.00,1.13
7222.00,1.12
7221.00,1.12
7220.00,1.11
7219.00,1.11
7218.00,1.10
7217.00,1.09
7216.00,1.09
7215.00,1.08
7214.00,1.08
7213.00,1.07
7212.00,1.07
7211.00,1.06
7210.00,1.06
7209.00,1.06
7208.00,1.05
7207.00,1.05
7206.00,1.04
7205.00,1.04
7204.00,1.04
7203.00,1.03
7202.00,1.03
7201.00,1.03
7200.00,1.02
7199.00,1.02
7198.00,1.01
7197.00,1.01
7196.00,1.01
7195.00,1.00
7194.00,1.00
7193.00,0.99
7192.00,0.99
7191.00,0.98
7190.00,0.98
7189.00,0.97
7188.00,0.96
7187.00,0.96
7186.00,0.95
7185.00,0.95
7184.00,0.94
7183.00,0.94
7182.00,0.93
7181.00,0.93
7180.00,0.92
7179.00,0.92
7178.00,0.91
7177.00,0.91
7176.00,0.90
7175.00,0.90
7174.00,0.89
7173.00,0.89
7172.00,0.89
7171.00,0.88
7170.00,0.88
7169.00,0.88
7168.00,0.87
7167.00,0.87
7166.00,0.87
7165.00,0.86
7164.00,0.86
7163.00,0.86
7162.00,0.86
7161.00,0.85
7160.00,0.85
7159.00,0.85
7158.00,0.85
7157.00,0.85
7156.00,0.84
7155.00,0.84
7154.00,0.84
7153.00,0.84
7152.00,0.83
7151.00,0.83
7150.00,0.83
7149.00,0.83
7148.00,0.82
7147.00,0.82
7146.00,0.82
7145.00,0.81
7144.00,0.81
7143.00,0.81
7142.00,0.80
7141.00,0.80
7140.00,0.80
7139.00,0.79
7138.00,0.79
7137.00,0.79
7136.00,0.78
7135.00,0.78
7134.00,0.78
7133.00,0.78
7132.00,0.77
7131.00,0.77
7130.00,0.77
7129.00,0.77
7128.00,0.77
7127.00,0.76
7126.00,0.76
7125.00,0.76
7124.00,0.76
7123.00,0.76
7122.00,0.76
7121.00,0.76
7120.00,0.76
7119.00,0.76
7118.00,0.75
7117.00,0.75
7116.00,0.75
7115.00,0.75
7114.00,0.75
7113.00,0.75
7112.00,0.75
7111.00,0.74
7110.00,0.74
7109.00,0.74
7108.00,0.74
7107.00,0.74
7106.00,0.73
7105.00,0.73
7104.00,0.73
7103.00,0.73
7102.00,0.73
7101.00,0.72
7100.00,0.72
7099.00,0.72
7098.00,0.72
7097.00,0.72
7096.00,0.72
7095.00,0.72
7094.00,0.72
7093.00,0.72
7092.00,0.72
7091.00,0.71
7090.00,0.71
7089.00,0.71
7088.00,0.71
7087.00,0.71
7086.00,0.71
7085.00,0.71
7084.00,0.71
7083.00,0.71
7082.00,0.70
7081.00,0.70
7080.00,0.70
7079.00,0.70
7078.00,0.70
7077.00,0.70
7076.00,0.70
7075.00,0.70
7074.00,0.70
7073.00,0.70
7072.00,0.70
7071.00,0.69
7070.00,0.69
7069.00,0.69
7068.00,0.69
7067.00,0.69
7066.00,0.69
7065.00,0.69
7064.00,0.69
7063.00,0.69
7062.00,0.69
7061.00,0.68
7060.00,0.68
7059.00,0.68
7058.00,0.68
7057.00,0.68
7056.00,0.68
7055.00,0.68
7054.00,0.68
7053.00,0.68
7052.00,0.68
7051.00,0.68
7050.00,0.68
7049.00,0.69
7048.00,0.69
7047.00,0.69
7046.00,0.69
7045.00,0.69
7044.00,0.69
7043.00,0.69
7042.00,0.69
7041.00,0.69
7040.00,0.69
7039.00,0.69
7038.00,0.68
7037.00,0.68
7036.00,0.68
7035.00,0.68
7034.00,0.68
7033.00,0.68
7032.00,0.68
7031.00,0.68
7030.00,0.68
7029.00,0.68
7028.00,0.68
7027.00,0.68
7026.00,0.68
7025.00,0.68
7024.00,0.68
7023.00,0.68
7022.00,0.68
7021.00,0.68
7020.00,0.68
7019.00,0.68
7018.00,0.68
7017.00,0.68
7016.00,0.68
7015.00,0.68
7014.00,0.68
7013.00,0.68
7012.00,0.68
7011.00,0.68
7010.00,0.68
7009.00,0.68
7008.00,0.68
7007.00,0.68
7006.00,0.68
7005.00,0.68
7004.00,0.68
7003.00,0.68
7002.00,0.68
7001.00,0.68
7000.00,0.68
6999.00,0.68
6998.00,0.68
6997.00,0.68
6996.00,0.68
6995.00,0.68
6994.00,0.68
6993.00,0.68
6992.00,0.68
6991.00,0.68
6990.00,0.68
6989.00,0.68
6988.00,0.68
6987.00,0.68
6986.00,0.67
6985.00,0.67
6984.00,0.67
6983.00,0.67
6982.00,0.67
6981.00,0.67
6980.00,0.67
6979.00,0.67
6978.00,0.67
6977.00,0.67
6976.00,0.67
6975.00,0.67
6974.00,0.67
6973.00,0.67
6972.00,0.67
6971.00,0.67
6970.00,0.67
6969.00,0.67
6968.00,0.67
6967.00,0.67
6966.00,0.68
6965.00,0.68
6964.00,0.68
6963.00,0.68
6962.00,0.68
6961.00,0.68
6960.00,0.68
6959.00,0.68
6958.00,0.68
6957.00,0.68
6956.00,0.68
6955.00,0.69
6954.00,0.69
6953.00,0.69
6952.00,0.69
6951.00,0.69
6950.00,0.69
6949.00,0.69
6948.00,0.69
6947.00,0.69
6946.00,0.69
6945.00,0.69
6944.00,0.69
6943.00,0.69
6942.00,0.68
6941.00,0.68
6940.00,0.68
6939.00,0.68
6938.00,0.68
6937.00,0.68
6936.00,0.68
6935.00,0.68
6934.00,0.68
6933.00,0.68
6932.00,0.68
6931.00,0.68
6930.00,0.68
6929.00,0.68
6928.00,0.68
6927.00,0.68
6926.00,0.68
6925.00,0.68
6924.00,0.68
6923.00,0.68
6922.00,0.68
6921.00,0.68
6920.00,0.68
6919.00,0.68
6918.00,0.68
6917.00,0.68
6916.00,0.68
6915.00,0.68
6914.00,0.68
6913.00,0.68
6912.00,0.68
6911.00,0.68
6910.00,0.68
6909.00,0.68
6908.00,0.68
6907.00,0.68
6906.00,0.68
6905.00,0.68
6904.00,0.68
6903.00,0.68
6902.00,0.68
6901.00,0.68
6900.00,0.68
6899.00,0.68
6898.00,0.68
6897.00,0.68
6896.00,0.68
6895.00,0.68
6894.00,0.68
6893.00,0.68
6892.00,0.68
6891.00,0.68
6890.00,0.68
6889.00,0.68
6888.00,0.68
6887.00,0.68
6886.00,0.68
6885.00,0.68
6884.00,0.68
6883.00,0.68
6882.00,0.68
6881.00,0.68
6880.00,0.68
6879.00,0.68
6878.00,0.68
6877.00,0.68
6876.00,0.68
6875.00,0.68
6874.00,0.68
6873.00,0.68
6872.00,0.68
6871.00,0.68
6870.00,0.68
6869.00,0.68
6868.00,0.68
6867.00,0.68
6866.00,0.68
6865.00,0.68
6864.00,0.68
6863.00,0.68
6862.00,0.68
6861.00,0.68
6860.00,0.68
6859.00,0.68
6858.00,0.68
6857.00,0.69
6856.00,0.69
6855.00,0.69
6854.00,0.69
6853.00,0.69
6852.00,0.69
6851.00,0.69
6850.00,0.69
6849.00,0.69
6848.00,0.69
6847.00,0.69
6846.00,0.69
6845.00,0.69
6844.00,0.70
6843.00,0.70
6842.00,0.70
6841.00,0.70
6840.00,0.70
6839.00,0.70
6838.00,0.70
6837.00,0.70
6836.00,0.70
6835.00,0.70
6834.00,0.70
6833.00,0.70
6832.00,0.70
6831.00,0.70
6830.00,0.70
6829.00,0.70
6828.00,0.70
6827.00,0.70
6826.00,0.70
6825.00,0.70
6824.00,0.70
6823.00,0.70
6822.00,0.70
6821.00,0.70
6820.00,0.70
6819.00,0.70
6818.00,0.70
6817.00,0.70
6816.00,0.70
6815.00,0.70
6814.00,0.70
6813.00,0.70
6812.00,0.70
6811.00,0.70
6810.00,0.71
6809.00,0.71
6808.00,0.71
6807.00,0.71
6806.00,0.71
6805.00,0.71
6804.00,0.71
6803.00,0.71
6802.00,0.71
6801.00,0.71
6800.00,0.71
6799.00,0.71
6798.00,0.71
6797.00,0.71
6796.00,0.71
6795.00,0.71
6794.00,0.71
6793.00,0.71
6792.00,0.71
6791.00,0.71
6790.00,0.71
6789.00,0.71
6788.00,0.71
6787.00,0.71
6786.00,0.71
6785.00,0.71
6784.00,0.71
6783.00,0.71
6782.00,0.71
6781.00,0.71
6780.00,0.71
6779.00,0.71
6778.00,0.71
6777.00,0.71
6776.00,0.71
6775.00,0.72
6774.00,0.72
6773.00,0.72
6772.00,0.72
6771.00,0.72
6770.00,0.72
6769.00,0.72
6768.00,0.72
6767.00,0.72
6766.00,0.72
6765.00,0.72
6764.00,0.72
6763.00,0.72
6762.00,0.72
6761.00,0.72
6760.00,0.72
6759.00,0.72
6758.00,0.72
6757.00,0.72
6756.00,0.72
6755.00,0.72
6754.00,0.72
6753.00,0.72
6752.00,0.72
6751.00,0.72
6750.00,0.72
6749.00,0.72
6748.00,0.72
6747.00,0.72
6746.00,0.72
6745.00,0.72
6744.00,0.72
6743.00,0.72
6742.00,0.72
6741.00,0.72
6740.00,0.72
6739.00,0.72
6738.00,0.72
6737.00,0.72
6736.00,0.72
6735.00,0.72
6734.00,0.72
6733.00,0.72
6732.00,0.72
6731.00,0.72
6730.00,0.72
6729.00,0.73
6728.00,0.73
6727.00,0.73
6726.00,0.73
6725.00,0.73
6724.00,0.73
6723.00,0.73
6722.00,0.73
6721.00,0.74
6720.00,0.74
6719.00,0.74
6718.00,0.74
6717.00,0.74
6716.00,0.74
6715.00,0.74
6714.00,0.74
6713.00,0.74
6712.00,0.74
6711.00,0.74
6710.00,0.74
6709.00,0.75
6708.00,0.75
6707.00,0.75
6706.00,0.75
6705.00,0.75
6704.00,0.75
6703.00,0.75
6702.00,0.75
6701.00,0.75
6700.00,0.75
6699.00,0.75
6698.00,0.75
6697.00,0.75
6696.00,0.75
6695.00,0.75
6694.00,0.75
6693.00,0.75
6692.00,0.76
6691.00,0.76
6690.00,0.75
6689.00,0.75
6688.00,0.75
6687.00,0.75
6686.00,0.75
6685.00,0.75
6684.00,0.75
6683.00,0.75
6682.00,0.75
6681.00,0.75
6680.00,0.75
6679.00,0.75
6678.00,0.75
6677.00,0.75
6676.00,0.75
6675.00,0.75
6674.00,0.75
6673.00,0.75
6672.00,0.75
6671.00,0.75
6670.00,0.75
6669.00,0.75
6668.00,0.75
6667.00,0.76
6666.00,0.76
6665.00,0.76
6664.00,0.76
6663.00,0.76
6662.00,0.76
6661.00,0.76
6660.00,0.76
6659.00,0.77
6658.00,0.77
6657.00,0.77
6656.00,0.77
6655.00,0.77
6654.00,0.77
6653.00,0.77
6652.00,0.77
6651.00,0.77
6650.00,0.77
6649.00,0.77
6648.00,0.78
6647.00,0.78
6646.00,0.78
6645.00,0.78
6644.00,0.78
6643.00,0.78
6642.00,0.78
6641.00,0.78
6640.00,0.78
6639.00,0.78
6638.00,0.78
6637.00,0.78
6636.00,0.78
6635.00,0.78
6634.00,0.78
6633.00,0.79
6632.00,0.79
6631.00,0.79
6630.00,0.79
6629.00,0.79
6628.00,0.79
6627.00,0.79
6626.00,0.79
6625.00,0.79
6624.00,0.79
6623.00,0.79
6622.00,0.79
6621.00,0.79
6620.00,0.79
6619.00,0.79
6618.00,0.79
6617.00,0.79
6616.00,0.79
6615.00,0.79
6614.00,0.79
6613.00,0.79
6612.00,0.79
6611.00,0.79
6610.00,0.79
6609.00,0.79
6608.00,0.79
6607.00,0.79
6606.00,0.80
6605.00,0.80
6604.00,0.80
6603.00,0.80
6602.00,0.80
6601.00,0.80
6600.00,0.80
6599.00,0.81
6598.00,0.81
6597.00,0.81
6596.00,0.81
6595.00,0.81
6594.00,0.81
6593.00,0.82
6592.00,0.82
6591.00,0.82
6590.00,0.82
6589.00,0.82
6588.00,0.82
6587.00,0.83
6586.00,0.83
6585.00,0.83
6584.00,0.83
6583.00,0.83
6582.00,0.83
6581.00,0.84
6580.00,0.84
6579.00,0.84
6578.00,0.84
6577.00,0.84
6576.00,0.84
6575.00,0.84
6574.00,0.84
6573.00,0.84
6572.00,0.84
6571.00,0.84
6570.00,0.84
6569.00,0.84
6568.00,0.84
6567.00,0.84
6566.00,0.84
6565.00,0.84
6564.00,0.84
6563.00,0.84
6562.00,0.84
6561.00,0.84
6560.00,0.84
6559.00,0.84
6558.00,0.84
6557.00,0.84
6556.00,0.84
6555.00,0.84
6554.00,0.84
6553.00,0.84
6552.00,0.84
6551.00,0.84
6550.00,0.84
6549.00,0.84
6548.00,0.84
6547.00,0.84
6546.00,0.84
6545.00,0.84
6544.00,0.84
6543.00,0.84
6542.00,0.84
6541.00,0.84
6540.00,0.84
6539.00,0.85
6538.00,0.85
6537.00,0.85
6536.00,0.85
6535.00,0.85
6534.00,0.85
6533.00,0.85
6532.00,0.85
6531.00,0.85
6530.00,0.85
6529.00,0.85
6528.00,0.86
6527.00,0.86
6526.00,0.86
6525.00,0.86
6524.00,0.86
6523.00,0.86
6522.00,0.86
6521.00,0.87
6520.00,0.87
6519.00,0.87
6518.00,0.87
6517.00,0.87
6516.00,0.87
6515.00,0.88
6514.00,0.88
6513.00,0.88
6512.00,0.88
6511.00,0.88
6510.00,0.88
6509.00,0.88
6508.00,0.88
6507.00,0.88
6506.00,0.89
6505.00,0.89
6504.00,0.89
6503.00,0.89
6502.00,0.89
6501.00,0.89
6500.00,0.89
6499.00,0.89
6498.00,0.89
6497.00,0.90
6496.00,0.90
6495.00,0.90
6494.00,0.90
6493.00,0.90
6492.00,0.90
6491.00,0.90
6490.00,0.90
6489.00,0.90
6488.00,0.90
6487.00,0.90
6486.00,0.90
6485.00,0.90
6484.00,0.90
6483.00,0.90
6482.00,0.91
6481.00,0.91
6480.00,0.91
6479.00,0.91
6478.00,0.91
6477.00,0.91
6476.00,0.91
6475.00,0.91
6474.00,0.91
6473.00,0.91
6472.00,0.91
6471.00,0.91
6470.00,0.92
6469.00,0.92
6468.00,0.92
6467.00,0.92
6466.00,0.92
6465.00,0.92
6464.00,0.92
6463.00,0.92
6462.00,0.93
6461.00,0.93
6460.00,0.93
6459.00,0.93
6458.00,0.93
6457.00,0.93
6456.00,0.93
6455.00,0.93
6454.00,0.93
6453.00,0.93
6452.00,0.93
6451.00,0.93
6450.00,0.94
6449.00,0.94
6448.00,0.94
6447.00,0.94
6446.00,0.94
6445.00,0.94
6444.00,0.94
6443.00,0.94
6442.00,0.94
6441.00,0.94
6440.00,0.94
6439.00,0.94
6438.00,0.95
6437.00,0.95
6436.00,0.95
6435.00,0.95
6434.00,0.95
6433.00,0.95
6432.00,0.95
6431.00,0.95
6430.00,0.95
6429.00,0.95
6428.00,0.95
6427.00,0.95
6426.00,0.95
6425.00,0.96
6424.00,0.96
6423.00,0.96
6422.00,0.96
6421.00,0.96
6420.00,0.96
6419.00,0.96
6418.00,0.96
6417.00,0.96
6416.00,0.96
6415.00,0.96
6414.00,0.96
6413.00,0.96
6412.00,0.96
6411.00,0.96
6410.00,0.96
6409.00,0.96
6408.00,0.96
6407.00,0.97
6406.00,0.97
6405.00,0.97
6404.00,0.97
6403.00,0.97
6402.00,0.97
6401.00,0.98
6400.00,0.98
6399.00,0.98
6398.00,0.98
6397.00,0.98
6396.00,0.99
6395.00,0.99
6394.00,0.99
6393.00,0.99
6392.00,0.99
6391.00,0.99
6390.00,1.00
6389.00,1.00
6388.00,1.00
6387.00,1.00
6386.00,1.00
6385.00,1.00
6384.00,1.01
6383.00,1.01
6382.00,1.01
6381.00,1.01
6380.00,1.01
6379.00,1.01
6378.00,1.01
6377.00,1.01
6376.00,1.01
6375.00,1.01
6374.00,1.01
6373.00,1.01
6372.00,1.02
6371.00,1.02
6370.00,1.02
6369.00,1.02
6368.00,1.02
6367.00,1.02
6366.00,1.02
6365.00,1.02
6364.00,1.02
6363.00,1.02
6362.00,1.02
6361.00,1.03
6360.00,1.03
6359.00,1.03
6358.00,1.03
6357.00,1.03
6356.00,1.03
6355.00,1.03
6354.00,1.04
6353.00,1.04
6352.00,1.04
6351.00,1.04
6350.00,1.04
6349.00,1.04
6348.00,1.04
6347.00,1.05
6346.00,1.05
6345.00,1.05
6344.00,1.05
6343.00,1.05
6342.00,1.05
6341.00,1.05
6340.00,1.05
6339.00,1.05
6338.00,1.05
6337.00,1.05
6336.00,1.05
6335.00,1.05
6334.00,1.05
6333.00,1.05
6332.00,1.06
6331.00,1.06
6330.00,1.06
6329.00,1.06
6328.00,1.06
6327.00,1.06
6326.00,1.06
6325.00,1.07
6324.00,1.07
6323.00,1.07
6322.00,1.07
6321.00,1.07
6320.00,1.07
6319.00,1.08
6318.00,1.08
6317.00,1.08
6316.00,1.08
6315.00,1.08
6314.00,1.08
6313.00,1.08
6312.00,1.09
6311.00,1.09
6310.00,1.09
6309.00,1.09
6308.00,1.09
6307.00,1.09
6306.00,1.09
6305.00,1.09
6304.00,1.10
6303.00,1.10
6302.00,1.10
6301.00,1.10
6300.00,1.10
6299.00,1.10
6298.00,1.10
6297.00,1.10
6296.00,1.11
6295.00,1.11
6294.00,1.11
6293.00,1.11
6292.00,1.11
6291.00,1.11
6290.00,1.12
6289.00,1.12
6288.00,1.12
6287.00,1.12
6286.00,1.12
6285.00,1.12
6284.00,1.13
6283.00,1.13
6282.00,1.13
6281.00,1.13
6280.00,1.13
6279.00,1.13
6278.00,1.13
6277.00,1.14
6276.00,1.14
6275.00,1.14
6274.00,1.14
6273.00,1.14
6272.00,1.14
6271.00,1.14
6270.00,1.14
6269.00,1.14
6268.00,1.14
6267.00,1.15
6266.00,1.15
6265.00,1.15
6264.00,1.15
6263.00,1.15
6262.00,1.15
6261.00,1.15
6260.00,1.15
6259.00,1.15
6258.00,1.15
6257.00,1.16
6256.00,1.16
6255.00,1.16
6254.00,1.16
6253.00,1.16
6252.00,1.16
6251.00,1.16
6250.00,1.17
6249.00,1.17
6248.00,1.17
6247.00,1.17
6246.00,1.17
6245.00,1.18
6244.00,1.18
6243.00,1.18
6242.00,1.18
6241.00,1.18
6240.00,1.18
6239.00,1.19
6238.00,1.19
6237.00,1.19
6236.00,1.19
6235.00,1.19
6234.00,1.19
6233.00,1.20
6232.00,1.20
6231.00,1.20
6230.00,1.20
6229.00,1.20
6228.00,1.21
6227.00,1.21
6226.00,1.21
6225.00,1.21
6224.00,1.21
6223.00,1.22
6222.00,1.22
6221.00,1.22
6220.00,1.22
6219.00,1.22
6218.00,1.22
6217.00,1.22
6216.00,1.22
6215.00,1.22
6214.00,1.23
6213.00,1.23
6212.00,1.23
6211.00,1.23
6210.00,1.23
6209.00,1.23
6208.00,1.24
6207.00,1.24
6206.00,1.24
6205.00,1.24
6204.00,1.24
6203.00,1.25
6202.00,1.25
6201.00,1.25
6200.00,1.25
6199.00,1.26
6198.00,1.26
6197.00,1.26
6196.00,1.27
6195.00,1.27
6194.00,1.27
6193.00,1.27
6192.00,1.27
6191.00,1.28
6190.00,1.28
6189.00,1.28
6188.00,1.28
6187.00,1.28
6186.00,1.28
6185.00,1.29
6184.00,1.29
6183.00,1.29
6182.00,1.29
6181.00,1.29
6180.00,1.29
6179.00,1.29
6178.00,1.29
6177.00,1.29
6176.00,1.29
6175.00,1.29
6174.00,1.30
6173.00,1.30
6172.00,1.30
6171.00,1.30
6170.00,1.30
6169.00,1.30
6168.00,1.30
6167.00,1.30
6166.00,1.31
6165.00,1.31
6164.00,1.31
6163.00,1.31
6162.00,1.31
6161.00,1.31
6160.00,1.32
6159.00,1.32
6158.00,1.32
6157.00,1.32
6156.00,1.32
6155.00,1.32
6154.00,1.32
6153.00,1.33
6152.00,1.33
6151.00,1.33
6150.00,1.33
6149.00,1.33
6148.00,1.33
6147.00,1.33
6146.00,1.33
6145.00,1.34
6144.00,1.34
6143.00,1.34
6142.00,1.34
6141.00,1.34
6140.00,1.34
6139.00,1.35
6138.00,1.35
6137.00,1.35
6136.00,1.35
6135.00,1.35
6134.00,1.36
6133.00,1.36
6132.00,1.36
6131.00,1.36
6130.00,1.36
6129.00,1.36
6128.00,1.36
6127.00,1.37
6126.00,1.37
6125.00,1.37
6124.00,1.37
6123.00,1.37
6122.00,1.37
6121.00,1.37
6120.00,1.38
6119.00,1.38
6118.00,1.38
6117.00,1.38
6116.00,1.38
6115.00,1.39
6114.00,1.39
6113.00,1.39
6112.00,1.39
6111.00,1.39
6110.00,1.40
6109.00,1.40
6108.00,1.40
6107.00,1.40
6106.00,1.41
6105.00,1.41
6104.00,1.41
6103.00,1.41
6102.00,1.42
6101.00,1.42
6100.00,1.42
6099.00,1.42
6098.00,1.42
6097.00,1.43
6096.00,1.43
6095.00,1.43
6094.00,1.43
6093.00,1.43
6092.00,1.43
6091.00,1.43
6090.00,1.44
6089.00,1.44
6088.00,1.44
6087.00,1.44
6086.00,1.44
6085.00,1.44
6084.00,1.44
6083.00,1.44
6082.00,1.44
6081.00,1.45
6080.00,1.45
6079.00,1.45
6078.00,1.45
6077.00,1.45
6076.00,1.45
6075.00,1.45
6074.00,1.45
6073.00,1.46
6072.00,1.46
6071.00,1.46
6070.00,1.46
6069.00,1.46
6068.00,1.46
6067.00,1.47
6066.00,1.47
6065.00,1.47
6064.00,1.47
6063.00,1.47
6062.00,1.47
6061.00,1.47
6060.00,1.47
6059.00,1.48
6058.00,1.48
6057.00,1.48
6056.00,1.48
6055.00,1.48
6054.00,1.48
6053.00,1.48
6052.00,1.48
6051.00,1.48
6050.00,1.48
6049.00,1.48
6048.00,1.48
6047.00,1.49
6046.00,1.49
6045.00,1.49
6044.00,1.49
6043.00,1.49
6042.00,1.49
6041.00,1.49
6040.00,1.50
6039.00,1.50
6038.00,1.50
6037.00,1.50
6036.00,1.50
6035.00,1.50
6034.00,1.50
6033.00,1.50
6032.00,1.51
6031.00,1.51
6030.00,1.51
6029.00,1.51
6028.00,1.51
6027.00,1.51
6026.00,1.51
6025.00,1.51
6024.00,1.51
6023.00,1.51
6022.00,1.51
6021.00,1.51
6020.00,1.51
6019.00,1.51
6018.00,1.51
6017.00,1.51
6016.00,1.51
6015.00,1.51
6014.00,1.51
6013.00,1.51
6012.00,1.51
6011.00,1.51
6010.00,1.51
6009.00,1.51
6008.00,1.51
6007.00,1.51
6006.00,1.51
6005.00,1.51
6004.00,1.51
6003.00,1.51
6002.00,1.51
6001.00,1.51
6000.00,1.51
5999.00,1.51
5998.00,1.51
5997.00,1.51
5996.00,1.51
5995.00,1.51
5994.00,1.51
5993.00,1.51
5992.00,1.50
5991.00,1.50
5990.00,1.50
5989.00,1.50
5988.00,1.50
5987.00,1.50
5986.00,1.50
5985.00,1.49
5984.00,1.49
5983.00,1.49
5982.00,1.49
5981.00,1.48
5980.00,1.48
5979.00,1.48
5978.00,1.47
5977.00,1.47
5976.00,1.47
5975.00,1.46
5974.00,1.46
5973.00,1.46
5972.00,1.45
5971.00,1.45
5970.00,1.44
5969.00,1.44
5968.00,1.43
5967.00,1.43
5966.00,1.42
5965.00,1.42
5964.00,1.41
5963.00,1.41
5962.00,1.40
5961.00,1.40
5960.00,1.39
5959.00,1.38
5958.00,1.38
5957.00,1.37
5956.00,1.37
5955.00,1.36
5954.00,1.36
5953.00,1.36
5952.00,1.35
5951.00,1.35
5950.00,1.34
5949.00,1.34
5948.00,1.34
5947.00,1.34
5946.00,1.33
5945.00,1.33
5944.00,1.33
5943.00,1.33
5942.00,1.33
5941.00,1.33
5940.00,1.33
5939.00,1.32
5938.00,1.32
5937.00,1.32
5936.00,1.32
5935.00,1.32
5934.00,1.32
5933.00,1.32
5932.00,1.32
5931.00,1.32
5930.00,1.32
5929.00,1.32
5928.00,1.32
5927.00,1.32
5926.00,1.32
5925.00,1.32
5924.00,1.32
5923.00,1.32
5922.00,1.31
5921.00,1.31
5920.00,1.31
5919.00,1.31
5918.00,1.31
5917.00,1.30
5916.00,1.30
5915.00,1.30
5914.00,1.29
5913.00,1.29
5912.00,1.29
5911.00,1.29
5910.00,1.28
5909.00,1.28
5908.00,1.28
5907.00,1.28
5906.00,1.28
5905.00,1.28
5904.00,1.28
5903.00,1.28
5902.00,1.28
5901.00,1.28
5900.00,1.28
5899.00,1.28
5898.00,1.29
5897.00,1.29
5896.00,1.29
5895.00,1.30
5894.00,1.30
5893.00,1.30
5892.00,1.31
5891.00,1.31
5890.00,1.31
5889.00,1.32
5888.00,1.32
5887.00,1.32
5886.00,1.33
5885.00,1.33
5884.00,1.33
5883.00,1.33
5882.00,1.34
5881.00,1.34
5880.00,1.34
5879.00,1.34
5878.00,1.35
5877.00,1.35
5876.00,1.35
5875.00,1.35
5874.00,1.35
5873.00,1.36
5872.00,1.36
5871.00,1.36
5870.00,1.36
5869.00,1.36
5868.00,1.36
5867.00,1.36
5866.00,1.37
5865.00,1.37
5864.00,1.37
5863.00,1.37
5862.00,1.37
5861.00,1.37
5860.00,1.37
5859.00,1.37
5858.00,1.38
5857.00,1.38
5856.00,1.38
5855.00,1.38
5854.00,1.38
5853.00,1.38
5852.00,1.38
5851.00,1.38
5850.00,1.38
5849.00,1.38
5848.00,1.38
5847.00,1.38
5846.00,1.38
5845.00,1.38
5844.00,1.38
5843.00,1.38
5842.00,1.38
5841.00,1.38
5840.00,1.38
5839.00,1.38
5838.00,1.38
5837.00,1.38
5836.00,1.38
5835.00,1.38
5834.00,1.38
5833.00,1.38
5832.00,1.38
5831.00,1.38
5830.00,1.38
5829.00,1.38
5828.00,1.38
5827.00,1.38
5826.00,1.38
5825.00,1.38
5824.00,1.38
5823.00,1.38
5822.00,1.38
5821.00,1.38
5820.00,1.38
5819.00,1.38
5818.00,1.38
5817.00,1.38
5816.00,1.38
5815.00,1.38
5814.00,1.38
5813.00,1.38
5812.00,1.38
5811.00,1.38
5810.00,1.38
5809.00,1.38
5808.00,1.38
5807.00,1.38
5806.00,1.37
5805.00,1.37
5804.00,1.37
5803.00,1.37
5802.00,1.37
5801.00,1.37
5800.00,1.37
5799.00,1.36
5798.00,1.36
5797.00,1.36
5796.00,1.36
5795.00,1.36
5794.00,1.36
5793.00,1.35
5792.00,1.35
5791.00,1.35
5790.00,1.35
5789.00,1.35
5788.00,1.35
5787.00,1.35
5786.00,1.35
5785.00,1.34
5784.00,1.34
5783.00,1.34
5782.00,1.34
5781.00,1.34
5780.00,1.34
5779.00,1.34
5778.00,1.34
5777.00,1.34
5776.00,1.34
5775.00,1.34
5774.00,1.34
5773.00,1.33
5772.00,1.33
5771.00,1.33
5770.00,1.33
5769.00,1.33
5768.00,1.34
5767.00,1.34
5766.00,1.34
5765.00,1.34
5764.00,1.34
5763.00,1.34
5762.00,1.34
5761.00,1.35
5760.00,1.35
5759.00,1.35
5758.00,1.35
5757.00,1.36
5756.00,1.36
5755.00,1.36
5754.00,1.37
5753.00,1.37
5752.00,1.37
5751.00,1.37
5750.00,1.38
5749.00,1.38
5748.00,1.38
5747.00,1.38
5746.00,1.39
5745.00,1.39
5744.00,1.39
5743.00,1.39
5742.00,1.39
5741.00,1.39
5740.00,1.40
5739.00,1.40
5738.00,1.40
5737.00,1.40
5736.00,1.40
5735.00,1.40
5734.00,1.40
5733.00,1.40
5732.00,1.40
5731.00,1.40
5730.00,1.40
5729.00,1.40
5728.00,1.40
5727.00,1.40
5726.00,1.40
5725.00,1.40
5724.00,1.40
5723.00,1.40
5722.00,1.40
5721.00,1.39
5720.00,1.39
5719.00,1.39
5718.00,1.39
5717.00,1.39
5716.00,1.39
5715.00,1.39
5714.00,1.39
5713.00,1.39
5712.00,1.39
5711.00,1.39
5710.00,1.38
5709.00,1.38
5708.00,1.38
5707.00,1.38
5706.00,1.38
5705.00,1.38
5704.00,1.38
5703.00,1.38
5702.00,1.38
5701.00,1.38
5700.00,1.38
5699.00,1.38
5698.00,1.37
5697.00,1.37
5696.00,1.37
5695.00,1.37
5694.00,1.37
5693.00,1.37
5692.00,1.37
5691.00,1.36
5690.00,1.36
5689.00,1.36
5688.00,1.36
5687.00,1.36
5686.00,1.36
5685.00,1.36
5684.00,1.35
5683.00,1.35
5682.00,1.35
5681.00,1.35
5680.00,1.35
5679.00,1.35
5678.00,1.35
5677.00,1.35
5676.00,1.35
5675.00,1.35
5674.00,1.35
5673.00,1.35
5672.00,1.35
5671.00,1.35
5670.00,1.35
5669.00,1.35
5668.00,1.35
5667.00,1.35
5666.00,1.35
5665.00,1.35
5664.00,1.35
5663.00,1.35
5662.00,1.35
5661.00,1.35
5660.00,1.35
5659.00,1.35
5658.00,1.35
5657.00,1.35
5656.00,1.35
5655.00,1.35
5654.00,1.36
5653.00,1.36
5652.00,1.36
5651.00,1.36
5650.00,1.36
5649.00,1.36
5648.00,1.36
5647.00,1.36
5646.00,1.37
5645.00,1.37
5644.00,1.37
5643.00,1.37
5642.00,1.37
5641.00,1.37
5640.00,1.37
5639.00,1.37
5638.00,1.37
5637.00,1.37
5636.00,1.37
5635.00,1.37
5634.00,1.38
5633.00,1.38
5632.00,1.38
5631.00,1.38
5630.00,1.38
5629.00,1.38
5628.00,1.38
5627.00,1.38
5626.00,1.38
5625.00,1.38
5624.00,1.38
5623.00,1.38
5622.00,1.38
5621.00,1.39
5620.00,1.39
5619.00,1.39
5618.00,1.39
5617.00,1.39
5616.00,1.39
5615.00,1.39
5614.00,1.39
5613.00,1.39
5612.00,1.39
5611.00,1.40
5610.00,1.40
5609.00,1.40
5608.00,1.40
5607.00,1.40
5606.00,1.40
5605.00,1.40
5604.00,1.40
5603.00,1.41
5602.00,1.41
5601.00,1.41
5600.00,1.41
5599.00,1.41
5598.00,1.41
5597.00,1.42
5596.00,1.42
5595.00,1.42
5594.00,1.42
5593.00,1.42
5592.00,1.42
5591.00,1.43
5590.00,1.43
5589.00,1.43
5588.00,1.43
5587.00,1.43
5586.00,1.43
5585.00,1.43
5584.00,1.44
5583.00,1.44
5582.00,1.44
5581.00,1.44
5580.00,1.44
5579.00,1.44
5578.00,1.44
5577.00,1.44
5576.00,1.45
5575.00,1.45
5574.00,1.45
5573.00,1.45
5572.00,1.45
5571.00,1.45
5570.00,1.45
5569.00,1.46
5568.00,1.46
5567.00,1.46
5566.00,1.46
5565.00,1.46
5564.00,1.46
5563.00,1.47
5562.00,1.47
5561.00,1.47
5560.00,1.47
5559.00,1.47
5558.00,1.47
5557.00,1.47
5556.00,1.47
5555.00,1.48
5554.00,1.48
5553.00,1.48
5552.00,1.48
5551.00,1.48
5550.00,1.48
5549.00,1.48
5548.00,1.48
5547.00,1.49
5546.00,1.49
5545.00,1.49
5544.00,1.49
5543.00,1.49
5542.00,1.49
5541.00,1.49
5540.00,1.49
5539.00,1.50
5538.00,1.50
5537.00,1.50
5536.00,1.50
5535.00,1.50
5534.00,1.50
5533.00,1.50
5532.00,1.51
5531.00,1.51
5530.00,1.51
5529.00,1.51
5528.00,1.51
5527.00,1.51
5526.00,1.51
5525.00,1.52
5524.00,1.52
5523.00,1.52
5522.00,1.52
5521.00,1.52
5520.00,1.52
5519.00,1.52
5518.00,1.53
5517.00,1.53
5516.00,1.53
5515.00,1.53
5514.00,1.53
5513.00,1.53
5512.00,1.53
5511.00,1.53
5510.00,1.53
5509.00,1.53
5508.00,1.54
5507.00,1.54
5506.00,1.54
5505.00,1.54
5504.00,1.54
5503.00,1.54
5502.00,1.54
5501.00,1.54
5500.00,1.54
5499.00,1.54
5498.00,1.54
5497.00,1.54
5496.00,1.54
5495.00,1.55
5494.00,1.55
5493.00,1.55
5492.00,1.55
5491.00,1.55
5490.00,1.55
5489.00,1.55
5488.00,1.55
5487.00,1.55
5486.00,1.55
5485.00,1.56
5484.00,1.56
5483.00,1.56
5482.00,1.56
5481.00,1.56
5480.00,1.56
5479.00,1.56
5478.00,1.56
5477.00,1.56
5476.00,1.56
5475.00,1.56
5474.00,1.56
5473.00,1.56
5472.00,1.56
5471.00,1.56
5470.00,1.56
5469.00,1.56
5468.00,1.56
5467.00,1.56
5466.00,1.56
5465.00,1.57
5464.00,1.57
5463.00,1.57
5462.00,1.57
5461.00,1.57
5460.00,1.57
5459.00,1.57
5458.00,1.57
5457.00,1.57
5456.00,1.57
5455.00,1.57
5454.00,1.57
5453.00,1.57
5452.00,1.57
5451.00,1.57
5450.00,1.57
5449.00,1.57
5448.00,1.57
5447.00,1.57
5446.00,1.57
5445.00,1.57
5444.00,1.57
5443.00,1.57
5442.00,1.57
5441.00,1.57
5440.00,1.57
5439.00,1.57
5438.00,1.57
5437.00,1.57
5436.00,1.57
5435.00,1.57
5434.00,1.57
5433.00,1.57
5432.00,1.57
5431.00,1.57
5430.00,1.57
5429.00,1.57
5428.00,1.57
5427.00,1.57
5426.00,1.57
5425.00,1.57
5424.00,1.57
5423.00,1.57
5422.00,1.57
5421.00,1.56
5420.00,1.56
5419.00,1.56
5418.00,1.56
5417.00,1.56
5416.00,1.55
5415.00,1.55
5414.00,1.55
5413.00,1.55
5412.00,1.55
5411.00,1.54
5410.00,1.54
5409.00,1.54
5408.00,1.54
5407.00,1.53
5406.00,1.53
5405.00,1.53
5404.00,1.53
5403.00,1.53
5402.00,1.52
5401.00,1.52
5400.00,1.52
5399.00,1.52
5398.00,1.51
5397.00,1.51
5396.00,1.51
5395.00,1.50
5394.00,1.50
5393.00,1.50
5392.00,1.49
5391.00,1.49
5390.00,1.49
5389.00,1.48
5388.00,1.48
5387.00,1.47
5386.00,1.47
5385.00,1.47
5384.00,1.46
5383.00,1.46
5382.00,1.45
5381.00,1.44
5380.00,1.44
5379.00,1.43
5378.00,1.43
5377.00,1.42
5376.00,1.42
5375.00,1.41
5374.00,1.40
5373.00,1.40
5372.00,1.39
5371.00,1.39
5370.00,1.38
5369.00,1.37
5368.00,1.37
5367.00,1.36
5366.00,1.36
5365.00,1.35
5364.00,1.34
5363.00,1.34
5362.00,1.33
5361.00,1.32
5360.00,1.32
5359.00,1.31
5358.00,1.30
5357.00,1.30
5356.00,1.29
5355.00,1.28
5354.00,1.27
5353.00,1.27
5352.00,1.26
5351.00,1.25
5350.00,1.24
5349.00,1.23
5348.00,1.23
5347.00,1.22
5346.00,1.21
5345.00,1.21
5344.00,1.20
5343.00,1.19
5342.00,1.18
5341.00,1.18
5340.00,1.17
5339.00,1.16
5338.00,1.16
5337.00,1.15
5336.00,1.14
5335.00,1.14
5334.00,1.13
5333.00,1.13
5332.00,1.12
5331.00,1.12
5330.00,1.11
5329.00,1.11
5328.00,1.10
5327.00,1.10
5326.00,1.09
5325.00,1.09
5324.00,1.09
5323.00,1.09
5322.00,1.08
5321.00,1.08
5320.00,1.08
5319.00,1.07
5318.00,1.07
5317.00,1.07
5316.00,1.07
5315.00,1.07
5314.00,1.06
5313.00,1.06
5312.00,1.06
5311.00,1.06
5310.00,1.06
5309.00,1.06
5308.00,1.05
5307.00,1.05
5306.00,1.05
5305.00,1.05
5304.00,1.05
5303.00,1.05
5302.00,1.05
5301.00,1.04
5300.00,1.04
5299.00,1.04
5298.00,1.04
5297.00,1.04
5296.00,1.04
5295.00,1.04
5294.00,1.04
5293.00,1.04
5292.00,1.04
5291.00,1.04
5290.00,1.04
5289.00,1.04
5288.00,1.04
5287.00,1.04
5286.00,1.04
5285.00,1.04
5284.00,1.04
5283.00,1.04
5282.00,1.04
5281.00,1.04
5280.00,1.04
5279.00,1.04
5278.00,1.04
5277.00,1.04
5276.00,1.04
5275.00,1.04
5274.00,1.04
5273.00,1.04
5272.00,1.04
5271.00,1.04
5270.00,1.04
5269.00,1.04
5268.00,1.04
5267.00,1.04
5266.00,1.04
5265.00,1.04
5264.00,1.04
5263.00,1.04
5262.00,1.04
5261.00,1.04
5260.00,1.04
5259.00,1.04
5258.00,1.04
5257.00,1.04
5256.00,1.04
5255.00,1.04
5254.00,1.04
5253.00,1.04
5252.00,1.04
5251.00,1.04
5250.00,1.04
5249.00,1.04
5248.00,1.04
5247.00,1.04
5246.00,1.04
5245.00,1.04
5244.00,1.05
5243.00,1.05
5242.00,1.05
5241.00,1.05
5240.00,1.05
5239.00,1.05
5238.00,1.05
5237.00,1.05
5236.00,1.05
5235.00,1.05
5234.00,1.05
5233.00,1.05
5232.00,1.06
5231.00,1.06
5230.00,1.06
5229.00,1.06
5228.00,1.06
5227.00,1.06
5226.00,1.06
5225.00,1.06
5224.00,1.06
5223.00,1.06
5222.00,1.06
5221.00,1.06
5220.00,1.06
5219.00,1.06
5218.00,1.06
5217.00,1.06
5216.00,1.06
5215.00,1.06
5214.00,1.05
5213.00,1.05
5212.00,1.05
5211.00,1.05
5210.00,1.05
5209.00,1.05
5208.00,1.05
5207.00,1.05
5206.00,1.05
5205.00,1.05
5204.00,1.05
5203.00,1.05
5202.00,1.05
5201.00,1.05
5200.00,1.05
5199.00,1.06
5198.00,1.06
5197.00,1.06
5196.00,1.06
5195.00,1.06
5194.00,1.06
5193.00,1.06
5192.00,1.06
5191.00,1.06
5190.00,1.06
5189.00,1.06
5188.00,1.06
5187.00,1.06
5186.00,1.07
5185.00,1.07
5184.00,1.07
5183.00,1.07
5182.00,1.07
5181.00,1.07
5180.00,1.07
5179.00,1.07
5178.00,1.07
5177.00,1.07
5176.00,1.07
5175.00,1.07
5174.00,1.07
5173.00,1.07
5172.00,1.08
5171.00,1.08
5170.00,1.08
5169.00,1.08
5168.00,1.08
5167.00,1.08
5166.00,1.08
5165.00,1.08
5164.00,1.08
5163.00,1.08
5162.00,1.08
5161.00,1.08
5160.00,1.08
5159.00,1.08
5158.00,1.08
5157.00,1.08
5156.00,1.09
5155.00,1.09
5154.00,1.09
5153.00,1.09
5152.00,1.09
5151.00,1.09
5150.00,1.09
5149.00,1.09
5148.00,1.09
5147.00,1.09
5146.00,1.09
5145.00,1.09
5144.00,1.09
5143.00,1.09
5142.00,1.09
5141.00,1.09
5140.00,1.09
5139.00,1.09
5138.00,1.09
5137.00,1.09
5136.00,1.09
5135.00,1.09
5134.00,1.10
5133.00,1.10
5132.00,1.10
5131.00,1.10
5130.00,1.10
5129.00,1.10
5128.00,1.10
5127.00,1.10
5126.00,1.10
5125.00,1.10
5124.00,1.10
5123.00,1.10
5122.00,1.10
5121.00,1.10
5120.00,1.11
5119.00,1.11
5118.00,1.11
5117.00,1.11
5116.00,1.11
5115.00,1.11
5114.00,1.11
5113.00,1.11
5112.00,1.11
5111.00,1.11
5110.00,1.11
5109.00,1.11
5108.00,1.11
5107.00,1.11
5106.00,1.11
5105.00,1.11
5104.00,1.11
5103.00,1.11
5102.00,1.11
5101.00,1.11
5100.00,1.11
5099.00,1.11
5098.00,1.11
5097.00,1.11
5096.00,1.11
5095.00,1.11
5094.00,1.11
5093.00,1.11
5092.00,1.11
5091.00,1.11
5090.00,1.11
5089.00,1.11
5088.00,1.11
5087.00,1.11
5086.00,1.11
5085.00,1.11
5084.00,1.11
5083.00,1.11
5082.00,1.11
5081.00,1.11
5080.00,1.11
5079.00,1.11
5078.00,1.11
5077.00,1.12
5076.00,1.12
5075.00,1.12
5074.00,1.12
5073.00,1.12
5072.00,1.12
5071.00,1.12
5070.00,1.12
5069.00,1.12
5068.00,1.12
5067.00,1.12
5066.00,1.12
5065.00,1.12
5064.00,1.12
5063.00,1.12
5062.00,1.12
5061.00,1.12
5060.00,1.12
5059.00,1.12
5058.00,1.12
5057.00,1.12
5056.00,1.12
5055.00,1.12
5054.00,1.12
5053.00,1.12
5052.00,1.12
5051.00,1.12
5050.00,1.12
5049.00,1.12
5048.00,1.12
5047.00,1.12
5046.00,1.12
5045.00,1.12
5044.00,1.13
5043.00,1.13
5042.00,1.13
5041.00,1.13
5040.00,1.13
5039.00,1.13
5038.00,1.13
5037.00,1.13
5036.00,1.13
5035.00,1.13
5034.00,1.13
5033.00,1.13
5032.00,1.13
5031.00,1.14
5030.00,1.14
5029.00,1.14
5028.00,1.14
5027.00,1.14
5026.00,1.14
5025.00,1.14
5024.00,1.14
5023.00,1.14
5022.00,1.14
5021.00,1.14
5020.00,1.14
5019.00,1.14
5018.00,1.14
5017.00,1.14
5016.00,1.14
5015.00,1.14
5014.00,1.14
5013.00,1.14
5012.00,1.14
5011.00,1.14
5010.00,1.15
5009.00,1.15
5008.00,1.15
5007.00,1.15
5006.00,1.15
5005.00,1.15
5004.00,1.15
5003.00,1.15
5002.00,1.15
5001.00,1.15
5000.00,1.15
4999.00,1.15
4998.00,1.15
4997.00,1.15
4996.00,1.15
4995.00,1.15
4994.00,1.15
4993.00,1.15
4992.00,1.15
4991.00,1.15
4990.00,1.16
4989.00,1.16
4988.00,1.16
4987.00,1.16
4986.00,1.16
4985.00,1.16
4984.00,1.16
4983.00,1.16
4982.00,1.16
4981.00,1.16
4980.00,1.16
4979.00,1.16
4978.00,1.16
4977.00,1.16
4976.00,1.16
4975.00,1.16
4974.00,1.16
4973.00,1.16
4972.00,1.16
4971.00,1.16
4970.00,1.16
4969.00,1.16
4968.00,1.16
4967.00,1.16
4966.00,1.17
4965.00,1.17
4964.00,1.17
4963.00,1.17
4962.00,1.17
4961.00,1.17
4960.00,1.17
4959.00,1.17
4958.00,1.18
4957.00,1.18
4956.00,1.18
4955.00,1.18
4954.00,1.18
4953.00,1.18
4952.00,1.18
4951.00,1.18
4950.00,1.18
4949.00,1.18
4948.00,1.18
4947.00,1.18
4946.00,1.18
4945.00,1.18
4944.00,1.18
4943.00,1.18
4942.00,1.18
4941.00,1.18
4940.00,1.18
4939.00,1.18
4938.00,1.18
4937.00,1.18
4936.00,1.18
4935.00,1.18
4934.00,1.19
4933.00,1.19
4932.00,1.19
4931.00,1.19
4930.00,1.19
4929.00,1.19
4928.00,1.19
4927.00,1.19
4926.00,1.19
4925.00,1.19
4924.00,1.19
4923.00,1.19
4922.00,1.19
4921.00,1.19
4920.00,1.19
4919.00,1.19
4918.00,1.19
4917.00,1.19
4916.00,1.20
4915.00,1.20
4914.00,1.20
4913.00,1.20
4912.00,1.20
4911.00,1.20
4910.00,1.20
4909.00,1.20
4908.00,1.20
4907.00,1.20
4906.00,1.20
4905.00,1.20
4904.00,1.20
4903.00,1.20
4902.00,1.20
4901.00,1.20
4900.00,1.20
4899.00,1.20
4898.00,1.21
4897.00,1.21
4896.00,1.21
4895.00,1.21
4894.00,1.21
4893.00,1.21
4892.00,1.21
4891.00,1.21
4890.00,1.21
4889.00,1.21
4888.00,1.21
4887.00,1.21
4886.00,1.21
4885.00,1.21
4884.00,1.21
4883.00,1.21
4882.00,1.21
4881.00,1.21
4880.00,1.21
4879.00,1.21
4878.00,1.21
4877.00,1.21
4876.00,1.21
4875.00,1.21
4874.00,1.21
4873.00,1.21
4872.00,1.22
4871.00,1.22
4870.00,1.22
4869.00,1.22
4868.00,1.22
4867.00,1.22
4866.00,1.22
4865.00,1.22
4864.00,1.22
4863.00,1.22
4862.00,1.23
4861.00,1.23
4860.00,1.23
4859.00,1.23
4858.00,1.23
4857.00,1.23
4856.00,1.23
4855.00,1.23
4854.00,1.23
4853.00,1.23
4852.00,1.23
4851.00,1.23
4850.00,1.23
4849.00,1.23
4848.00,1.23
4847.00,1.23
4846.00,1.23
4845.00,1.23
4844.00,1.23
4843.00,1.23
4842.00,1.23
4841.00,1.23
4840.00,1.23
4839.00,1.23
4838.00,1.23
4837.00,1.23
4836.00,1.23
4835.00,1.23
4834.00,1.23
4833.00,1.23
4832.00,1.23
4831.00,1.23
4830.00,1.23
4829.00,1.23
4828.00,1.23
4827.00,1.23
4826.00,1.23
4825.00,1.24
4824.00,1.24
4823.00,1.24
4822.00,1.24
4821.00,1.24
4820.00,1.24
4819.00,1.24
4818.00,1.24
4817.00,1.24
4816.00,1.24
4815.00,1.24
4814.00,1.24
4813.00,1.24
4812.00,1.25
4811.00,1.25
4810.00,1.25
4809.00,1.25
4808.00,1.25
4807.00,1.25
4806.00,1.25
4805.00,1.25
4804.00,1.25
4803.00,1.25
4802.00,1.25
4801.00,1.25
4800.00,1.25
4799.00,1.25
4798.00,1.26
4797.00,1.26
4796.00,1.26
4795.00,1.26
4794.00,1.26
4793.00,1.26
4792.00,1.26
4791.00,1.26
4790.00,1.26
4789.00,1.26
4788.00,1.26
4787.00,1.26
4786.00,1.26
4785.00,1.26
4784.00,1.26
4783.00,1.26
4782.00,1.27
4781.00,1.27
4780.00,1.27
4779.00,1.27
4778.00,1.27
4777.00,1.27
4776.00,1.27
4775.00,1.27
4774.00,1.27
4773.00,1.27
4772.00,1.27
4771.00,1.27
4770.00,1.27
4769.00,1.27
4768.00,1.27
4767.00,1.27
4766.00,1.28
4765.00,1.28
4764.00,1.28
4763.00,1.28
4762.00,1.28
4761.00,1.28
4760.00,1.28
4759.00,1.28
4758.00,1.28
4757.00,1.28
4756.00,1.28
4755.00,1.29
4754.00,1.29
4753.00,1.29
4752.00,1.29
4751.00,1.29
4750.00,1.29
4749.00,1.29
4748.00,1.29
4747.00,1.29
4746.00,1.29
4745.00,1.29
4744.00,1.29
4743.00,1.29
4742.00,1.29
4741.00,1.29
4740.00,1.29
4739.00,1.29
4738.00,1.29
4737.00,1.29
4736.00,1.29
4735.00,1.29
4734.00,1.29
4733.00,1.29
4732.00,1.30
4731.00,1.30
4730.00,1.30
4729.00,1.30
4728.00,1.30
4727.00,1.30
4726.00,1.30
4725.00,1.30
4724.00,1.30
4723.00,1.30
4722.00,1.30
4721.00,1.30
4720.00,1.31
4719.00,1.31
4718.00,1.31
4717.00,1.31
4716.00,1.31
4715.00,1.31
4714.00,1.32
4713.00,1.32
4712.00,1.32
4711.00,1.32
4710.00,1.32
4709.00,1.32
4708.00,1.33
4707.00,1.33
4706.00,1.33
4705.00,1.33
4704.00,1.33
4703.00,1.33
4702.00,1.33
4701.00,1.33
4700.00,1.33
4699.00,1.33
4698.00,1.33
4697.00,1.33
4696.00,1.33
4695.00,1.33
4694.00,1.33
4693.00,1.33
4692.00,1.33
4691.00,1.33
4690.00,1.33
4689.00,1.33
4688.00,1.32
4687.00,1.32
4686.00,1.32
4685.00,1.32
4684.00,1.32
4683.00,1.32
4682.00,1.32
4681.00,1.33
4680.00,1.33
4679.00,1.33
4678.00,1.33
4677.00,1.33
4676.00,1.33
4675.00,1.33
4674.00,1.33
4673.00,1.34
4672.00,1.34
4671.00,1.34
4670.00,1.34
4669.00,1.34
4668.00,1.35
4667.00,1.35
4666.00,1.35
4665.00,1.35
4664.00,1.35
4663.00,1.35
4662.00,1.36
4661.00,1.36
4660.00,1.36
4659.00,1.36
4658.00,1.36
4657.00,1.36
4656.00,1.36
4655.00,1.36
4654.00,1.36
4653.00,1.37
4652.00,1.37
4651.00,1.37
4650.00,1.37
4649.00,1.37
4648.00,1.37
4647.00,1.37
4646.00,1.37
4645.00,1.37
4644.00,1.37
4643.00,1.37
4642.00,1.37
4641.00,1.37
4640.00,1.38
4639.00,1.38
4638.00,1.38
4637.00,1.38
4636.00,1.38
4635.00,1.38
4634.00,1.38
4633.00,1.38
4632.00,1.38
4631.00,1.38
4630.00,1.38
4629.00,1.38
4628.00,1.38
4627.00,1.38
4626.00,1.38
4625.00,1.38
4624.00,1.38
4623.00,1.39
4622.00,1.39
4621.00,1.39
4620.00,1.39
4619.00,1.39
4618.00,1.39
4617.00,1.39
4616.00,1.39
4615.00,1.39
4614.00,1.39
4613.00,1.39
4612.00,1.39
4611.00,1.39
4610.00,1.39
4609.00,1.39
4608.00,1.39
4607.00,1.39
4606.00,1.39
4605.00,1.39
4604.00,1.39
4603.00,1.39
4602.00,1.39
4601.00,1.39
4600.00,1.39
4599.00,1.39
4598.00,1.39
4597.00,1.39
4596.00,1.39
4595.00,1.39
4594.00,1.39
4593.00,1.39
4592.00,1.39
4591.00,1.39
4590.00,1.39
4589.00,1.39
4588.00,1.39
4587.00,1.40
4586.00,1.40
4585.00,1.40
4584.00,1.40
4583.00,1.40
4582.00,1.40
4581.00,1.40
4580.00,1.41
4579.00,1.41
4578.00,1.41
4577.00,1.41
4576.00,1.41
4575.00,1.41
4574.00,1.41
4573.00,1.41
4572.00,1.41
4571.00,1.41
4570.00,1.41
4569.00,1.41
4568.00,1.41
4567.00,1.41
4566.00,1.41
4565.00,1.41
4564.00,1.41
4563.00,1.41
4562.00,1.41
4561.00,1.41
4560.00,1.41
4559.00,1.41
4558.00,1.41
4557.00,1.41
4556.00,1.41
4555.00,1.41
4554.00,1.41
4553.00,1.41
4552.00,1.41
4551.00,1.42
4550.00,1.42
4549.00,1.42
4548.00,1.42
4547.00,1.42
4546.00,1.42
4545.00,1.42
4544.00,1.43
4543.00,1.43
4542.00,1.43
4541.00,1.43
4540.00,1.43
4539.00,1.43
4538.00,1.43
4537.00,1.43
4536.00,1.43
4535.00,1.43
4534.00,1.43
4533.00,1.43
4532.00,1.43
4531.00,1.43
4530.00,1.43
4529.00,1.43
4528.00,1.43
4527.00,1.43
4526.00,1.43
4525.00,1.43
4524.00,1.43
4523.00,1.43
4522.00,1.42
4521.00,1.42
4520.00,1.42
4519.00,1.42
4518.00,1.42
4517.00,1.42
4516.00,1.42
4515.00,1.42
4514.00,1.42
4513.00,1.42
4512.00,1.42
4511.00,1.42
4510.00,1.43
4509.00,1.43
4508.00,1.43
4507.00,1.43
4506.00,1.43
4505.00,1.43
4504.00,1.43
4503.00,1.43
4502.00,1.43
4501.00,1.43
4500.00,1.44
4499.00,1.44
4498.00,1.44
4497.00,1.44
4496.00,1.44
4495.00,1.44
4494.00,1.44
4493.00,1.44
4492.00,1.44
4491.00,1.44
4490.00,1.44
4489.00,1.44
4488.00,1.44
4487.00,1.44
4486.00,1.44
4485.00,1.44
4484.00,1.44
4483.00,1.44
4482.00,1.44
4481.00,1.44
4480.00,1.44
4479.00,1.44
4478.00,1.44
4477.00,1.44
4476.00,1.44
4475.00,1.44
4474.00,1.44
4473.00,1.44
4472.00,1.44
4471.00,1.44
4470.00,1.44
4469.00,1.44
4468.00,1.44
4467.00,1.44
4466.00,1.44
4465.00,1.44
4464.00,1.44
4463.00,1.44
4462.00,1.43
4461.00,1.43
4460.00,1.43
4459.00,1.43
4458.00,1.43
4457.00,1.43
4456.00,1.43
4455.00,1.43
4454.00,1.43
4453.00,1.43
4452.00,1.42
4451.00,1.42
4450.00,1.42
4449.00,1.42
4448.00,1.42
4447.00,1.42
4446.00,1.42
4445.00,1.42
4444.00,1.42
4443.00,1.42
4442.00,1.42
4441.00,1.42
4440.00,1.42
4439.00,1.41
4438.00,1.41
4437.00,1.41
4436.00,1.41
4435.00,1.41
4434.00,1.41
4433.00,1.41
4432.00,1.41
4431.00,1.41
4430.00,1.41
4429.00,1.41
4428.00,1.41
4427.00,1.41
4426.00,1.41
4425.00,1.41
4424.00,1.41
4423.00,1.41
4422.00,1.41
4421.00,1.41
4420.00,1.41
4419.00,1.41
4418.00,1.41
4417.00,1.41
4416.00,1.41
4415.00,1.42
4414.00,1.42
4413.00,1.42
4412.00,1.42
4411.00,1.42
4410.00,1.42
4409.00,1.42
4408.00,1.42
4407.00,1.43
4406.00,1.43
4405.00,1.43
4404.00,1.43
4403.00,1.43
4402.00,1.43
4401.00,1.43
4400.00,1.43
4399.00,1.43
4398.00,1.43
4397.00,1.43
4396.00,1.43
4395.00,1.43
4394.00,1.43
4393.00,1.43
4392.00,1.43
4391.00,1.44
4390.00,1.44
4389.00,1.44
4388.00,1.44
4387.00,1.44
4386.00,1.44
4385.00,1.44
4384.00,1.44
4383.00,1.44
4382.00,1.44
4381.00,1.44
4380.00,1.44
4379.00,1.45
4378.00,1.45
4377.00,1.44
4376.00,1.44
4375.00,1.44
4374.00,1.44
4373.00,1.44
4372.00,1.44
4371.00,1.44
4370.00,1.44
4369.00,1.44
4368.00,1.44
4367.00,1.43
4366.00,1.43
4365.00,1.43
4364.00,1.43
4363.00,1.43
4362.00,1.43
4361.00,1.43
4360.00,1.43
4359.00,1.43
4358.00,1.43
4357.00,1.43
4356.00,1.43
4355.00,1.44
4354.00,1.44
4353.00,1.44
4352.00,1.44
4351.00,1.44
4350.00,1.44
4349.00,1.45
4348.00,1.45
4347.00,1.45
4346.00,1.45
4345.00,1.45
4344.00,1.45
4343.00,1.45
4342.00,1.45
4341.00,1.45
4340.00,1.45
4339.00,1.45
4338.00,1.45
4337.00,1.45
4336.00,1.45
4335.00,1.45
4334.00,1.45
4333.00,1.45
4332.00,1.45
4331.00,1.45
4330.00,1.45
4329.00,1.45
4328.00,1.45
4327.00,1.46
4326.00,1.46
4325.00,1.46
4324.00,1.46
4323.00,1.46
4322.00,1.46
4321.00,1.46
4320.00,1.46
4319.00,1.46
4318.00,1.46
4317.00,1.47
4316.00,1.47
4315.00,1.47
4314.00,1.47
4313.00,1.47
4312.00,1.47
4311.00,1.47
4310.00,1.48
4309.00,1.48
4308.00,1.48
4307.00,1.48
4306.00,1.48
4305.00,1.48
4304.00,1.48
4303.00,1.49
4302.00,1.49
4301.00,1.49
4300.00,1.49
4299.00,1.49
4298.00,1.49
4297.00,1.49
4296.00,1.49
4295.00,1.49
4294.00,1.49
4293.00,1.50
4292.00,1.50
4291.00,1.50
4290.00,1.50
4289.00,1.50
4288.00,1.50
4287.00,1.49
4286.00,1.49
4285.00,1.49
4284.00,1.49
4283.00,1.49
4282.00,1.49
4281.00,1.49
4280.00,1.49
4279.00,1.49
4278.00,1.49
4277.00,1.49
4276.00,1.49
4275.00,1.49
4274.00,1.49
4273.00,1.49
4272.00,1.49
4271.00,1.49
4270.00,1.49
4269.00,1.49
4268.00,1.49
4267.00,1.49
4266.00,1.49
4265.00,1.49
4264.00,1.49
4263.00,1.50
4262.00,1.50
4261.00,1.50
4260.00,1.50
4259.00,1.50
4258.00,1.50
4257.00,1.50
4256.00,1.50
4255.00,1.51
4254.00,1.51
4253.00,1.51
4252.00,1.51
4251.00,1.51
4250.00,1.51
4249.00,1.51
4248.00,1.51
4247.00,1.51
4246.00,1.51
4245.00,1.51
4244.00,1.51
4243.00,1.52
4242.00,1.52
4241.00,1.52
4240.00,1.52
4239.00,1.52
4238.00,1.52
4237.00,1.52
4236.00,1.52
4235.00,1.52
4234.00,1.52
4233.00,1.52
4232.00,1.52
4231.00,1.53
4230.00,1.53
4229.00,1.53
4228.00,1.53
4227.00,1.53
4226.00,1.53
4225.00,1.53
4224.00,1.53
4223.00,1.53
4222.00,1.53
4221.00,1.53
4220.00,1.54
4219.00,1.54
4218.00,1.54
4217.00,1.54
4216.00,1.54
4215.00,1.54
4214.00,1.54
4213.00,1.54
4212.00,1.54
4211.00,1.54
4210.00,1.54
4209.00,1.54
4208.00,1.54
4207.00,1.54
4206.00,1.54
4205.00,1.54
4204.00,1.54
4203.00,1.54
4202.00,1.54
4201.00,1.54
4200.00,1.54
4199.00,1.54
4198.00,1.54
4197.00,1.54
4196.00,1.54
4195.00,1.54
4194.00,1.54
4193.00,1.54
4192.00,1.54
4191.00,1.54
4190.00,1.54
4189.00,1.54
4188.00,1.54
4187.00,1.54
4186.00,1.55
4185.00,1.55
4184.00,1.55
4183.00,1.55
4182.00,1.55
4181.00,1.55
4180.00,1.55
4179.00,1.55
4178.00,1.55
4177.00,1.55
4176.00,1.55
4175.00,1.56
4174.00,1.56
4173.00,1.56
4172.00,1.56
4171.00,1.56
4170.00,1.56
4169.00,1.56
4168.00,1.56
4167.00,1.56
4166.00,1.56
4165.00,1.56
4164.00,1.56
4163.00,1.56
4162.00,1.56
4161.00,1.56
4160.00,1.56
4159.00,1.56
4158.00,1.56
4157.00,1.56
4156.00,1.56
4155.00,1.56
4154.00,1.56
4153.00,1.56
4152.00,1.56
4151.00,1.56
4150.00,1.57
4149.00,1.57
4148.00,1.57
4147.00,1.57
4146.00,1.57
4145.00,1.57
4144.00,1.57
4143.00,1.57
4142.00,1.57
4141.00,1.57
4140.00,1.57
4139.00,1.57
4138.00,1.57
4137.00,1.57
4136.00,1.57
4135.00,1.57
4134.00,1.57
4133.00,1.57
4132.00,1.57
4131.00,1.57
4130.00,1.57
4129.00,1.57
4128.00,1.57
4127.00,1.57
4126.00,1.57
4125.00,1.57
4124.00,1.57
4123.00,1.57
4122.00,1.58
4121.00,1.58
4120.00,1.58
4119.00,1.58
4118.00,1.58
4117.00,1.58
4116.00,1.58
4115.00,1.58
4114.00,1.58
4113.00,1.59
4112.00,1.59
4111.00,1.59
4110.00,1.59
4109.00,1.59
4108.00,1.59
4107.00,1.59
4106.00,1.59
4105.00,1.59
4104.00,1.59
4103.00,1.60
4102.00,1.60
4101.00,1.60
4100.00,1.60
4099.00,1.60
4098.00,1.60
4097.00,1.60
4096.00,1.60
4095.00,1.59
4094.00,1.59
4093.00,1.59
4092.00,1.59
4091.00,1.59
4090.00,1.60
4089.00,1.60
4088.00,1.60
4087.00,1.60
4086.00,1.60
4085.00,1.60
4084.00,1.60
4083.00,1.60
4082.00,1.60
4081.00,1.60
4080.00,1.60
4079.00,1.60
4078.00,1.60
4077.00,1.60
4076.00,1.60
4075.00,1.60
4074.00,1.60
4073.00,1.60
4072.00,1.60
4071.00,1.60
4070.00,1.61
4069.00,1.61
4068.00,1.61
4067.00,1.61
4066.00,1.61
4065.00,1.61
4064.00,1.62
4063.00,1.62
4062.00,1.62
4061.00,1.62
4060.00,1.63
4059.00,1.63
4058.00,1.63
4057.00,1.63
4056.00,1.63
4055.00,1.63
4054.00,1.63
4053.00,1.63
4052.00,1.63
4051.00,1.63
4050.00,1.63
4049.00,1.63
4048.00,1.63
4047.00,1.63
4046.00,1.62
4045.00,1.62
4044.00,1.62
4043.00,1.62
4042.00,1.62
4041.00,1.62
4040.00,1.62
4039.00,1.62
4038.00,1.62
4037.00,1.62
4036.00,1.62
4035.00,1.62
4034.00,1.63
4033.00,1.63
4032.00,1.63
4031.00,1.63
4030.00,1.63
4029.00,1.63
4028.00,1.63
4027.00,1.64
4026.00,1.64
4025.00,1.64
4024.00,1.64
4023.00,1.64
4022.00,1.64
4021.00,1.64
4020.00,1.64
4019.00,1.64
4018.00,1.64
4017.00,1.64
4016.00,1.64
4015.00,1.64
4014.00,1.64
4013.00,1.64
4012.00,1.64
4011.00,1.64
4010.00,1.64
4009.00,1.64
4008.00,1.64
4007.00,1.64
4006.00,1.64
4005.00,1.64
4004.00,1.64
4003.00,1.64
4002.00,1.64
4001.00,1.64
4000.00,1.64
