创建为新数据集,样品 126 用户 Administrator 日期 星期六, 七月 21 2018
cm-1,%T
10000.00,2.09
9999.00,2.09
9998.00,2.09
9997.00,2.09
9996.00,2.09
9995.00,2.09
9994.00,2.09
9993.00,2.08
9992.00,2.08
9991.00,2.08
9990.00,2.08
9989.00,2.07
9988.00,2.07
9987.00,2.07
9986.00,2.06
9985.00,2.06
9984.00,2.06
9983.00,2.05
9982.00,2.05
9981.00,2.05
9980.00,2.05
9979.00,2.05
9978.00,2.05
9977.00,2.05
9976.00,2.05
9975.00,2.05
9974.00,2.05
9973.00,2.05
9972.00,2.05
9971.00,2.05
9970.00,2.06
9969.00,2.06
9968.00,2.06
9967.00,2.06
9966.00,2.06
9965.00,2.07
9964.00,2.07
9963.00,2.07
9962.00,2.07
9961.00,2.07
9960.00,2.07
9959.00,2.07
9958.00,2.07
9957.00,2.07
9956.00,2.07
9955.00,2.07
9954.00,2.07
9953.00,2.07
9952.00,2.07
9951.00,2.07
9950.00,2.07
9949.00,2.07
9948.00,2.07
9947.00,2.07
9946.00,2.08
9945.00,2.08
9944.00,2.08
9943.00,2.08
9942.00,2.08
9941.00,2.08
9940.00,2.08
9939.00,2.09
9938.00,2.09
9937.00,2.09
9936.00,2.09
9935.00,2.09
9934.00,2.09
9933.00,2.09
9932.00,2.09
9931.00,2.09
9930.00,2.09
9929.00,2.08
9928.00,2.08
9927.00,2.08
9926.00,2.08
9925.00,2.08
9924.00,2.07
9923.00,2.07
9922.00,2.07
9921.00,2.06
9920.00,2.06
9919.00,2.06
9918.00,2.05
9917.00,2.05
9916.00,2.05
9915.00,2.04
9914.00,2.04
9913.00,2.04
9912.00,2.03
9911.00,2.03
9910.00,2.03
9909.00,2.03
9908.00,2.02
9907.00,2.02
9906.00,2.02
9905.00,2.02
9904.00,2.02
9903.00,2.01
9902.00,2.01
9901.00,2.01
9900.00,2.01
9899.00,2.01
9898.00,2.01
9897.00,2.01
9896.00,2.01
9895.00,2.01
9894.00,2.00
9893.00,2.00
9892.00,2.00
9891.00,2.00
9890.00,2.00
9889.00,2.01
9888.00,2.01
9887.00,2.01
9886.00,2.01
9885.00,2.01
9884.00,2.01
9883.00,2.02
9882.00,2.02
9881.00,2.02
9880.00,2.03
9879.00,2.03
9878.00,2.03
9877.00,2.04
9876.00,2.04
9875.00,2.04
9874.00,2.04
9873.00,2.04
9872.00,2.04
9871.00,2.04
9870.00,2.04
9869.00,2.04
9868.00,2.04
9867.00,2.04
9866.00,2.03
9865.00,2.03
9864.00,2.03
9863.00,2.03
9862.00,2.02
9861.00,2.02
9860.00,2.02
9859.00,2.02
9858.00,2.02
9857.00,2.02
9856.00,2.02
9855.00,2.03
9854.00,2.03
9853.00,2.03
9852.00,2.03
9851.00,2.04
9850.00,2.04
9849.00,2.04
9848.00,2.04
9847.00,2.04
9846.00,2.05
9845.00,2.05
9844.00,2.05
9843.00,2.05
9842.00,2.05
9841.00,2.05
9840.00,2.05
9839.00,2.05
9838.00,2.05
9837.00,2.05
9836.00,2.05
9835.00,2.05
9834.00,2.05
9833.00,2.04
9832.00,2.04
9831.00,2.04
9830.00,2.04
9829.00,2.04
9828.00,2.04
9827.00,2.04
9826.00,2.04
9825.00,2.04
9824.00,2.04
9823.00,2.04
9822.00,2.04
9821.00,2.04
9820.00,2.05
9819.00,2.05
9818.00,2.05
9817.00,2.05
9816.00,2.05
9815.00,2.05
9814.00,2.05
9813.00,2.04
9812.00,2.04
9811.00,2.04
9810.00,2.04
9809.00,2.04
9808.00,2.04
9807.00,2.03
9806.00,2.03
9805.00,2.03
9804.00,2.03
9803.00,2.03
9802.00,2.02
9801.00,2.02
9800.00,2.02
9799.00,2.02
9798.00,2.02
9797.00,2.02
9796.00,2.02
9795.00,2.01
9794.00,2.01
9793.00,2.01
9792.00,2.01
9791.00,2.01
9790.00,2.01
9789.00,2.01
9788.00,2.01
9787.00,2.01
9786.00,2.01
9785.00,2.01
9784.00,2.00
9783.00,2.00
9782.00,2.00
9781.00,2.00
9780.00,2.01
9779.00,2.01
9778.00,2.01
9777.00,2.01
9776.00,2.01
9775.00,2.01
9774.00,2.02
9773.00,2.02
9772.00,2.02
9771.00,2.02
9770.00,2.03
9769.00,2.03
9768.00,2.03
9767.00,2.03
9766.00,2.03
9765.00,2.04
9764.00,2.04
9763.00,2.04
9762.00,2.04
9761.00,2.04
9760.00,2.04
9759.00,2.04
9758.00,2.04
9757.00,2.04
9756.00,2.03
9755.00,2.03
9754.00,2.03
9753.00,2.03
9752.00,2.03
9751.00,2.03
9750.00,2.03
9749.00,2.02
9748.00,2.02
9747.00,2.02
9746.00,2.02
9745.00,2.01
9744.00,2.01
9743.00,2.01
9742.00,2.01
9741.00,2.00
9740.00,2.00
9739.00,2.00
9738.00,2.00
9737.00,2.00
9736.00,2.00
9735.00,1.99
9734.00,1.99
9733.00,1.99
9732.00,1.99
9731.00,1.99
9730.00,1.99
9729.00,1.99
9728.00,1.99
9727.00,1.99
9726.00,1.99
9725.00,1.99
9724.00,2.00
9723.00,2.00
9722.00,2.00
9721.00,2.00
9720.00,2.01
9719.00,2.01
9718.00,2.01
9717.00,2.02
9716.00,2.02
9715.00,2.02
9714.00,2.03
9713.00,2.03
9712.00,2.03
9711.00,2.03
9710.00,2.04
9709.00,2.04
9708.00,2.04
9707.00,2.04
9706.00,2.04
9705.00,2.04
9704.00,2.04
9703.00,2.04
9702.00,2.04
9701.00,2.04
9700.00,2.04
9699.00,2.03
9698.00,2.03
9697.00,2.03
9696.00,2.03
9695.00,2.03
9694.00,2.03
9693.00,2.03
9692.00,2.03
9691.00,2.03
9690.00,2.03
9689.00,2.03
9688.00,2.03
9687.00,2.03
9686.00,2.03
9685.00,2.03
9684.00,2.03
9683.00,2.03
9682.00,2.03
9681.00,2.03
9680.00,2.03
9679.00,2.03
9678.00,2.03
9677.00,2.03
9676.00,2.04
9675.00,2.04
9674.00,2.04
9673.00,2.04
9672.00,2.04
9671.00,2.04
9670.00,2.04
9669.00,2.04
9668.00,2.04
9667.00,2.04
9666.00,2.04
9665.00,2.04
9664.00,2.04
9663.00,2.04
9662.00,2.04
9661.00,2.04
9660.00,2.04
9659.00,2.04
9658.00,2.04
9657.00,2.04
9656.00,2.04
9655.00,2.05
9654.00,2.05
9653.00,2.05
9652.00,2.05
9651.00,2.05
9650.00,2.05
9649.00,2.05
9648.00,2.05
9647.00,2.05
9646.00,2.05
9645.00,2.05
9644.00,2.06
9643.00,2.06
9642.00,2.06
9641.00,2.06
9640.00,2.06
9639.00,2.06
9638.00,2.06
9637.00,2.06
9636.00,2.06
9635.00,2.06
9634.00,2.06
9633.00,2.06
9632.00,2.06
9631.00,2.06
9630.00,2.06
9629.00,2.06
9628.00,2.06
9627.00,2.06
9626.00,2.06
9625.00,2.06
9624.00,2.06
9623.00,2.06
9622.00,2.05
9621.00,2.05
9620.00,2.05
9619.00,2.05
9618.00,2.06
9617.00,2.06
9616.00,2.06
9615.00,2.06
9614.00,2.06
9613.00,2.06
9612.00,2.06
9611.00,2.06
9610.00,2.06
9609.00,2.06
9608.00,2.07
9607.00,2.07
9606.00,2.07
9605.00,2.07
9604.00,2.07
9603.00,2.07
9602.00,2.07
9601.00,2.07
9600.00,2.07
9599.00,2.07
9598.00,2.07
9597.00,2.07
9596.00,2.07
9595.00,2.07
9594.00,2.08
9593.00,2.08
9592.00,2.08
9591.00,2.08
9590.00,2.08
9589.00,2.08
9588.00,2.08
9587.00,2.08
9586.00,2.08
9585.00,2.08
9584.00,2.08
9583.00,2.08
9582.00,2.08
9581.00,2.08
9580.00,2.08
9579.00,2.08
9578.00,2.08
9577.00,2.08
9576.00,2.07
9575.00,2.07
9574.00,2.07
9573.00,2.06
9572.00,2.06
9571.00,2.05
9570.00,2.05
9569.00,2.05
9568.00,2.05
9567.00,2.04
9566.00,2.04
9565.00,2.04
9564.00,2.04
9563.00,2.04
9562.00,2.04
9561.00,2.04
9560.00,2.04
9559.00,2.04
9558.00,2.04
9557.00,2.04
9556.00,2.04
9555.00,2.04
9554.00,2.04
9553.00,2.04
9552.00,2.04
9551.00,2.04
9550.00,2.05
9549.00,2.05
9548.00,2.05
9547.00,2.05
9546.00,2.04
9545.00,2.04
9544.00,2.04
9543.00,2.04
9542.00,2.04
9541.00,2.04
9540.00,2.04
9539.00,2.04
9538.00,2.04
9537.00,2.04
9536.00,2.03
9535.00,2.03
9534.00,2.03
9533.00,2.03
9532.00,2.03
9531.00,2.03
9530.00,2.03
9529.00,2.03
9528.00,2.03
9527.00,2.03
9526.00,2.03
9525.00,2.03
9524.00,2.04
9523.00,2.04
9522.00,2.04
9521.00,2.04
9520.00,2.04
9519.00,2.04
9518.00,2.04
9517.00,2.05
9516.00,2.05
9515.00,2.05
9514.00,2.05
9513.00,2.05
9512.00,2.05
9511.00,2.05
9510.00,2.05
9509.00,2.05
9508.00,2.05
9507.00,2.05
9506.00,2.05
9505.00,2.05
9504.00,2.05
9503.00,2.05
9502.00,2.05
9501.00,2.05
9500.00,2.05
9499.00,2.05
9498.00,2.05
9497.00,2.05
9496.00,2.05
9495.00,2.04
9494.00,2.04
9493.00,2.04
9492.00,2.04
9491.00,2.04
9490.00,2.04
9489.00,2.04
9488.00,2.04
9487.00,2.04
9486.00,2.05
9485.00,2.05
9484.00,2.05
9483.00,2.05
9482.00,2.05
9481.00,2.05
9480.00,2.05
9479.00,2.05
9478.00,2.05
9477.00,2.05
9476.00,2.05
9475.00,2.05
9474.00,2.05
9473.00,2.05
9472.00,2.05
9471.00,2.05
9470.00,2.05
9469.00,2.06
9468.00,2.06
9467.00,2.06
9466.00,2.06
9465.00,2.06
9464.00,2.06
9463.00,2.06
9462.00,2.06
9461.00,2.06
9460.00,2.06
9459.00,2.06
9458.00,2.06
9457.00,2.06
9456.00,2.06
9455.00,2.06
9454.00,2.06
9453.00,2.06
9452.00,2.06
9451.00,2.06
9450.00,2.06
9449.00,2.06
9448.00,2.06
9447.00,2.07
9446.00,2.07
9445.00,2.07
9444.00,2.07
9443.00,2.07
9442.00,2.07
9441.00,2.07
9440.00,2.07
9439.00,2.08
9438.00,2.08
9437.00,2.08
9436.00,2.08
9435.00,2.08
9434.00,2.08
9433.00,2.08
9432.00,2.08
9431.00,2.08
9430.00,2.08
9429.00,2.08
9428.00,2.07
9427.00,2.07
9426.00,2.07
9425.00,2.07
9424.00,2.07
9423.00,2.06
9422.00,2.06
9421.00,2.06
9420.00,2.05
9419.00,2.05
9418.00,2.05
9417.00,2.04
9416.00,2.04
9415.00,2.04
9414.00,2.04
9413.00,2.03
9412.00,2.03
9411.00,2.03
9410.00,2.03
9409.00,2.03
9408.00,2.03
9407.00,2.03
9406.00,2.03
9405.00,2.03
9404.00,2.03
9403.00,2.03
9402.00,2.03
9401.00,2.03
9400.00,2.03
9399.00,2.04
9398.00,2.04
9397.00,2.04
9396.00,2.04
9395.00,2.04
9394.00,2.04
9393.00,2.04
9392.00,2.04
9391.00,2.04
9390.00,2.04
9389.00,2.04
9388.00,2.04
9387.00,2.04
9386.00,2.04
9385.00,2.04
9384.00,2.03
9383.00,2.03
9382.00,2.03
9381.00,2.03
9380.00,2.03
9379.00,2.03
9378.00,2.03
9377.00,2.02
9376.00,2.02
9375.00,2.02
9374.00,2.02
9373.00,2.02
9372.00,2.02
9371.00,2.01
9370.00,2.01
9369.00,2.01
9368.00,2.01
9367.00,2.01
9366.00,2.01
9365.00,2.01
9364.00,2.02
9363.00,2.02
9362.00,2.02
9361.00,2.02
9360.00,2.03
9359.00,2.03
9358.00,2.03
9357.00,2.04
9356.00,2.04
9355.00,2.04
9354.00,2.05
9353.00,2.05
9352.00,2.05
9351.00,2.06
9350.00,2.06
9349.00,2.06
9348.00,2.06
9347.00,2.06
9346.00,2.06
9345.00,2.06
9344.00,2.06
9343.00,2.06
9342.00,2.06
9341.00,2.06
9340.00,2.05
9339.00,2.05
9338.00,2.05
9337.00,2.05
9336.00,2.05
9335.00,2.04
9334.00,2.04
9333.00,2.04
9332.00,2.04
9331.00,2.04
9330.00,2.04
9329.00,2.03
9328.00,2.03
9327.00,2.03
9326.00,2.03
9325.00,2.03
9324.00,2.03
9323.00,2.03
9322.00,2.03
9321.00,2.03
9320.00,2.03
9319.00,2.04
9318.00,2.04
9317.00,2.04
9316.00,2.04
9315.00,2.04
9314.00,2.04
9313.00,2.05
9312.00,2.05
9311.00,2.05
9310.00,2.05
9309.00,2.05
9308.00,2.05
9307.00,2.05
9306.00,2.05
9305.00,2.06
9304.00,2.06
9303.00,2.06
9302.00,2.06
9301.00,2.06
9300.00,2.06
9299.00,2.06
9298.00,2.06
9297.00,2.06
9296.00,2.06
9295.00,2.06
9294.00,2.06
9293.00,2.06
9292.00,2.06
9291.00,2.06
9290.00,2.06
9289.00,2.05
9288.00,2.05
9287.00,2.05
9286.00,2.05
9285.00,2.05
9284.00,2.05
9283.00,2.04
9282.00,2.04
9281.00,2.04
9280.00,2.04
9279.00,2.04
9278.00,2.03
9277.00,2.03
9276.00,2.03
9275.00,2.03
9274.00,2.03
9273.00,2.03
9272.00,2.04
9271.00,2.04
9270.00,2.04
9269.00,2.04
9268.00,2.04
9267.00,2.05
9266.00,2.05
9265.00,2.05
9264.00,2.05
9263.00,2.05
9262.00,2.05
9261.00,2.05
9260.00,2.05
9259.00,2.05
9258.00,2.05
9257.00,2.05
9256.00,2.05
9255.00,2.05
9254.00,2.05
9253.00,2.05
9252.00,2.05
9251.00,2.05
9250.00,2.05
9249.00,2.05
9248.00,2.05
9247.00,2.05
9246.00,2.05
9245.00,2.05
9244.00,2.05
9243.00,2.05
9242.00,2.05
9241.00,2.05
9240.00,2.05
9239.00,2.05
9238.00,2.05
9237.00,2.05
9236.00,2.05
9235.00,2.05
9234.00,2.05
9233.00,2.05
9232.00,2.05
9231.00,2.06
9230.00,2.06
9229.00,2.06
9228.00,2.06
9227.00,2.06
9226.00,2.06
9225.00,2.07
9224.00,2.07
9223.00,2.07
9222.00,2.07
9221.00,2.07
9220.00,2.07
9219.00,2.07
9218.00,2.07
9217.00,2.08
9216.00,2.08
9215.00,2.08
9214.00,2.07
9213.00,2.07
9212.00,2.07
9211.00,2.07
9210.00,2.07
9209.00,2.07
9208.00,2.07
9207.00,2.07
9206.00,2.07
9205.00,2.07
9204.00,2.07
9203.00,2.07
9202.00,2.07
9201.00,2.07
9200.00,2.07
9199.00,2.07
9198.00,2.07
9197.00,2.07
9196.00,2.07
9195.00,2.07
9194.00,2.07
9193.00,2.07
9192.00,2.08
9191.00,2.08
9190.00,2.08
9189.00,2.08
9188.00,2.08
9187.00,2.08
9186.00,2.08
9185.00,2.08
9184.00,2.08
9183.00,2.08
9182.00,2.08
9181.00,2.08
9180.00,2.08
9179.00,2.08
9178.00,2.08
9177.00,2.08
9176.00,2.07
9175.00,2.07
9174.00,2.07
9173.00,2.07
9172.00,2.07
9171.00,2.06
9170.00,2.06
9169.00,2.06
9168.00,2.06
9167.00,2.06
9166.00,2.06
9165.00,2.06
9164.00,2.06
9163.00,2.06
9162.00,2.06
9161.00,2.07
9160.00,2.07
9159.00,2.07
9158.00,2.07
9157.00,2.07
9156.00,2.07
9155.00,2.08
9154.00,2.08
9153.00,2.08
9152.00,2.08
9151.00,2.08
9150.00,2.08
9149.00,2.07
9148.00,2.07
9147.00,2.07
9146.00,2.07
9145.00,2.07
9144.00,2.07
9143.00,2.07
9142.00,2.07
9141.00,2.06
9140.00,2.06
9139.00,2.06
9138.00,2.06
9137.00,2.06
9136.00,2.06
9135.00,2.06
9134.00,2.06
9133.00,2.07
9132.00,2.07
9131.00,2.07
9130.00,2.07
9129.00,2.07
9128.00,2.07
9127.00,2.07
9126.00,2.07
9125.00,2.07
9124.00,2.07
9123.00,2.07
9122.00,2.07
9121.00,2.07
9120.00,2.07
9119.00,2.07
9118.00,2.07
9117.00,2.07
9116.00,2.07
9115.00,2.06
9114.00,2.06
9113.00,2.06
9112.00,2.06
9111.00,2.06
9110.00,2.06
9109.00,2.06
9108.00,2.06
9107.00,2.06
9106.00,2.06
9105.00,2.06
9104.00,2.06
9103.00,2.06
9102.00,2.06
9101.00,2.06
9100.00,2.06
9099.00,2.06
9098.00,2.06
9097.00,2.06
9096.00,2.06
9095.00,2.06
9094.00,2.06
9093.00,2.05
9092.00,2.05
9091.00,2.05
9090.00,2.05
9089.00,2.05
9088.00,2.05
9087.00,2.05
9086.00,2.05
9085.00,2.05
9084.00,2.05
9083.00,2.06
9082.00,2.06
9081.00,2.06
9080.00,2.06
9079.00,2.06
9078.00,2.06
9077.00,2.06
9076.00,2.06
9075.00,2.06
9074.00,2.06
9073.00,2.06
9072.00,2.06
9071.00,2.06
9070.00,2.06
9069.00,2.06
9068.00,2.06
9067.00,2.06
9066.00,2.06
9065.00,2.07
9064.00,2.07
9063.00,2.07
9062.00,2.07
9061.00,2.07
9060.00,2.07
9059.00,2.07
9058.00,2.07
9057.00,2.07
9056.00,2.07
9055.00,2.07
9054.00,2.08
9053.00,2.08
9052.00,2.08
9051.00,2.08
9050.00,2.08
9049.00,2.08
9048.00,2.08
9047.00,2.08
9046.00,2.08
9045.00,2.08
9044.00,2.08
9043.00,2.08
9042.00,2.08
9041.00,2.08
9040.00,2.08
9039.00,2.08
9038.00,2.07
9037.00,2.07
9036.00,2.07
9035.00,2.07
9034.00,2.07
9033.00,2.07
9032.00,2.07
9031.00,2.07
9030.00,2.07
9029.00,2.07
9028.00,2.07
9027.00,2.08
9026.00,2.08
9025.00,2.08
9024.00,2.08
9023.00,2.08
9022.00,2.08
9021.00,2.08
9020.00,2.08
9019.00,2.08
9018.00,2.08
9017.00,2.08
9016.00,2.08
9015.00,2.07
9014.00,2.07
9013.00,2.07
9012.00,2.07
9011.00,2.07
9010.00,2.07
9009.00,2.07
9008.00,2.07
9007.00,2.08
9006.00,2.08
9005.00,2.08
9004.00,2.08
9003.00,2.08
9002.00,2.08
9001.00,2.08
9000.00,2.09
8999.00,2.09
8998.00,2.09
8997.00,2.09
8996.00,2.09
8995.00,2.09
8994.00,2.08
8993.00,2.08
8992.00,2.08
8991.00,2.08
8990.00,2.08
8989.00,2.07
8988.00,2.07
8987.00,2.07
8986.00,2.06
8985.00,2.06
8984.00,2.05
8983.00,2.05
8982.00,2.05
8981.00,2.05
8980.00,2.04
8979.00,2.04
8978.00,2.04
8977.00,2.04
8976.00,2.04
8975.00,2.04
8974.00,2.04
8973.00,2.04
8972.00,2.04
8971.00,2.04
8970.00,2.04
8969.00,2.04
8968.00,2.04
8967.00,2.04
8966.00,2.04
8965.00,2.04
8964.00,2.04
8963.00,2.04
8962.00,2.04
8961.00,2.04
8960.00,2.04
8959.00,2.04
8958.00,2.04
8957.00,2.04
8956.00,2.04
8955.00,2.04
8954.00,2.04
8953.00,2.04
8952.00,2.04
8951.00,2.05
8950.00,2.05
8949.00,2.05
8948.00,2.05
8947.00,2.05
8946.00,2.05
8945.00,2.06
8944.00,2.06
8943.00,2.06
8942.00,2.06
8941.00,2.06
8940.00,2.07
8939.00,2.07
8938.00,2.07
8937.00,2.07
8936.00,2.07
8935.00,2.07
8934.00,2.07
8933.00,2.08
8932.00,2.08
8931.00,2.08
8930.00,2.08
8929.00,2.08
8928.00,2.08
8927.00,2.08
8926.00,2.08
8925.00,2.08
8924.00,2.08
8923.00,2.08
8922.00,2.08
8921.00,2.08
8920.00,2.08
8919.00,2.08
8918.00,2.08
8917.00,2.07
8916.00,2.07
8915.00,2.07
8914.00,2.07
8913.00,2.07
8912.00,2.06
8911.00,2.06
8910.00,2.06
8909.00,2.06
8908.00,2.06
8907.00,2.06
8906.00,2.05
8905.00,2.05
8904.00,2.05
8903.00,2.05
8902.00,2.05
8901.00,2.06
8900.00,2.06
8899.00,2.06
8898.00,2.06
8897.00,2.06
8896.00,2.06
8895.00,2.06
8894.00,2.06
8893.00,2.06
8892.00,2.06
8891.00,2.06
8890.00,2.06
8889.00,2.05
8888.00,2.05
8887.00,2.05
8886.00,2.05
8885.00,2.05
8884.00,2.05
8883.00,2.04
8882.00,2.04
8881.00,2.04
8880.00,2.04
8879.00,2.04
8878.00,2.04
8877.00,2.04
8876.00,2.04
8875.00,2.05
8874.00,2.05
8873.00,2.05
8872.00,2.05
8871.00,2.06
8870.00,2.06
8869.00,2.06
8868.00,2.06
8867.00,2.07
8866.00,2.07
8865.00,2.07
8864.00,2.07
8863.00,2.08
8862.00,2.08
8861.00,2.08
8860.00,2.08
8859.00,2.08
8858.00,2.08
8857.00,2.08
8856.00,2.08
8855.00,2.08
8854.00,2.08
8853.00,2.08
8852.00,2.08
8851.00,2.08
8850.00,2.08
8849.00,2.08
8848.00,2.07
8847.00,2.07
8846.00,2.07
8845.00,2.07
8844.00,2.06
8843.00,2.06
8842.00,2.06
8841.00,2.06
8840.00,2.05
8839.00,2.05
8838.00,2.05
8837.00,2.04
8836.00,2.04
8835.00,2.04
8834.00,2.04
8833.00,2.03
8832.00,2.03
8831.00,2.03
8830.00,2.03
8829.00,2.02
8828.00,2.02
8827.00,2.02
8826.00,2.02
8825.00,2.02
8824.00,2.02
8823.00,2.02
8822.00,2.02
8821.00,2.03
8820.00,2.03
8819.00,2.03
8818.00,2.03
8817.00,2.03
8816.00,2.04
8815.00,2.04
8814.00,2.04
8813.00,2.04
8812.00,2.04
8811.00,2.05
8810.00,2.05
8809.00,2.05
8808.00,2.05
8807.00,2.05
8806.00,2.05
8805.00,2.05
8804.00,2.05
8803.00,2.04
8802.00,2.04
8801.00,2.04
8800.00,2.04
8799.00,2.04
8798.00,2.04
8797.00,2.04
8796.00,2.03
8795.00,2.03
8794.00,2.03
8793.00,2.03
8792.00,2.03
8791.00,2.03
8790.00,2.03
8789.00,2.03
8788.00,2.03
8787.00,2.03
8786.00,2.03
8785.00,2.03
8784.00,2.03
8783.00,2.03
8782.00,2.03
8781.00,2.03
8780.00,2.03
8779.00,2.03
8778.00,2.03
8777.00,2.03
8776.00,2.03
8775.00,2.03
8774.00,2.03
8773.00,2.03
8772.00,2.03
8771.00,2.03
8770.00,2.03
8769.00,2.03
8768.00,2.03
8767.00,2.03
8766.00,2.03
8765.00,2.03
8764.00,2.03
8763.00,2.03
8762.00,2.03
8761.00,2.03
8760.00,2.03
8759.00,2.03
8758.00,2.03
8757.00,2.03
8756.00,2.03
8755.00,2.03
8754.00,2.03
8753.00,2.03
8752.00,2.03
8751.00,2.02
8750.00,2.02
8749.00,2.02
8748.00,2.02
8747.00,2.02
8746.00,2.01
8745.00,2.01
8744.00,2.01
8743.00,2.01
8742.00,2.00
8741.00,2.00
8740.00,2.00
8739.00,2.00
8738.00,2.00
8737.00,1.99
8736.00,1.99
8735.00,1.99
8734.00,1.99
8733.00,1.99
8732.00,1.99
8731.00,1.99
8730.00,1.99
8729.00,1.99
8728.00,1.99
8727.00,1.99
8726.00,1.99
8725.00,1.99
8724.00,1.99
8723.00,1.99
8722.00,1.99
8721.00,1.99
8720.00,2.00
8719.00,2.00
8718.00,2.00
8717.00,2.00
8716.00,2.00
8715.00,2.00
8714.00,2.00
8713.00,2.00
8712.00,2.01
8711.00,2.01
8710.00,2.01
8709.00,2.01
8708.00,2.01
8707.00,2.01
8706.00,2.01
8705.00,2.01
8704.00,2.01
8703.00,2.00
8702.00,2.00
8701.00,2.00
8700.00,2.00
8699.00,2.00
8698.00,2.00
8697.00,2.00
8696.00,1.99
8695.00,1.99
8694.00,1.99
8693.00,1.99
8692.00,1.99
8691.00,1.99
8690.00,1.99
8689.00,1.99
8688.00,1.99
8687.00,1.99
8686.00,1.99
8685.00,1.99
8684.00,1.99
8683.00,1.99
8682.00,1.98
8681.00,1.98
8680.00,1.98
8679.00,1.98
8678.00,1.98
8677.00,1.98
8676.00,1.98
8675.00,1.98
8674.00,1.98
8673.00,1.98
8672.00,1.98
8671.00,1.98
8670.00,1.97
8669.00,1.97
8668.00,1.97
8667.00,1.97
8666.00,1.97
8665.00,1.97
8664.00,1.97
8663.00,1.97
8662.00,1.97
8661.00,1.97
8660.00,1.97
8659.00,1.97
8658.00,1.97
8657.00,1.97
8656.00,1.98
8655.00,1.98
8654.00,1.98
8653.00,1.98
8652.00,1.98
8651.00,1.98
8650.00,1.98
8649.00,1.98
8648.00,1.98
8647.00,1.99
8646.00,1.99
8645.00,1.99
8644.00,1.99
8643.00,1.99
8642.00,1.98
8641.00,1.98
8640.00,1.98
8639.00,1.98
8638.00,1.98
8637.00,1.98
8636.00,1.98
8635.00,1.98
8634.00,1.98
8633.00,1.98
8632.00,1.98
8631.00,1.98
8630.00,1.97
8629.00,1.97
8628.00,1.97
8627.00,1.97
8626.00,1.97
8625.00,1.97
8624.00,1.97
8623.00,1.98
8622.00,1.98
8621.00,1.98
8620.00,1.98
8619.00,1.98
8618.00,1.98
8617.00,1.98
8616.00,1.98
8615.00,1.99
8614.00,1.99
8613.00,1.99
8612.00,1.99
8611.00,1.99
8610.00,1.99
8609.00,1.99
8608.00,1.99
8607.00,1.99
8606.00,1.99
8605.00,1.99
8604.00,1.99
8603.00,1.99
8602.00,1.99
8601.00,1.99
8600.00,1.99
8599.00,1.98
8598.00,1.98
8597.00,1.98
8596.00,1.98
8595.00,1.98
8594.00,1.98
8593.00,1.97
8592.00,1.97
8591.00,1.97
8590.00,1.97
8589.00,1.97
8588.00,1.97
8587.00,1.96
8586.00,1.96
8585.00,1.96
8584.00,1.96
8583.00,1.96
8582.00,1.96
8581.00,1.96
8580.00,1.96
8579.00,1.95
8578.00,1.95
8577.00,1.95
8576.00,1.95
8575.00,1.95
8574.00,1.95
8573.00,1.95
8572.00,1.95
8571.00,1.95
8570.00,1.95
8569.00,1.95
8568.00,1.95
8567.00,1.95
8566.00,1.95
8565.00,1.95
8564.00,1.95
8563.00,1.95
8562.00,1.95
8561.00,1.95
8560.00,1.95
8559.00,1.95
8558.00,1.95
8557.00,1.95
8556.00,1.95
8555.00,1.95
8554.00,1.94
8553.00,1.94
8552.00,1.94
8551.00,1.94
8550.00,1.94
8549.00,1.94
8548.00,1.94
8547.00,1.94
8546.00,1.94
8545.00,1.93
8544.00,1.93
8543.00,1.93
8542.00,1.93
8541.00,1.93
8540.00,1.93
8539.00,1.93
8538.00,1.93
8537.00,1.92
8536.00,1.92
8535.00,1.92
8534.00,1.92
8533.00,1.92
8532.00,1.92
8531.00,1.92
8530.00,1.92
8529.00,1.92
8528.00,1.92
8527.00,1.92
8526.00,1.92
8525.00,1.92
8524.00,1.92
8523.00,1.92
8522.00,1.92
8521.00,1.92
8520.00,1.92
8519.00,1.92
8518.00,1.92
8517.00,1.92
8516.00,1.92
8515.00,1.92
8514.00,1.92
8513.00,1.91
8512.00,1.91
8511.00,1.91
8510.00,1.91
8509.00,1.91
8508.00,1.91
8507.00,1.91
8506.00,1.91
8505.00,1.91
8504.00,1.91
8503.00,1.91
8502.00,1.91
8501.00,1.90
8500.00,1.90
8499.00,1.90
8498.00,1.90
8497.00,1.91
8496.00,1.91
8495.00,1.91
8494.00,1.91
8493.00,1.90
8492.00,1.90
8491.00,1.90
8490.00,1.90
8489.00,1.90
8488.00,1.90
8487.00,1.90
8486.00,1.90
8485.00,1.90
8484.00,1.90
8483.00,1.90
8482.00,1.89
8481.00,1.89
8480.00,1.89
8479.00,1.89
8478.00,1.89
8477.00,1.89
8476.00,1.89
8475.00,1.88
8474.00,1.88
8473.00,1.88
8472.00,1.88
8471.00,1.88
8470.00,1.88
8469.00,1.88
8468.00,1.87
8467.00,1.87
8466.00,1.87
8465.00,1.87
8464.00,1.86
8463.00,1.86
8462.00,1.86
8461.00,1.85
8460.00,1.85
8459.00,1.85
8458.00,1.84
8457.00,1.84
8456.00,1.84
8455.00,1.84
8454.00,1.84
8453.00,1.84
8452.00,1.84
8451.00,1.84
8450.00,1.84
8449.00,1.84
8448.00,1.84
8447.00,1.84
8446.00,1.84
8445.00,1.84
8444.00,1.85
8443.00,1.85
8442.00,1.85
8441.00,1.85
8440.00,1.85
8439.00,1.85
8438.00,1.85
8437.00,1.85
8436.00,1.85
8435.00,1.85
8434.00,1.85
8433.00,1.85
8432.00,1.85
8431.00,1.85
8430.00,1.85
8429.00,1.86
8428.00,1.86
8427.00,1.86
8426.00,1.86
8425.00,1.86
8424.00,1.86
8423.00,1.86
8422.00,1.86
8421.00,1.86
8420.00,1.86
8419.00,1.86
8418.00,1.86
8417.00,1.86
8416.00,1.87
8415.00,1.87
8414.00,1.87
8413.00,1.87
8412.00,1.87
8411.00,1.87
8410.00,1.87
8409.00,1.87
8408.00,1.87
8407.00,1.87
8406.00,1.87
8405.00,1.87
8404.00,1.87
8403.00,1.87
8402.00,1.87
8401.00,1.87
8400.00,1.87
8399.00,1.87
8398.00,1.87
8397.00,1.87
8396.00,1.87
8395.00,1.87
8394.00,1.88
8393.00,1.88
8392.00,1.88
8391.00,1.88
8390.00,1.88
8389.00,1.88
8388.00,1.88
8387.00,1.88
8386.00,1.88
8385.00,1.88
8384.00,1.88
8383.00,1.88
8382.00,1.88
8381.00,1.88
8380.00,1.88
8379.00,1.88
8378.00,1.88
8377.00,1.88
8376.00,1.88
8375.00,1.88
8374.00,1.88
8373.00,1.88
8372.00,1.88
8371.00,1.88
8370.00,1.88
8369.00,1.88
8368.00,1.88
8367.00,1.88
8366.00,1.88
8365.00,1.89
8364.00,1.89
8363.00,1.89
8362.00,1.89
8361.00,1.90
8360.00,1.90
8359.00,1.90
8358.00,1.91
8357.00,1.91
8356.00,1.91
8355.00,1.91
8354.00,1.92
8353.00,1.92
8352.00,1.92
8351.00,1.92
8350.00,1.92
8349.00,1.92
8348.00,1.92
8347.00,1.92
8346.00,1.92
8345.00,1.92
8344.00,1.92
8343.00,1.92
8342.00,1.92
8341.00,1.92
8340.00,1.92
8339.00,1.92
8338.00,1.92
8337.00,1.92
8336.00,1.92
8335.00,1.92
8334.00,1.92
8333.00,1.92
8332.00,1.92
8331.00,1.92
8330.00,1.92
8329.00,1.92
8328.00,1.92
8327.00,1.92
8326.00,1.92
8325.00,1.92
8324.00,1.92
8323.00,1.92
8322.00,1.92
8321.00,1.92
8320.00,1.92
8319.00,1.93
8318.00,1.93
8317.00,1.93
8316.00,1.93
8315.00,1.93
8314.00,1.93
8313.00,1.93
8312.00,1.93
8311.00,1.93
8310.00,1.93
8309.00,1.93
8308.00,1.93
8307.00,1.93
8306.00,1.93
8305.00,1.93
8304.00,1.93
8303.00,1.93
8302.00,1.93
8301.00,1.93
8300.00,1.93
8299.00,1.93
8298.00,1.93
8297.00,1.93
8296.00,1.93
8295.00,1.93
8294.00,1.93
8293.00,1.93
8292.00,1.93
8291.00,1.93
8290.00,1.93
8289.00,1.93
8288.00,1.93
8287.00,1.93
8286.00,1.92
8285.00,1.92
8284.00,1.92
8283.00,1.92
8282.00,1.92
8281.00,1.92
8280.00,1.92
8279.00,1.92
8278.00,1.92
8277.00,1.92
8276.00,1.92
8275.00,1.92
8274.00,1.92
8273.00,1.92
8272.00,1.92
8271.00,1.92
8270.00,1.92
8269.00,1.92
8268.00,1.92
8267.00,1.92
8266.00,1.93
8265.00,1.93
8264.00,1.93
8263.00,1.93
8262.00,1.93
8261.00,1.93
8260.00,1.93
8259.00,1.93
8258.00,1.94
8257.00,1.94
8256.00,1.94
8255.00,1.94
8254.00,1.94
8253.00,1.94
8252.00,1.94
8251.00,1.94
8250.00,1.94
8249.00,1.94
8248.00,1.94
8247.00,1.94
8246.00,1.94
8245.00,1.94
8244.00,1.94
8243.00,1.94
8242.00,1.94
8241.00,1.94
8240.00,1.94
8239.00,1.94
8238.00,1.94
8237.00,1.94
8236.00,1.94
8235.00,1.93
8234.00,1.93
8233.00,1.93
8232.00,1.93
8231.00,1.93
8230.00,1.93
8229.00,1.93
8228.00,1.93
8227.00,1.93
8226.00,1.93
8225.00,1.93
8224.00,1.93
8223.00,1.94
8222.00,1.94
8221.00,1.94
8220.00,1.94
8219.00,1.94
8218.00,1.94
8217.00,1.94
8216.00,1.94
8215.00,1.94
8214.00,1.94
8213.00,1.95
8212.00,1.95
8211.00,1.95
8210.00,1.95
8209.00,1.95
8208.00,1.95
8207.00,1.95
8206.00,1.95
8205.00,1.95
8204.00,1.95
8203.00,1.95
8202.00,1.96
8201.00,1.96
8200.00,1.96
8199.00,1.96
8198.00,1.96
8197.00,1.96
8196.00,1.97
8195.00,1.97
8194.00,1.97
8193.00,1.97
8192.00,1.97
8191.00,1.97
8190.00,1.97
8189.00,1.97
8188.00,1.97
8187.00,1.97
8186.00,1.97
8185.00,1.97
8184.00,1.97
8183.00,1.97
8182.00,1.97
8181.00,1.97
8180.00,1.97
8179.00,1.97
8178.00,1.97
8177.00,1.97
8176.00,1.97
8175.00,1.97
8174.00,1.97
8173.00,1.97
8172.00,1.97
8171.00,1.97
8170.00,1.97
8169.00,1.97
8168.00,1.97
8167.00,1.97
8166.00,1.98
8165.00,1.98
8164.00,1.98
8163.00,1.98
8162.00,1.99
8161.00,1.99
8160.00,1.99
8159.00,1.99
8158.00,1.99
8157.00,2.00
8156.00,2.00
8155.00,2.00
8154.00,2.00
8153.00,2.00
8152.00,2.00
8151.00,1.99
8150.00,1.99
8149.00,1.99
8148.00,1.99
8147.00,1.99
8146.00,1.99
8145.00,1.99
8144.00,1.99
8143.00,1.99
8142.00,1.99
8141.00,1.99
8140.00,1.99
8139.00,1.99
8138.00,1.99
8137.00,2.00
8136.00,2.00
8135.00,2.00
8134.00,2.00
8133.00,2.00
8132.00,2.00
8131.00,2.01
8130.00,2.01
8129.00,2.01
8128.00,2.01
8127.00,2.01
8126.00,2.01
8125.00,2.01
8124.00,2.01
8123.00,2.01
8122.00,2.01
8121.00,2.01
8120.00,2.01
8119.00,2.01
8118.00,2.01
8117.00,2.01
8116.00,2.01
8115.00,2.01
8114.00,2.01
8113.00,2.01
8112.00,2.01
8111.00,2.01
8110.00,2.01
8109.00,2.01
8108.00,2.01
8107.00,2.01
8106.00,2.01
8105.00,2.01
8104.00,2.02
8103.00,2.02
8102.00,2.02
8101.00,2.02
8100.00,2.02
8099.00,2.02
8098.00,2.02
8097.00,2.02
8096.00,2.02
8095.00,2.02
8094.00,2.02
8093.00,2.02
8092.00,2.02
8091.00,2.02
8090.00,2.02
8089.00,2.02
8088.00,2.02
8087.00,2.02
8086.00,2.02
8085.00,2.02
8084.00,2.02
8083.00,2.02
8082.00,2.02
8081.00,2.02
8080.00,2.02
8079.00,2.02
8078.00,2.02
8077.00,2.02
8076.00,2.02
8075.00,2.02
8074.00,2.02
8073.00,2.02
8072.00,2.02
8071.00,2.02
8070.00,2.02
8069.00,2.02
8068.00,2.02
8067.00,2.02
8066.00,2.02
8065.00,2.02
8064.00,2.02
8063.00,2.02
8062.00,2.02
8061.00,2.01
8060.00,2.01
8059.00,2.01
8058.00,2.01
8057.00,2.01
8056.00,2.01
8055.00,2.01
8054.00,2.01
8053.00,2.01
8052.00,2.01
8051.00,2.01
8050.00,2.02
8049.00,2.02
8048.00,2.02
8047.00,2.02
8046.00,2.02
8045.00,2.02
8044.00,2.02
8043.00,2.02
8042.00,2.02
8041.00,2.02
8040.00,2.02
8039.00,2.02
8038.00,2.02
8037.00,2.02
8036.00,2.02
8035.00,2.02
8034.00,2.02
8033.00,2.02
8032.00,2.02
8031.00,2.02
8030.00,2.02
8029.00,2.02
8028.00,2.02
8027.00,2.02
8026.00,2.02
8025.00,2.02
8024.00,2.02
8023.00,2.02
8022.00,2.02
8021.00,2.02
8020.00,2.02
8019.00,2.02
8018.00,2.02
8017.00,2.02
8016.00,2.02
8015.00,2.02
8014.00,2.02
8013.00,2.02
8012.00,2.02
8011.00,2.02
8010.00,2.02
8009.00,2.02
8008.00,2.02
8007.00,2.02
8006.00,2.02
8005.00,2.02
8004.00,2.02
8003.00,2.02
8002.00,2.02
8001.00,2.02
8000.00,2.02
7999.00,2.02
7998.00,2.02
7997.00,2.02
7996.00,2.02
7995.00,2.02
7994.00,2.02
7993.00,2.02
7992.00,2.02
7991.00,2.02
7990.00,2.03
7989.00,2.03
7988.00,2.03
7987.00,2.03
7986.00,2.03
7985.00,2.03
7984.00,2.04
7983.00,2.04
7982.00,2.04
7981.00,2.04
7980.00,2.04
7979.00,2.04
7978.00,2.04
7977.00,2.04
7976.00,2.04
7975.00,2.05
7974.00,2.05
7973.00,2.05
7972.00,2.05
7971.00,2.05
7970.00,2.05
7969.00,2.05
7968.00,2.05
7967.00,2.05
7966.00,2.05
7965.00,2.05
7964.00,2.05
7963.00,2.05
7962.00,2.05
7961.00,2.05
7960.00,2.05
7959.00,2.05
7958.00,2.05
7957.00,2.05
7956.00,2.05
7955.00,2.04
7954.00,2.04
7953.00,2.04
7952.00,2.04
7951.00,2.04
7950.00,2.04
7949.00,2.04
7948.00,2.04
7947.00,2.04
7946.00,2.04
7945.00,2.04
7944.00,2.04
7943.00,2.04
7942.00,2.04
7941.00,2.04
7940.00,2.04
7939.00,2.05
7938.00,2.05
7937.00,2.05
7936.00,2.05
7935.00,2.05
7934.00,2.05
7933.00,2.05
7932.00,2.05
7931.00,2.05
7930.00,2.05
7929.00,2.05
7928.00,2.05
7927.00,2.05
7926.00,2.05
7925.00,2.05
7924.00,2.05
7923.00,2.05
7922.00,2.05
7921.00,2.05
7920.00,2.05
7919.00,2.05
7918.00,2.05
7917.00,2.05
7916.00,2.05
7915.00,2.05
7914.00,2.05
7913.00,2.05
7912.00,2.05
7911.00,2.05
7910.00,2.06
7909.00,2.06
7908.00,2.06
7907.00,2.06
7906.00,2.06
7905.00,2.06
7904.00,2.06
7903.00,2.06
7902.00,2.06
7901.00,2.06
7900.00,2.06
7899.00,2.06
7898.00,2.06
7897.00,2.05
7896.00,2.05
7895.00,2.05
7894.00,2.05
7893.00,2.05
7892.00,2.05
7891.00,2.05
7890.00,2.05
7889.00,2.05
7888.00,2.05
7887.00,2.05
7886.00,2.06
7885.00,2.06
7884.00,2.06
7883.00,2.06
7882.00,2.06
7881.00,2.06
7880.00,2.06
7879.00,2.06
7878.00,2.06
7877.00,2.06
7876.00,2.07
7875.00,2.07
7874.00,2.07
7873.00,2.07
7872.00,2.07
7871.00,2.07
7870.00,2.07
7869.00,2.07
7868.00,2.07
7867.00,2.07
7866.00,2.06
7865.00,2.06
7864.00,2.06
7863.00,2.06
7862.00,2.06
7861.00,2.06
7860.00,2.06
7859.00,2.06
7858.00,2.05
7857.00,2.05
7856.00,2.05
7855.00,2.05
7854.00,2.05
7853.00,2.05
7852.00,2.05
7851.00,2.05
7850.00,2.05
7849.00,2.05
7848.00,2.05
7847.00,2.05
7846.00,2.05
7845.00,2.05
7844.00,2.05
7843.00,2.05
7842.00,2.05
7841.00,2.05
7840.00,2.05
7839.00,2.05
7838.00,2.05
7837.00,2.05
7836.00,2.06
7835.00,2.06
7834.00,2.06
7833.00,2.06
7832.00,2.06
7831.00,2.06
7830.00,2.06
7829.00,2.06
7828.00,2.06
7827.00,2.07
7826.00,2.07
7825.00,2.07
7824.00,2.07
7823.00,2.07
7822.00,2.07
7821.00,2.07
7820.00,2.07
7819.00,2.07
7818.00,2.07
7817.00,2.07
7816.00,2.07
7815.00,2.07
7814.00,2.07
7813.00,2.07
7812.00,2.07
7811.00,2.07
7810.00,2.07
7809.00,2.07
7808.00,2.07
7807.00,2.07
7806.00,2.07
7805.00,2.07
7804.00,2.07
7803.00,2.07
7802.00,2.07
7801.00,2.07
7800.00,2.08
7799.00,2.08
7798.00,2.08
7797.00,2.08
7796.00,2.08
7795.00,2.08
7794.00,2.08
7793.00,2.08
7792.00,2.08
7791.00,2.08
7790.00,2.08
7789.00,2.08
7788.00,2.08
7787.00,2.09
7786.00,2.09
7785.00,2.09
7784.00,2.09
7783.00,2.09
7782.00,2.09
7781.00,2.09
7780.00,2.09
7779.00,2.09
7778.00,2.09
7777.00,2.09
7776.00,2.09
7775.00,2.09
7774.00,2.09
7773.00,2.09
7772.00,2.09
7771.00,2.09
7770.00,2.09
7769.00,2.09
7768.00,2.09
7767.00,2.09
7766.00,2.08
7765.00,2.08
7764.00,2.08
7763.00,2.08
7762.00,2.08
7761.00,2.08
7760.00,2.08
7759.00,2.08
7758.00,2.08
7757.00,2.08
7756.00,2.08
7755.00,2.08
7754.00,2.08
7753.00,2.08
7752.00,2.08
7751.00,2.08
7750.00,2.08
7749.00,2.08
7748.00,2.08
7747.00,2.08
7746.00,2.08
7745.00,2.08
7744.00,2.08
7743.00,2.08
7742.00,2.08
7741.00,2.08
7740.00,2.08
7739.00,2.08
7738.00,2.08
7737.00,2.08
7736.00,2.08
7735.00,2.08
7734.00,2.08
7733.00,2.08
7732.00,2.08
7731.00,2.08
7730.00,2.08
7729.00,2.08
7728.00,2.08
7727.00,2.08
7726.00,2.08
7725.00,2.08
7724.00,2.08
7723.00,2.08
7722.00,2.08
7721.00,2.08
7720.00,2.08
7719.00,2.08
7718.00,2.08
7717.00,2.08
7716.00,2.08
7715.00,2.08
7714.00,2.08
7713.00,2.08
7712.00,2.08
7711.00,2.08
7710.00,2.08
7709.00,2.08
7708.00,2.07
7707.00,2.07
7706.00,2.07
7705.00,2.07
7704.00,2.07
7703.00,2.07
7702.00,2.07
7701.00,2.07
7700.00,2.07
7699.00,2.07
7698.00,2.07
7697.00,2.07
7696.00,2.07
7695.00,2.07
7694.00,2.07
7693.00,2.07
7692.00,2.07
7691.00,2.07
7690.00,2.08
7689.00,2.08
7688.00,2.08
7687.00,2.08
7686.00,2.08
7685.00,2.08
7684.00,2.08
7683.00,2.08
7682.00,2.08
7681.00,2.08
7680.00,2.08
7679.00,2.08
7678.00,2.08
7677.00,2.08
7676.00,2.08
7675.00,2.08
7674.00,2.08
7673.00,2.08
7672.00,2.08
7671.00,2.08
7670.00,2.08
7669.00,2.08
7668.00,2.08
7667.00,2.08
7666.00,2.08
7665.00,2.08
7664.00,2.08
7663.00,2.08
7662.00,2.08
7661.00,2.08
7660.00,2.08
7659.00,2.08
7658.00,2.08
7657.00,2.08
7656.00,2.08
7655.00,2.08
7654.00,2.08
7653.00,2.08
7652.00,2.08
7651.00,2.08
7650.00,2.08
7649.00,2.08
7648.00,2.08
7647.00,2.08
7646.00,2.08
7645.00,2.08
7644.00,2.08
7643.00,2.08
7642.00,2.08
7641.00,2.08
7640.00,2.09
7639.00,2.09
7638.00,2.09
7637.00,2.09
7636.00,2.09
7635.00,2.09
7634.00,2.09
7633.00,2.09
7632.00,2.09
7631.00,2.09
7630.00,2.09
7629.00,2.09
7628.00,2.09
7627.00,2.09
7626.00,2.09
7625.00,2.09
7624.00,2.09
7623.00,2.09
7622.00,2.09
7621.00,2.09
7620.00,2.09
7619.00,2.09
7618.00,2.08
7617.00,2.08
7616.00,2.08
7615.00,2.08
7614.00,2.08
7613.00,2.08
7612.00,2.08
7611.00,2.08
7610.00,2.08
7609.00,2.08
7608.00,2.08
7607.00,2.08
7606.00,2.08
7605.00,2.08
7604.00,2.08
7603.00,2.08
7602.00,2.08
7601.00,2.08
7600.00,2.08
7599.00,2.08
7598.00,2.08
7597.00,2.08
7596.00,2.08
7595.00,2.08
7594.00,2.08
7593.00,2.08
7592.00,2.08
7591.00,2.08
7590.00,2.08
7589.00,2.08
7588.00,2.08
7587.00,2.08
7586.00,2.08
7585.00,2.08
7584.00,2.08
7583.00,2.08
7582.00,2.08
7581.00,2.07
7580.00,2.07
7579.00,2.07
7578.00,2.07
7577.00,2.07
7576.00,2.07
7575.00,2.07
7574.00,2.07
7573.00,2.07
7572.00,2.07
7571.00,2.07
7570.00,2.07
7569.00,2.07
7568.00,2.07
7567.00,2.07
7566.00,2.07
7565.00,2.07
7564.00,2.07
7563.00,2.07
7562.00,2.07
7561.00,2.07
7560.00,2.06
7559.00,2.06
7558.00,2.06
7557.00,2.06
7556.00,2.06
7555.00,2.06
7554.00,2.06
7553.00,2.06
7552.00,2.06
7551.00,2.06
7550.00,2.06
7549.00,2.06
7548.00,2.06
7547.00,2.06
7546.00,2.06
7545.00,2.06
7544.00,2.06
7543.00,2.06
7542.00,2.06
7541.00,2.06
7540.00,2.06
7539.00,2.06
7538.00,2.06
7537.00,2.06
7536.00,2.06
7535.00,2.06
7534.00,2.05
7533.00,2.05
7532.00,2.05
7531.00,2.05
7530.00,2.05
7529.00,2.05
7528.00,2.05
7527.00,2.05
7526.00,2.05
7525.00,2.05
7524.00,2.05
7523.00,2.05
7522.00,2.05
7521.00,2.05
7520.00,2.05
7519.00,2.05
7518.00,2.05
7517.00,2.05
7516.00,2.05
7515.00,2.05
7514.00,2.05
7513.00,2.05
7512.00,2.05
7511.00,2.05
7510.00,2.05
7509.00,2.05
7508.00,2.05
7507.00,2.05
7506.00,2.05
7505.00,2.05
7504.00,2.05
7503.00,2.05
7502.00,2.05
7501.00,2.05
7500.00,2.05
7499.00,2.05
7498.00,2.05
7497.00,2.04
7496.00,2.04
7495.00,2.04
7494.00,2.04
7493.00,2.04
7492.00,2.04
7491.00,2.04
7490.00,2.04
7489.00,2.04
7488.00,2.04
7487.00,2.04
7486.00,2.04
7485.00,2.04
7484.00,2.04
7483.00,2.05
7482.00,2.05
7481.00,2.05
7480.00,2.05
7479.00,2.05
7478.00,2.05
7477.00,2.05
7476.00,2.05
7475.00,2.05
7474.00,2.05
7473.00,2.05
7472.00,2.05
7471.00,2.05
7470.00,2.05
7469.00,2.05
7468.00,2.05
7467.00,2.05
7466.00,2.04
7465.00,2.04
7464.00,2.04
7463.00,2.04
7462.00,2.04
7461.00,2.04
7460.00,2.03
7459.00,2.03
7458.00,2.03
7457.00,2.03
7456.00,2.03
7455.00,2.03
7454.00,2.02
7453.00,2.02
7452.00,2.02
7451.00,2.02
7450.00,2.02
7449.00,2.02
7448.00,2.02
7447.00,2.02
7446.00,2.02
7445.00,2.01
7444.00,2.01
7443.00,2.01
7442.00,2.01
7441.00,2.01
7440.00,2.01
7439.00,2.01
7438.00,2.01
7437.00,2.01
7436.00,2.01
7435.00,2.01
7434.00,2.01
7433.00,2.00
7432.00,2.00
7431.00,2.00
7430.00,2.00
7429.00,2.00
7428.00,2.00
7427.00,2.00
7426.00,2.00
7425.00,1.99
7424.00,1.99
7423.00,1.99
7422.00,1.99
7421.00,1.99
7420.00,1.99
7419.00,1.99
7418.00,1.99
7417.00,1.99
7416.00,1.99
7415.00,1.99
7414.00,1.98
7413.00,1.98
7412.00,1.98
7411.00,1.98
7410.00,1.98
7409.00,1.98
7408.00,1.98
7407.00,1.98
7406.00,1.98
7405.00,1.97
7404.00,1.97
7403.00,1.97
7402.00,1.97
7401.00,1.97
7400.00,1.97
7399.00,1.96
7398.00,1.96
7397.00,1.96
7396.00,1.96
7395.00,1.95
7394.00,1.95
7393.00,1.95
7392.00,1.95
7391.00,1.95
7390.00,1.94
7389.00,1.94
7388.00,1.94
7387.00,1.94
7386.00,1.94
7385.00,1.93
7384.00,1.93
7383.00,1.93
7382.00,1.93
7381.00,1.93
7380.00,1.93
7379.00,1.93
7378.00,1.93
7377.00,1.93
7376.00,1.93
7375.00,1.93
7374.00,1.93
7373.00,1.93
7372.00,1.93
7371.00,1.93
7370.00,1.93
7369.00,1.93
7368.00,1.93
7367.00,1.93
7366.00,1.93
7365.00,1.93
7364.00,1.93
7363.00,1.93
7362.00,1.93
7361.00,1.93
7360.00,1.93
7359.00,1.93
7358.00,1.93
7357.00,1.93
7356.00,1.92
7355.00,1.92
7354.00,1.92
7353.00,1.92
7352.00,1.92
7351.00,1.92
7350.00,1.92
7349.00,1.91
7348.00,1.91
7347.00,1.91
7346.00,1.91
7345.00,1.91
7344.00,1.91
7343.00,1.91
7342.00,1.91
7341.00,1.91
7340.00,1.91
7339.00,1.90
7338.00,1.90
7337.00,1.90
7336.00,1.90
7335.00,1.90
7334.00,1.90
7333.00,1.90
7332.00,1.90
7331.00,1.90
7330.00,1.90
7329.00,1.90
7328.00,1.90
7327.00,1.90
7326.00,1.90
7325.00,1.90
7324.00,1.90
7323.00,1.90
7322.00,1.90
7321.00,1.90
7320.00,1.90
7319.00,1.90
7318.00,1.90
7317.00,1.90
7316.00,1.90
7315.00,1.90
7314.00,1.89
7313.00,1.89
7312.00,1.89
7311.00,1.89
7310.00,1.89
7309.00,1.89
7308.00,1.89
7307.00,1.89
7306.00,1.89
7305.00,1.88
7304.00,1.88
7303.00,1.88
7302.00,1.88
7301.00,1.88
7300.00,1.88
7299.00,1.87
7298.00,1.87
7297.00,1.87
7296.00,1.87
7295.00,1.87
7294.00,1.86
7293.00,1.86
7292.00,1.86
7291.00,1.86
7290.00,1.86
7289.00,1.86
7288.00,1.85
7287.00,1.85
7286.00,1.85
7285.00,1.85
7284.00,1.85
7283.00,1.85
7282.00,1.85
7281.00,1.85
7280.00,1.85
7279.00,1.85
7278.00,1.85
7277.00,1.85
7276.00,1.85
7275.00,1.85
7274.00,1.85
7273.00,1.85
7272.00,1.85
7271.00,1.84
7270.00,1.84
7269.00,1.84
7268.00,1.84
7267.00,1.84
7266.00,1.84
7265.00,1.83
7264.00,1.83
7263.00,1.83
7262.00,1.83
7261.00,1.82
7260.00,1.82
7259.00,1.82
7258.00,1.82
7257.00,1.81
7256.00,1.81
7255.00,1.80
7254.00,1.80
7253.00,1.80
7252.00,1.79
7251.00,1.79
7250.00,1.79
7249.00,1.78
7248.00,1.78
7247.00,1.78
7246.00,1.77
7245.00,1.77
7244.00,1.76
7243.00,1.76
7242.00,1.76
7241.00,1.75
7240.00,1.75
7239.00,1.75
7238.00,1.74
7237.00,1.74
7236.00,1.74
7235.00,1.73
7234.00,1.73
7233.00,1.72
7232.00,1.72
7231.00,1.72
7230.00,1.71
7229.00,1.71
7228.00,1.71
7227.00,1.70
7226.00,1.70
7225.00,1.69
7224.00,1.69
7223.00,1.68
7222.00,1.68
7221.00,1.68
7220.00,1.67
7219.00,1.67
7218.00,1.66
7217.00,1.66
7216.00,1.65
7215.00,1.65
7214.00,1.64
7213.00,1.64
7212.00,1.63
7211.00,1.63
7210.00,1.62
7209.00,1.62
7208.00,1.61
7207.00,1.61
7206.00,1.61
7205.00,1.60
7204.00,1.60
7203.00,1.59
7202.00,1.59
7201.00,1.58
7200.00,1.58
7199.00,1.57
7198.00,1.57
7197.00,1.57
7196.00,1.56
7195.00,1.56
7194.00,1.55
7193.00,1.55
7192.00,1.54
7191.00,1.54
7190.00,1.54
7189.00,1.53
7188.00,1.53
7187.00,1.52
7186.00,1.52
7185.00,1.51
7184.00,1.51
7183.00,1.50
7182.00,1.50
7181.00,1.50
7180.00,1.49
7179.00,1.49
7178.00,1.48
7177.00,1.48
7176.00,1.47
7175.00,1.47
7174.00,1.46
7173.00,1.46
7172.00,1.45
7171.00,1.45
7170.00,1.44
7169.00,1.44
7168.00,1.43
7167.00,1.43
7166.00,1.42
7165.00,1.42
7164.00,1.41
7163.00,1.41
7162.00,1.41
7161.00,1.40
7160.00,1.40
7159.00,1.39
7158.00,1.39
7157.00,1.39
7156.00,1.38
7155.00,1.38
7154.00,1.38
7153.00,1.38
7152.00,1.37
7151.00,1.37
7150.00,1.36
7149.00,1.36
7148.00,1.36
7147.00,1.35
7146.00,1.35
7145.00,1.34
7144.00,1.34
7143.00,1.33
7142.00,1.33
7141.00,1.32
7140.00,1.32
7139.00,1.31
7138.00,1.31
7137.00,1.30
7136.00,1.30
7135.00,1.29
7134.00,1.29
7133.00,1.29
7132.00,1.28
7131.00,1.28
7130.00,1.28
7129.00,1.27
7128.00,1.27
7127.00,1.27
7126.00,1.26
7125.00,1.26
7124.00,1.26
7123.00,1.25
7122.00,1.25
7121.00,1.25
7120.00,1.24
7119.00,1.24
7118.00,1.24
7117.00,1.23
7116.00,1.23
7115.00,1.23
7114.00,1.23
7113.00,1.22
7112.00,1.22
7111.00,1.22
7110.00,1.22
7109.00,1.21
7108.00,1.21
7107.00,1.21
7106.00,1.20
7105.00,1.20
7104.00,1.20
7103.00,1.20
7102.00,1.19
7101.00,1.19
7100.00,1.19
7099.00,1.18
7098.00,1.18
7097.00,1.17
7096.00,1.17
7095.00,1.17
7094.00,1.16
7093.00,1.16
7092.00,1.16
7091.00,1.15
7090.00,1.15
7089.00,1.15
7088.00,1.14
7087.00,1.14
7086.00,1.14
7085.00,1.14
7084.00,1.13
7083.00,1.13
7082.00,1.13
7081.00,1.12
7080.00,1.12
7079.00,1.12
7078.00,1.12
7077.00,1.11
7076.00,1.11
7075.00,1.11
7074.00,1.11
7073.00,1.10
7072.00,1.10
7071.00,1.10
7070.00,1.10
7069.00,1.09
7068.00,1.09
7067.00,1.09
7066.00,1.09
7065.00,1.08
7064.00,1.08
7063.00,1.08
7062.00,1.08
7061.00,1.08
7060.00,1.07
7059.00,1.07
7058.00,1.07
7057.00,1.07
7056.00,1.07
7055.00,1.06
7054.00,1.06
7053.00,1.06
7052.00,1.06
7051.00,1.06
7050.00,1.06
7049.00,1.05
7048.00,1.05
7047.00,1.05
7046.00,1.05
7045.00,1.05
7044.00,1.05
7043.00,1.04
7042.00,1.04
7041.00,1.04
7040.00,1.04
7039.00,1.04
7038.00,1.03
7037.00,1.03
7036.00,1.03
7035.00,1.03
7034.00,1.03
7033.00,1.02
7032.00,1.02
7031.00,1.02
7030.00,1.02
7029.00,1.02
7028.00,1.02
7027.00,1.02
7026.00,1.01
7025.00,1.01
7024.00,1.01
7023.00,1.01
7022.00,1.01
7021.00,1.01
7020.00,1.01
7019.00,1.01
7018.00,1.01
7017.00,1.01
7016.00,1.00
7015.00,1.00
7014.00,1.00
7013.00,1.00
7012.00,1.00
7011.00,1.00
7010.00,1.00
7009.00,1.00
7008.00,0.99
7007.00,0.99
7006.00,0.99
7005.00,0.99
7004.00,0.99
7003.00,0.99
7002.00,0.99
7001.00,0.99
7000.00,0.99
6999.00,0.99
6998.00,0.98
6997.00,0.98
6996.00,0.98
6995.00,0.98
6994.00,0.98
6993.00,0.98
6992.00,0.98
6991.00,0.98
6990.00,0.98
6989.00,0.98
6988.00,0.98
6987.00,0.98
6986.00,0.98
6985.00,0.98
6984.00,0.98
6983.00,0.98
6982.00,0.98
6981.00,0.98
6980.00,0.98
6979.00,0.97
6978.00,0.97
6977.00,0.97
6976.00,0.97
6975.00,0.97
6974.00,0.97
6973.00,0.96
6972.00,0.96
6971.00,0.96
6970.00,0.96
6969.00,0.96
6968.00,0.96
6967.00,0.96
6966.00,0.95
6965.00,0.95
6964.00,0.95
6963.00,0.95
6962.00,0.95
6961.00,0.95
6960.00,0.95
6959.00,0.95
6958.00,0.95
6957.00,0.95
6956.00,0.95
6955.00,0.95
6954.00,0.95
6953.00,0.95
6952.00,0.95
6951.00,0.95
6950.00,0.95
6949.00,0.95
6948.00,0.95
6947.00,0.95
6946.00,0.95
6945.00,0.95
6944.00,0.95
6943.00,0.95
6942.00,0.95
6941.00,0.94
6940.00,0.94
6939.00,0.94
6938.00,0.94
6937.00,0.94
6936.00,0.94
6935.00,0.94
6934.00,0.94
6933.00,0.94
6932.00,0.94
6931.00,0.94
6930.00,0.93
6929.00,0.93
6928.00,0.93
6927.00,0.93
6926.00,0.93
6925.00,0.93
6924.00,0.93
6923.00,0.93
6922.00,0.93
6921.00,0.93
6920.00,0.93
6919.00,0.92
6918.00,0.92
6917.00,0.92
6916.00,0.92
6915.00,0.92
6914.00,0.92
6913.00,0.92
6912.00,0.92
6911.00,0.92
6910.00,0.91
6909.00,0.91
6908.00,0.91
6907.00,0.91
6906.00,0.91
6905.00,0.91
6904.00,0.91
6903.00,0.91
6902.00,0.92
6901.00,0.92
6900.00,0.92
6899.00,0.92
6898.00,0.92
6897.00,0.92
6896.00,0.92
6895.00,0.92
6894.00,0.92
6893.00,0.92
6892.00,0.92
6891.00,0.92
6890.00,0.93
6889.00,0.93
6888.00,0.93
6887.00,0.93
6886.00,0.93
6885.00,0.93
6884.00,0.93
6883.00,0.93
6882.00,0.93
6881.00,0.93
6880.00,0.93
6879.00,0.93
6878.00,0.93
6877.00,0.93
6876.00,0.93
6875.00,0.93
6874.00,0.93
6873.00,0.93
6872.00,0.93
6871.00,0.93
6870.00,0.93
6869.00,0.93
6868.00,0.93
6867.00,0.93
6866.00,0.93
6865.00,0.93
6864.00,0.93
6863.00,0.93
6862.00,0.93
6861.00,0.93
6860.00,0.93
6859.00,0.93
6858.00,0.93
6857.00,0.93
6856.00,0.93
6855.00,0.93
6854.00,0.93
6853.00,0.93
6852.00,0.93
6851.00,0.93
6850.00,0.93
6849.00,0.93
6848.00,0.93
6847.00,0.93
6846.00,0.93
6845.00,0.93
6844.00,0.93
6843.00,0.93
6842.00,0.93
6841.00,0.93
6840.00,0.93
6839.00,0.93
6838.00,0.93
6837.00,0.93
6836.00,0.93
6835.00,0.93
6834.00,0.93
6833.00,0.93
6832.00,0.93
6831.00,0.93
6830.00,0.94
6829.00,0.94
6828.00,0.94
6827.00,0.94
6826.00,0.94
6825.00,0.94
6824.00,0.94
6823.00,0.94
6822.00,0.94
6821.00,0.95
6820.00,0.95
6819.00,0.95
6818.00,0.95
6817.00,0.95
6816.00,0.95
6815.00,0.95
6814.00,0.95
6813.00,0.95
6812.00,0.95
6811.00,0.95
6810.00,0.95
6809.00,0.95
6808.00,0.95
6807.00,0.95
6806.00,0.95
6805.00,0.95
6804.00,0.95
6803.00,0.95
6802.00,0.95
6801.00,0.95
6800.00,0.96
6799.00,0.96
6798.00,0.96
6797.00,0.96
6796.00,0.96
6795.00,0.96
6794.00,0.96
6793.00,0.96
6792.00,0.96
6791.00,0.96
6790.00,0.96
6789.00,0.96
6788.00,0.96
6787.00,0.97
6786.00,0.97
6785.00,0.97
6784.00,0.97
6783.00,0.97
6782.00,0.97
6781.00,0.97
6780.00,0.97
6779.00,0.98
6778.00,0.98
6777.00,0.98
6776.00,0.98
6775.00,0.98
6774.00,0.98
6773.00,0.98
6772.00,0.98
6771.00,0.98
6770.00,0.99
6769.00,0.99
6768.00,0.99
6767.00,0.99
6766.00,0.99
6765.00,0.99
6764.00,0.99
6763.00,0.99
6762.00,0.99
6761.00,0.99
6760.00,0.99
6759.00,0.99
6758.00,0.99
6757.00,0.99
6756.00,0.99
6755.00,0.99
6754.00,0.99
6753.00,0.99
6752.00,0.99
6751.00,0.99
6750.00,0.99
6749.00,0.99
6748.00,1.00
6747.00,1.00
6746.00,1.00
6745.00,1.00
6744.00,1.00
6743.00,1.00
6742.00,1.00
6741.00,1.00
6740.00,1.00
6739.00,1.00
6738.00,1.00
6737.00,1.00
6736.00,1.01
6735.00,1.01
6734.00,1.01
6733.00,1.01
6732.00,1.01
6731.00,1.01
6730.00,1.01
6729.00,1.01
6728.00,1.01
6727.00,1.01
6726.00,1.02
6725.00,1.02
6724.00,1.02
6723.00,1.02
6722.00,1.02
6721.00,1.02
6720.00,1.02
6719.00,1.03
6718.00,1.03
6717.00,1.03
6716.00,1.03
6715.00,1.03
6714.00,1.03
6713.00,1.04
6712.00,1.04
6711.00,1.04
6710.00,1.04
6709.00,1.04
6708.00,1.05
6707.00,1.05
6706.00,1.05
6705.00,1.05
6704.00,1.06
6703.00,1.06
6702.00,1.06
6701.00,1.06
6700.00,1.06
6699.00,1.06
6698.00,1.07
6697.00,1.07
6696.00,1.07
6695.00,1.07
6694.00,1.07
6693.00,1.07
6692.00,1.07
6691.00,1.07
6690.00,1.07
6689.00,1.07
6688.00,1.07
6687.00,1.07
6686.00,1.07
6685.00,1.07
6684.00,1.07
6683.00,1.08
6682.00,1.08
6681.00,1.08
6680.00,1.08
6679.00,1.08
6678.00,1.08
6677.00,1.09
6676.00,1.09
6675.00,1.09
6674.00,1.09
6673.00,1.09
6672.00,1.10
6671.00,1.10
6670.00,1.10
6669.00,1.10
6668.00,1.11
6667.00,1.11
6666.00,1.11
6665.00,1.11
6664.00,1.11
6663.00,1.11
6662.00,1.11
6661.00,1.12
6660.00,1.12
6659.00,1.12
6658.00,1.12
6657.00,1.12
6656.00,1.12
6655.00,1.12
6654.00,1.12
6653.00,1.12
6652.00,1.12
6651.00,1.12
6650.00,1.12
6649.00,1.12
6648.00,1.12
6647.00,1.12
6646.00,1.12
6645.00,1.12
6644.00,1.12
6643.00,1.13
6642.00,1.13
6641.00,1.13
6640.00,1.13
6639.00,1.13
6638.00,1.13
6637.00,1.14
6636.00,1.14
6635.00,1.14
6634.00,1.14
6633.00,1.14
6632.00,1.14
6631.00,1.15
6630.00,1.15
6629.00,1.15
6628.00,1.15
6627.00,1.15
6626.00,1.16
6625.00,1.16
6624.00,1.16
6623.00,1.16
6622.00,1.16
6621.00,1.16
6620.00,1.17
6619.00,1.17
6618.00,1.17
6617.00,1.17
6616.00,1.17
6615.00,1.18
6614.00,1.18
6613.00,1.18
6612.00,1.18
6611.00,1.18
6610.00,1.18
6609.00,1.18
6608.00,1.18
6607.00,1.19
6606.00,1.19
6605.00,1.19
6604.00,1.19
6603.00,1.19
6602.00,1.19
6601.00,1.19
6600.00,1.19
6599.00,1.19
6598.00,1.20
6597.00,1.20
6596.00,1.20
6595.00,1.20
6594.00,1.20
6593.00,1.20
6592.00,1.20
6591.00,1.20
6590.00,1.20
6589.00,1.20
6588.00,1.21
6587.00,1.21
6586.00,1.21
6585.00,1.21
6584.00,1.21
6583.00,1.21
6582.00,1.21
6581.00,1.22
6580.00,1.22
6579.00,1.22
6578.00,1.22
6577.00,1.22
6576.00,1.22
6575.00,1.23
6574.00,1.23
6573.00,1.23
6572.00,1.23
6571.00,1.24
6570.00,1.24
6569.00,1.24
6568.00,1.24
6567.00,1.25
6566.00,1.25
6565.00,1.25
6564.00,1.25
6563.00,1.26
6562.00,1.26
6561.00,1.26
6560.00,1.26
6559.00,1.26
6558.00,1.26
6557.00,1.27
6556.00,1.27
6555.00,1.27
6554.00,1.27
6553.00,1.27
6552.00,1.27
6551.00,1.27
6550.00,1.27
6549.00,1.27
6548.00,1.28
6547.00,1.28
6546.00,1.28
6545.00,1.28
6544.00,1.28
6543.00,1.28
6542.00,1.28
6541.00,1.28
6540.00,1.28
6539.00,1.29
6538.00,1.29
6537.00,1.29
6536.00,1.29
6535.00,1.29
6534.00,1.29
6533.00,1.29
6532.00,1.29
6531.00,1.30
6530.00,1.30
6529.00,1.30
6528.00,1.30
6527.00,1.30
6526.00,1.30
6525.00,1.31
6524.00,1.31
6523.00,1.31
6522.00,1.31
6521.00,1.31
6520.00,1.31
6519.00,1.31
6518.00,1.31
6517.00,1.31
6516.00,1.31
6515.00,1.31
6514.00,1.31
6513.00,1.32
6512.00,1.32
6511.00,1.32
6510.00,1.32
6509.00,1.32
6508.00,1.32
6507.00,1.32
6506.00,1.32
6505.00,1.32
6504.00,1.32
6503.00,1.32
6502.00,1.32
6501.00,1.32
6500.00,1.32
6499.00,1.32
6498.00,1.32
6497.00,1.32
6496.00,1.32
6495.00,1.33
6494.00,1.33
6493.00,1.33
6492.00,1.33
6491.00,1.33
6490.00,1.33
6489.00,1.34
6488.00,1.34
6487.00,1.34
6486.00,1.34
6485.00,1.34
6484.00,1.35
6483.00,1.35
6482.00,1.35
6481.00,1.35
6480.00,1.35
6479.00,1.36
6478.00,1.36
6477.00,1.36
6476.00,1.36
6475.00,1.36
6474.00,1.36
6473.00,1.36
6472.00,1.37
6471.00,1.37
6470.00,1.37
6469.00,1.37
6468.00,1.37
6467.00,1.37
6466.00,1.37
6465.00,1.37
6464.00,1.37
6463.00,1.37
6462.00,1.37
6461.00,1.37
6460.00,1.37
6459.00,1.37
6458.00,1.37
6457.00,1.37
6456.00,1.37
6455.00,1.37
6454.00,1.37
6453.00,1.37
6452.00,1.37
6451.00,1.37
6450.00,1.37
6449.00,1.38
6448.00,1.38
6447.00,1.38
6446.00,1.38
6445.00,1.38
6444.00,1.38
6443.00,1.38
6442.00,1.38
6441.00,1.38
6440.00,1.38
6439.00,1.38
6438.00,1.38
6437.00,1.38
6436.00,1.39
6435.00,1.39
6434.00,1.39
6433.00,1.39
6432.00,1.39
6431.00,1.39
6430.00,1.39
6429.00,1.39
6428.00,1.40
6427.00,1.40
6426.00,1.40
6425.00,1.40
6424.00,1.40
6423.00,1.40
6422.00,1.40
6421.00,1.40
6420.00,1.41
6419.00,1.41
6418.00,1.41
6417.00,1.41
6416.00,1.41
6415.00,1.41
6414.00,1.41
6413.00,1.42
6412.00,1.42
6411.00,1.42
6410.00,1.42
6409.00,1.42
6408.00,1.42
6407.00,1.42
6406.00,1.42
6405.00,1.42
6404.00,1.42
6403.00,1.43
6402.00,1.43
6401.00,1.43
6400.00,1.43
6399.00,1.43
6398.00,1.43
6397.00,1.43
6396.00,1.43
6395.00,1.43
6394.00,1.43
6393.00,1.43
6392.00,1.43
6391.00,1.44
6390.00,1.44
6389.00,1.44
6388.00,1.44
6387.00,1.44
6386.00,1.44
6385.00,1.44
6384.00,1.44
6383.00,1.45
6382.00,1.45
6381.00,1.45
6380.00,1.45
6379.00,1.45
6378.00,1.45
6377.00,1.45
6376.00,1.45
6375.00,1.46
6374.00,1.46
6373.00,1.46
6372.00,1.46
6371.00,1.46
6370.00,1.46
6369.00,1.46
6368.00,1.46
6367.00,1.47
6366.00,1.47
6365.00,1.47
6364.00,1.47
6363.00,1.47
6362.00,1.47
6361.00,1.47
6360.00,1.47
6359.00,1.47
6358.00,1.47
6357.00,1.48
6356.00,1.48
6355.00,1.48
6354.00,1.48
6353.00,1.48
6352.00,1.48
6351.00,1.48
6350.00,1.48
6349.00,1.48
6348.00,1.49
6347.00,1.49
6346.00,1.49
6345.00,1.49
6344.00,1.49
6343.00,1.49
6342.00,1.50
6341.00,1.50
6340.00,1.50
6339.00,1.50
6338.00,1.50
6337.00,1.51
6336.00,1.51
6335.00,1.51
6334.00,1.51
6333.00,1.51
6332.00,1.52
6331.00,1.52
6330.00,1.52
6329.00,1.52
6328.00,1.52
6327.00,1.53
6326.00,1.53
6325.00,1.53
6324.00,1.53
6323.00,1.53
6322.00,1.53
6321.00,1.54
6320.00,1.54
6319.00,1.54
6318.00,1.54
6317.00,1.54
6316.00,1.54
6315.00,1.54
6314.00,1.54
6313.00,1.54
6312.00,1.54
6311.00,1.54
6310.00,1.55
6309.00,1.55
6308.00,1.55
6307.00,1.55
6306.00,1.55
6305.00,1.55
6304.00,1.55
6303.00,1.55
6302.00,1.56
6301.00,1.56
6300.00,1.56
6299.00,1.56
6298.00,1.56
6297.00,1.56
6296.00,1.57
6295.00,1.57
6294.00,1.57
6293.00,1.57
6292.00,1.57
6291.00,1.57
6290.00,1.58
6289.00,1.58
6288.00,1.58
6287.00,1.58
6286.00,1.58
6285.00,1.58
6284.00,1.59
6283.00,1.59
6282.00,1.59
6281.00,1.59
6280.00,1.59
6279.00,1.59
6278.00,1.60
6277.00,1.60
6276.00,1.60
6275.00,1.60
6274.00,1.60
6273.00,1.61
6272.00,1.61
6271.00,1.61
6270.00,1.61
6269.00,1.61
6268.00,1.61
6267.00,1.62
6266.00,1.62
6265.00,1.62
6264.00,1.62
6263.00,1.62
6262.00,1.62
6261.00,1.62
6260.00,1.62
6259.00,1.62
6258.00,1.62
6257.00,1.62
6256.00,1.62
6255.00,1.62
6254.00,1.63
6253.00,1.63
6252.00,1.63
6251.00,1.63
6250.00,1.63
6249.00,1.63
6248.00,1.63
6247.00,1.64
6246.00,1.64
6245.00,1.64
6244.00,1.64
6243.00,1.64
6242.00,1.65
6241.00,1.65
6240.00,1.65
6239.00,1.65
6238.00,1.65
6237.00,1.66
6236.00,1.66
6235.00,1.66
6234.00,1.66
6233.00,1.66
6232.00,1.67
6231.00,1.67
6230.00,1.67
6229.00,1.67
6228.00,1.67
6227.00,1.68
6226.00,1.68
6225.00,1.68
6224.00,1.68
6223.00,1.68
6222.00,1.69
6221.00,1.69
6220.00,1.69
6219.00,1.69
6218.00,1.69
6217.00,1.69
6216.00,1.70
6215.00,1.70
6214.00,1.70
6213.00,1.70
6212.00,1.70
6211.00,1.70
6210.00,1.70
6209.00,1.70
6208.00,1.70
6207.00,1.71
6206.00,1.71
6205.00,1.71
6204.00,1.71
6203.00,1.71
6202.00,1.71
6201.00,1.72
6200.00,1.72
6199.00,1.72
6198.00,1.72
6197.00,1.72
6196.00,1.72
6195.00,1.73
6194.00,1.73
6193.00,1.73
6192.00,1.73
6191.00,1.73
6190.00,1.74
6189.00,1.74
6188.00,1.74
6187.00,1.74
6186.00,1.74
6185.00,1.75
6184.00,1.75
6183.00,1.75
6182.00,1.75
6181.00,1.75
6180.00,1.75
6179.00,1.76
6178.00,1.76
6177.00,1.76
6176.00,1.76
6175.00,1.76
6174.00,1.77
6173.00,1.77
6172.00,1.77
6171.00,1.77
6170.00,1.77
6169.00,1.78
6168.00,1.78
6167.00,1.78
6166.00,1.78
6165.00,1.79
6164.00,1.79
6163.00,1.79
6162.00,1.79
6161.00,1.80
6160.00,1.80
6159.00,1.80
6158.00,1.80
6157.00,1.80
6156.00,1.81
6155.00,1.81
6154.00,1.81
6153.00,1.81
6152.00,1.81
6151.00,1.82
6150.00,1.82
6149.00,1.82
6148.00,1.82
6147.00,1.82
6146.00,1.83
6145.00,1.83
6144.00,1.83
6143.00,1.83
6142.00,1.84
6141.00,1.84
6140.00,1.84
6139.00,1.84
6138.00,1.85
6137.00,1.85
6136.00,1.85
6135.00,1.85
6134.00,1.86
6133.00,1.86
6132.00,1.86
6131.00,1.86
6130.00,1.87
6129.00,1.87
6128.00,1.87
6127.00,1.87
6126.00,1.87
6125.00,1.87
6124.00,1.88
6123.00,1.88
6122.00,1.88
6121.00,1.88
6120.00,1.88
6119.00,1.88
6118.00,1.88
6117.00,1.88
6116.00,1.89
6115.00,1.89
6114.00,1.89
6113.00,1.89
6112.00,1.89
6111.00,1.89
6110.00,1.90
6109.00,1.90
6108.00,1.90
6107.00,1.90
6106.00,1.90
6105.00,1.91
6104.00,1.91
6103.00,1.91
6102.00,1.91
6101.00,1.91
6100.00,1.92
6099.00,1.92
6098.00,1.92
6097.00,1.92
6096.00,1.92
6095.00,1.92
6094.00,1.92
6093.00,1.93
6092.00,1.93
6091.00,1.93
6090.00,1.93
6089.00,1.93
6088.00,1.93
6087.00,1.94
6086.00,1.94
6085.00,1.94
6084.00,1.94
6083.00,1.94
6082.00,1.94
6081.00,1.95
6080.00,1.95
6079.00,1.95
6078.00,1.95
6077.00,1.95
6076.00,1.96
6075.00,1.96
6074.00,1.96
6073.00,1.96
6072.00,1.96
6071.00,1.97
6070.00,1.97
6069.00,1.97
6068.00,1.97
6067.00,1.97
6066.00,1.97
6065.00,1.98
6064.00,1.98
6063.00,1.98
6062.00,1.98
6061.00,1.98
6060.00,1.98
6059.00,1.98
6058.00,1.98
6057.00,1.98
6056.00,1.98
6055.00,1.98
6054.00,1.98
6053.00,1.98
6052.00,1.98
6051.00,1.98
6050.00,1.98
6049.00,1.98
6048.00,1.98
6047.00,1.98
6046.00,1.98
6045.00,1.98
6044.00,1.99
6043.00,1.99
6042.00,1.99
6041.00,1.99
6040.00,1.99
6039.00,1.99
6038.00,1.99
6037.00,2.00
6036.00,2.00
6035.00,2.00
6034.00,2.00
6033.00,2.00
6032.00,2.00
6031.00,2.01
6030.00,2.01
6029.00,2.01
6028.00,2.01
6027.00,2.01
6026.00,2.01
6025.00,2.01
6024.00,2.01
6023.00,2.01
6022.00,2.01
6021.00,2.01
6020.00,2.01
6019.00,2.01
6018.00,2.02
6017.00,2.02
6016.00,2.01
6015.00,2.01
6014.00,2.01
6013.00,2.01
6012.00,2.01
6011.00,2.01
6010.00,2.01
6009.00,2.01
6008.00,2.01
6007.00,2.01
6006.00,2.01
6005.00,2.01
6004.00,2.01
6003.00,2.00
6002.00,2.00
6001.00,2.00
6000.00,2.00
5999.00,2.00
5998.00,2.00
5997.00,2.00
5996.00,1.99
5995.00,1.99
5994.00,1.99
5993.00,1.99
5992.00,1.99
5991.00,1.99
5990.00,1.98
5989.00,1.98
5988.00,1.98
5987.00,1.98
5986.00,1.97
5985.00,1.97
5984.00,1.97
5983.00,1.96
5982.00,1.96
5981.00,1.96
5980.00,1.95
5979.00,1.95
5978.00,1.94
5977.00,1.94
5976.00,1.93
5975.00,1.93
5974.00,1.92
5973.00,1.91
5972.00,1.91
5971.00,1.90
5970.00,1.89
5969.00,1.88
5968.00,1.88
5967.00,1.87
5966.00,1.86
5965.00,1.85
5964.00,1.84
5963.00,1.83
5962.00,1.82
5961.00,1.81
5960.00,1.80
5959.00,1.79
5958.00,1.78
5957.00,1.77
5956.00,1.76
5955.00,1.76
5954.00,1.75
5953.00,1.74
5952.00,1.73
5951.00,1.72
5950.00,1.72
5949.00,1.71
5948.00,1.70
5947.00,1.70
5946.00,1.69
5945.00,1.69
5944.00,1.69
5943.00,1.68
5942.00,1.68
5941.00,1.68
5940.00,1.67
5939.00,1.67
5938.00,1.67
5937.00,1.67
5936.00,1.67
5935.00,1.67
5934.00,1.67
5933.00,1.66
5932.00,1.66
5931.00,1.66
5930.00,1.66
5929.00,1.66
5928.00,1.66
5927.00,1.66
5926.00,1.65
5925.00,1.65
5924.00,1.65
5923.00,1.65
5922.00,1.64
5921.00,1.64
5920.00,1.64
5919.00,1.63
5918.00,1.63
5917.00,1.63
5916.00,1.62
5915.00,1.62
5914.00,1.62
5913.00,1.61
5912.00,1.61
5911.00,1.61
5910.00,1.60
5909.00,1.60
5908.00,1.60
5907.00,1.60
5906.00,1.60
5905.00,1.59
5904.00,1.59
5903.00,1.59
5902.00,1.59
5901.00,1.59
5900.00,1.59
5899.00,1.59
5898.00,1.60
5897.00,1.60
5896.00,1.60
5895.00,1.60
5894.00,1.60
5893.00,1.61
5892.00,1.61
5891.00,1.61
5890.00,1.62
5889.00,1.62
5888.00,1.63
5887.00,1.63
5886.00,1.63
5885.00,1.64
5884.00,1.64
5883.00,1.64
5882.00,1.65
5881.00,1.65
5880.00,1.66
5879.00,1.66
5878.00,1.66
5877.00,1.67
5876.00,1.67
5875.00,1.67
5874.00,1.68
5873.00,1.68
5872.00,1.68
5871.00,1.68
5870.00,1.69
5869.00,1.69
5868.00,1.69
5867.00,1.69
5866.00,1.70
5865.00,1.70
5864.00,1.70
5863.00,1.70
5862.00,1.70
5861.00,1.71
5860.00,1.71
5859.00,1.71
5858.00,1.71
5857.00,1.71
5856.00,1.72
5855.00,1.72
5854.00,1.72
5853.00,1.72
5852.00,1.72
5851.00,1.72
5850.00,1.72
5849.00,1.72
5848.00,1.73
5847.00,1.73
5846.00,1.73
5845.00,1.73
5844.00,1.73
5843.00,1.73
5842.00,1.73
5841.00,1.73
5840.00,1.73
5839.00,1.73
5838.00,1.73
5837.00,1.73
5836.00,1.73
5835.00,1.73
5834.00,1.73
5833.00,1.73
5832.00,1.73
5831.00,1.73
5830.00,1.73
5829.00,1.73
5828.00,1.72
5827.00,1.72
5826.00,1.72
5825.00,1.72
5824.00,1.72
5823.00,1.72
5822.00,1.72
5821.00,1.72
5820.00,1.72
5819.00,1.72
5818.00,1.72
5817.00,1.72
5816.00,1.72
5815.00,1.72
5814.00,1.72
5813.00,1.72
5812.00,1.72
5811.00,1.72
5810.00,1.72
5809.00,1.72
5808.00,1.72
5807.00,1.72
5806.00,1.72
5805.00,1.72
5804.00,1.72
5803.00,1.72
5802.00,1.72
5801.00,1.72
5800.00,1.71
5799.00,1.71
5798.00,1.71
5797.00,1.71
5796.00,1.71
5795.00,1.70
5794.00,1.70
5793.00,1.70
5792.00,1.70
5791.00,1.69
5790.00,1.69
5789.00,1.69
5788.00,1.68
5787.00,1.68
5786.00,1.68
5785.00,1.68
5784.00,1.67
5783.00,1.67
5782.00,1.67
5781.00,1.67
5780.00,1.66
5779.00,1.66
5778.00,1.66
5777.00,1.66
5776.00,1.66
5775.00,1.66
5774.00,1.66
5773.00,1.66
5772.00,1.66
5771.00,1.66
5770.00,1.66
5769.00,1.66
5768.00,1.66
5767.00,1.66
5766.00,1.66
5765.00,1.67
5764.00,1.67
5763.00,1.67
5762.00,1.67
5761.00,1.68
5760.00,1.68
5759.00,1.68
5758.00,1.69
5757.00,1.69
5756.00,1.70
5755.00,1.70
5754.00,1.71
5753.00,1.71
5752.00,1.71
5751.00,1.72
5750.00,1.72
5749.00,1.73
5748.00,1.73
5747.00,1.74
5746.00,1.74
5745.00,1.75
5744.00,1.75
5743.00,1.75
5742.00,1.76
5741.00,1.76
5740.00,1.76
5739.00,1.76
5738.00,1.77
5737.00,1.77
5736.00,1.77
5735.00,1.77
5734.00,1.78
5733.00,1.78
5732.00,1.78
5731.00,1.78
5730.00,1.78
5729.00,1.78
5728.00,1.78
5727.00,1.78
5726.00,1.79
5725.00,1.79
5724.00,1.79
5723.00,1.79
5722.00,1.79
5721.00,1.79
5720.00,1.79
5719.00,1.79
5718.00,1.79
5717.00,1.79
5716.00,1.79
5715.00,1.79
5714.00,1.79
5713.00,1.79
5712.00,1.79
5711.00,1.79
5710.00,1.79
5709.00,1.79
5708.00,1.79
5707.00,1.79
5706.00,1.79
5705.00,1.78
5704.00,1.78
5703.00,1.78
5702.00,1.78
5701.00,1.78
5700.00,1.78
5699.00,1.77
5698.00,1.77
5697.00,1.77
5696.00,1.77
5695.00,1.77
5694.00,1.77
5693.00,1.76
5692.00,1.76
5691.00,1.76
5690.00,1.76
5689.00,1.76
5688.00,1.76
5687.00,1.76
5686.00,1.75
5685.00,1.75
5684.00,1.75
5683.00,1.75
5682.00,1.75
5681.00,1.75
5680.00,1.75
5679.00,1.75
5678.00,1.75
5677.00,1.75
5676.00,1.75
5675.00,1.75
5674.00,1.75
5673.00,1.75
5672.00,1.75
5671.00,1.75
5670.00,1.75
5669.00,1.75
5668.00,1.75
5667.00,1.75
5666.00,1.75
5665.00,1.75
5664.00,1.75
5663.00,1.75
5662.00,1.75
5661.00,1.76
5660.00,1.76
5659.00,1.76
5658.00,1.76
5657.00,1.76
5656.00,1.77
5655.00,1.77
5654.00,1.77
5653.00,1.77
5652.00,1.78
5651.00,1.78
5650.00,1.78
5649.00,1.78
5648.00,1.79
5647.00,1.79
5646.00,1.79
5645.00,1.79
5644.00,1.80
5643.00,1.80
5642.00,1.80
5641.00,1.80
5640.00,1.81
5639.00,1.81
5638.00,1.81
5637.00,1.81
5636.00,1.81
5635.00,1.82
5634.00,1.82
5633.00,1.82
5632.00,1.82
5631.00,1.82
5630.00,1.82
5629.00,1.82
5628.00,1.83
5627.00,1.83
5626.00,1.83
5625.00,1.83
5624.00,1.83
5623.00,1.83
5622.00,1.83
5621.00,1.83
5620.00,1.84
5619.00,1.84
5618.00,1.84
5617.00,1.84
5616.00,1.84
5615.00,1.84
5614.00,1.85
5613.00,1.85
5612.00,1.85
5611.00,1.85
5610.00,1.86
5609.00,1.86
5608.00,1.86
5607.00,1.86
5606.00,1.87
5605.00,1.87
5604.00,1.87
5603.00,1.87
5602.00,1.88
5601.00,1.88
5600.00,1.88
5599.00,1.89
5598.00,1.89
5597.00,1.89
5596.00,1.89
5595.00,1.90
5594.00,1.90
5593.00,1.90
5592.00,1.91
5591.00,1.91
5590.00,1.91
5589.00,1.91
5588.00,1.91
5587.00,1.92
5586.00,1.92
5585.00,1.92
5584.00,1.92
5583.00,1.93
5582.00,1.93
5581.00,1.93
5580.00,1.93
5579.00,1.93
5578.00,1.93
5577.00,1.94
5576.00,1.94
5575.00,1.94
5574.00,1.94
5573.00,1.94
5572.00,1.94
5571.00,1.95
5570.00,1.95
5569.00,1.95
5568.00,1.95
5567.00,1.95
5566.00,1.95
5565.00,1.95
5564.00,1.96
5563.00,1.96
5562.00,1.96
5561.00,1.96
5560.00,1.96
5559.00,1.96
5558.00,1.96
5557.00,1.96
5556.00,1.96
5555.00,1.97
5554.00,1.97
5553.00,1.97
5552.00,1.97
5551.00,1.97
5550.00,1.97
5549.00,1.97
5548.00,1.97
5547.00,1.98
5546.00,1.98
5545.00,1.98
5544.00,1.98
5543.00,1.98
5542.00,1.98
5541.00,1.98
5540.00,1.99
5539.00,1.99
5538.00,1.99
5537.00,1.99
5536.00,1.99
5535.00,1.99
5534.00,1.99
5533.00,2.00
5532.00,2.00
5531.00,2.00
5530.00,2.00
5529.00,2.00
5528.00,2.00
5527.00,2.00
5526.00,2.00
5525.00,2.00
5524.00,2.00
5523.00,2.01
5522.00,2.01
5521.00,2.01
5520.00,2.01
5519.00,2.01
5518.00,2.01
5517.00,2.01
5516.00,2.01
5515.00,2.01
5514.00,2.01
5513.00,2.02
5512.00,2.02
5511.00,2.02
5510.00,2.02
5509.00,2.02
5508.00,2.02
5507.00,2.02
5506.00,2.02
5505.00,2.02
5504.00,2.02
5503.00,2.02
5502.00,2.03
5501.00,2.03
5500.00,2.03
5499.00,2.03
5498.00,2.03
5497.00,2.03
5496.00,2.03
5495.00,2.03
5494.00,2.03
5493.00,2.03
5492.00,2.04
5491.00,2.04
5490.00,2.04
5489.00,2.04
5488.00,2.04
5487.00,2.04
5486.00,2.05
5485.00,2.05
5484.00,2.05
5483.00,2.05
5482.00,2.05
5481.00,2.05
5480.00,2.06
5479.00,2.06
5478.00,2.06
5477.00,2.06
5476.00,2.06
5475.00,2.06
5474.00,2.06
5473.00,2.06
5472.00,2.06
5471.00,2.06
5470.00,2.06
5469.00,2.07
5468.00,2.07
5467.00,2.07
5466.00,2.07
5465.00,2.07
5464.00,2.07
5463.00,2.07
5462.00,2.07
5461.00,2.08
5460.00,2.08
5459.00,2.08
5458.00,2.08
5457.00,2.08
5456.00,2.08
5455.00,2.08
5454.00,2.08
5453.00,2.09
5452.00,2.09
5451.00,2.09
5450.00,2.09
5449.00,2.09
5448.00,2.09
5447.00,2.09
5446.00,2.09
5445.00,2.09
5444.00,2.09
5443.00,2.08
5442.00,2.08
5441.00,2.08
5440.00,2.08
5439.00,2.08
5438.00,2.08
5437.00,2.08
5436.00,2.08
5435.00,2.08
5434.00,2.08
5433.00,2.08
5432.00,2.08
5431.00,2.08
5430.00,2.08
5429.00,2.08
5428.00,2.09
5427.00,2.09
5426.00,2.09
5425.00,2.09
5424.00,2.09
5423.00,2.09
5422.00,2.09
5421.00,2.09
5420.00,2.09
5419.00,2.09
5418.00,2.09
5417.00,2.09
5416.00,2.09
5415.00,2.09
5414.00,2.09
5413.00,2.09
5412.00,2.09
5411.00,2.09
5410.00,2.09
5409.00,2.09
5408.00,2.09
5407.00,2.09
5406.00,2.09
5405.00,2.09
5404.00,2.09
5403.00,2.09
5402.00,2.08
5401.00,2.08
5400.00,2.08
5399.00,2.08
5398.00,2.08
5397.00,2.08
5396.00,2.08
5395.00,2.08
5394.00,2.07
5393.00,2.07
5392.00,2.07
5391.00,2.07
5390.00,2.06
5389.00,2.06
5388.00,2.06
5387.00,2.06
5386.00,2.05
5385.00,2.05
5384.00,2.05
5383.00,2.04
5382.00,2.04
5381.00,2.03
5380.00,2.03
5379.00,2.03
5378.00,2.02
5377.00,2.02
5376.00,2.01
5375.00,2.01
5374.00,2.00
5373.00,1.99
5372.00,1.99
5371.00,1.98
5370.00,1.98
5369.00,1.97
5368.00,1.96
5367.00,1.96
5366.00,1.95
5365.00,1.94
5364.00,1.93
5363.00,1.92
5362.00,1.92
5361.00,1.91
5360.00,1.90
5359.00,1.89
5358.00,1.88
5357.00,1.87
5356.00,1.85
5355.00,1.84
5354.00,1.83
5353.00,1.82
5352.00,1.81
5351.00,1.79
5350.00,1.78
5349.00,1.77
5348.00,1.75
5347.00,1.74
5346.00,1.73
5345.00,1.71
5344.00,1.70
5343.00,1.69
5342.00,1.67
5341.00,1.66
5340.00,1.64
5339.00,1.63
5338.00,1.62
5337.00,1.60
5336.00,1.59
5335.00,1.57
5334.00,1.56
5333.00,1.55
5332.00,1.53
5331.00,1.52
5330.00,1.50
5329.00,1.49
5328.00,1.47
5327.00,1.46
5326.00,1.44
5325.00,1.43
5324.00,1.42
5323.00,1.40
5322.00,1.39
5321.00,1.37
5320.00,1.36
5319.00,1.34
5318.00,1.33
5317.00,1.32
5316.00,1.30
5315.00,1.29
5314.00,1.28
5313.00,1.26
5312.00,1.25
5311.00,1.24
5310.00,1.23
5309.00,1.21
5308.00,1.20
5307.00,1.19
5306.00,1.18
5305.00,1.17
5304.00,1.16
5303.00,1.15
5302.00,1.14
5301.00,1.13
5300.00,1.12
5299.00,1.11
5298.00,1.10
5297.00,1.09
5296.00,1.09
5295.00,1.08
5294.00,1.07
5293.00,1.07
5292.00,1.06
5291.00,1.06
5290.00,1.05
5289.00,1.05
5288.00,1.05
5287.00,1.04
5286.00,1.04
5285.00,1.04
5284.00,1.03
5283.00,1.03
5282.00,1.03
5281.00,1.03
5280.00,1.02
5279.00,1.02
5278.00,1.02
5277.00,1.02
5276.00,1.02
5275.00,1.01
5274.00,1.01
5273.00,1.01
5272.00,1.01
5271.00,1.01
5270.00,1.00
5269.00,1.00
5268.00,1.00
5267.00,1.00
5266.00,0.99
5265.00,0.99
5264.00,0.99
5263.00,0.99
5262.00,0.99
5261.00,0.98
5260.00,0.98
5259.00,0.98
5258.00,0.98
5257.00,0.98
5256.00,0.98
5255.00,0.98
5254.00,0.98
5253.00,0.98
5252.00,0.98
5251.00,0.98
5250.00,0.98
5249.00,0.98
5248.00,0.98
5247.00,0.98
5246.00,0.98
5245.00,0.98
5244.00,0.98
5243.00,0.98
5242.00,0.98
5241.00,0.98
5240.00,0.98
5239.00,0.98
5238.00,0.98
5237.00,0.98
5236.00,0.98
5235.00,0.98
5234.00,0.98
5233.00,0.98
5232.00,0.98
5231.00,0.98
5230.00,0.98
5229.00,0.99
5228.00,0.99
5227.00,0.99
5226.00,0.99
5225.00,0.99
5224.00,0.99
5223.00,0.99
5222.00,0.99
5221.00,0.99
5220.00,0.99
5219.00,0.99
5218.00,0.99
5217.00,0.99
5216.00,0.99
5215.00,0.99
5214.00,0.99
5213.00,0.99
5212.00,0.99
5211.00,0.99
5210.00,0.99
5209.00,0.99
5208.00,0.99
5207.00,0.99
5206.00,0.99
5205.00,0.99
5204.00,0.99
5203.00,0.99
5202.00,0.99
5201.00,0.99
5200.00,0.99
5199.00,0.99
5198.00,0.99
5197.00,1.00
5196.00,1.00
5195.00,1.00
5194.00,1.00
5193.00,1.00
5192.00,1.00
5191.00,1.00
5190.00,1.01
5189.00,1.01
5188.00,1.01
5187.00,1.01
5186.00,1.01
5185.00,1.01
5184.00,1.01
5183.00,1.01
5182.00,1.01
5181.00,1.02
5180.00,1.02
5179.00,1.02
5178.00,1.02
5177.00,1.02
5176.00,1.02
5175.00,1.02
5174.00,1.02
5173.00,1.02
5172.00,1.02
5171.00,1.02
5170.00,1.03
5169.00,1.03
5168.00,1.03
5167.00,1.03
5166.00,1.03
5165.00,1.03
5164.00,1.03
5163.00,1.03
5162.00,1.03
5161.00,1.03
5160.00,1.03
5159.00,1.03
5158.00,1.03
5157.00,1.03
5156.00,1.03
5155.00,1.03
5154.00,1.03
5153.00,1.03
5152.00,1.03
5151.00,1.03
5150.00,1.03
5149.00,1.03
5148.00,1.03
5147.00,1.03
5146.00,1.04
5145.00,1.04
5144.00,1.04
5143.00,1.04
5142.00,1.04
5141.00,1.04
5140.00,1.04
5139.00,1.04
5138.00,1.04
5137.00,1.04
5136.00,1.04
5135.00,1.04
5134.00,1.04
5133.00,1.05
5132.00,1.05
5131.00,1.05
5130.00,1.05
5129.00,1.05
5128.00,1.05
5127.00,1.05
5126.00,1.05
5125.00,1.05
5124.00,1.05
5123.00,1.05
5122.00,1.05
5121.00,1.05
5120.00,1.05
5119.00,1.05
5118.00,1.05
5117.00,1.05
5116.00,1.05
5115.00,1.05
5114.00,1.06
5113.00,1.06
5112.00,1.06
5111.00,1.06
5110.00,1.06
5109.00,1.06
5108.00,1.06
5107.00,1.06
5106.00,1.07
5105.00,1.07
5104.00,1.07
5103.00,1.07
5102.00,1.07
5101.00,1.07
5100.00,1.07
5099.00,1.07
5098.00,1.07
5097.00,1.07
5096.00,1.07
5095.00,1.07
5094.00,1.07
5093.00,1.07
5092.00,1.07
5091.00,1.07
5090.00,1.08
5089.00,1.08
5088.00,1.08
5087.00,1.08
5086.00,1.08
5085.00,1.08
5084.00,1.08
5083.00,1.08
5082.00,1.08
5081.00,1.08
5080.00,1.08
5079.00,1.08
5078.00,1.09
5077.00,1.09
5076.00,1.09
5075.00,1.09
5074.00,1.09
5073.00,1.09
5072.00,1.10
5071.00,1.10
5070.00,1.10
5069.00,1.10
5068.00,1.10
5067.00,1.10
5066.00,1.10
5065.00,1.11
5064.00,1.11
5063.00,1.11
5062.00,1.11
5061.00,1.11
5060.00,1.11
5059.00,1.11
5058.00,1.12
5057.00,1.12
5056.00,1.12
5055.00,1.12
5054.00,1.12
5053.00,1.12
5052.00,1.12
5051.00,1.12
5050.00,1.13
5049.00,1.13
5048.00,1.13
5047.00,1.13
5046.00,1.13
5045.00,1.13
5044.00,1.13
5043.00,1.13
5042.00,1.14
5041.00,1.14
5040.00,1.14
5039.00,1.14
5038.00,1.14
5037.00,1.14
5036.00,1.14
5035.00,1.14
5034.00,1.14
5033.00,1.15
5032.00,1.15
5031.00,1.15
5030.00,1.15
5029.00,1.15
5028.00,1.15
5027.00,1.15
5026.00,1.15
5025.00,1.15
5024.00,1.15
5023.00,1.16
5022.00,1.16
5021.00,1.16
5020.00,1.16
5019.00,1.16
5018.00,1.16
5017.00,1.16
5016.00,1.17
5015.00,1.17
5014.00,1.17
5013.00,1.17
5012.00,1.17
5011.00,1.17
5010.00,1.17
5009.00,1.17
5008.00,1.18
5007.00,1.18
5006.00,1.18
5005.00,1.18
5004.00,1.18
5003.00,1.18
5002.00,1.18
5001.00,1.18
5000.00,1.18
4999.00,1.19
4998.00,1.19
4997.00,1.19
4996.00,1.19
4995.00,1.19
4994.00,1.19
4993.00,1.19
4992.00,1.19
4991.00,1.20
4990.00,1.20
4989.00,1.20
4988.00,1.20
4987.00,1.20
4986.00,1.21
4985.00,1.21
4984.00,1.21
4983.00,1.21
4982.00,1.21
4981.00,1.22
4980.00,1.22
4979.00,1.22
4978.00,1.22
4977.00,1.22
4976.00,1.23
4975.00,1.23
4974.00,1.23
4973.00,1.23
4972.00,1.23
4971.00,1.23
4970.00,1.23
4969.00,1.23
4968.00,1.23
4967.00,1.24
4966.00,1.24
4965.00,1.24
4964.00,1.24
4963.00,1.24
4962.00,1.24
4961.00,1.24
4960.00,1.24
4959.00,1.25
4958.00,1.25
4957.00,1.25
4956.00,1.25
4955.00,1.25
4954.00,1.25
4953.00,1.26
4952.00,1.26
4951.00,1.26
4950.00,1.26
4949.00,1.26
4948.00,1.27
4947.00,1.27
4946.00,1.27
4945.00,1.27
4944.00,1.27
4943.00,1.28
4942.00,1.28
4941.00,1.28
4940.00,1.28
4939.00,1.28
4938.00,1.28
4937.00,1.29
4936.00,1.29
4935.00,1.29
4934.00,1.29
4933.00,1.29
4932.00,1.29
4931.00,1.30
4930.00,1.30
4929.00,1.30
4928.00,1.30
4927.00,1.30
4926.00,1.30
4925.00,1.30
4924.00,1.30
4923.00,1.30
4922.00,1.30
4921.00,1.31
4920.00,1.31
4919.00,1.31
4918.00,1.31
4917.00,1.31
4916.00,1.31
4915.00,1.31
4914.00,1.31
4913.00,1.31
4912.00,1.32
4911.00,1.32
4910.00,1.32
4909.00,1.32
4908.00,1.32
4907.00,1.32
4906.00,1.33
4905.00,1.33
4904.00,1.33
4903.00,1.33
4902.00,1.33
4901.00,1.33
4900.00,1.33
4899.00,1.34
4898.00,1.34
4897.00,1.34
4896.00,1.34
4895.00,1.34
4894.00,1.34
4893.00,1.34
4892.00,1.34
4891.00,1.35
4890.00,1.35
4889.00,1.35
4888.00,1.35
4887.00,1.35
4886.00,1.35
4885.00,1.35
4884.00,1.35
4883.00,1.35
4882.00,1.35
4881.00,1.35
4880.00,1.35
4879.00,1.35
4878.00,1.35
4877.00,1.35
4876.00,1.35
4875.00,1.35
4874.00,1.35
4873.00,1.36
4872.00,1.36
4871.00,1.36
4870.00,1.36
4869.00,1.36
4868.00,1.36
4867.00,1.36
4866.00,1.36
4865.00,1.36
4864.00,1.36
4863.00,1.36
4862.00,1.36
4861.00,1.36
4860.00,1.36
4859.00,1.36
4858.00,1.36
4857.00,1.37
4856.00,1.37
4855.00,1.37
4854.00,1.37
4853.00,1.37
4852.00,1.37
4851.00,1.38
4850.00,1.38
4849.00,1.38
4848.00,1.38
4847.00,1.38
4846.00,1.39
4845.00,1.39
4844.00,1.39
4843.00,1.39
4842.00,1.39
4841.00,1.40
4840.00,1.40
4839.00,1.40
4838.00,1.40
4837.00,1.40
4836.00,1.41
4835.00,1.41
4834.00,1.41
4833.00,1.41
4832.00,1.41
4831.00,1.42
4830.00,1.42
4829.00,1.42
4828.00,1.42
4827.00,1.42
4826.00,1.43
4825.00,1.43
4824.00,1.43
4823.00,1.43
4822.00,1.43
4821.00,1.43
4820.00,1.44
4819.00,1.44
4818.00,1.44
4817.00,1.44
4816.00,1.44
4815.00,1.44
4814.00,1.44
4813.00,1.44
4812.00,1.45
4811.00,1.45
4810.00,1.45
4809.00,1.45
4808.00,1.45
4807.00,1.45
4806.00,1.45
4805.00,1.45
4804.00,1.45
4803.00,1.45
4802.00,1.46
4801.00,1.46
4800.00,1.46
4799.00,1.46
4798.00,1.46
4797.00,1.46
4796.00,1.46
4795.00,1.47
4794.00,1.47
4793.00,1.47
4792.00,1.47
4791.00,1.47
4790.00,1.48
4789.00,1.48
4788.00,1.48
4787.00,1.48
4786.00,1.48
4785.00,1.49
4784.00,1.49
4783.00,1.49
4782.00,1.49
4781.00,1.50
4780.00,1.50
4779.00,1.50
4778.00,1.50
4777.00,1.51
4776.00,1.51
4775.00,1.51
4774.00,1.51
4773.00,1.52
4772.00,1.52
4771.00,1.52
4770.00,1.52
4769.00,1.52
4768.00,1.53
4767.00,1.53
4766.00,1.53
4765.00,1.53
4764.00,1.53
4763.00,1.54
4762.00,1.54
4761.00,1.54
4760.00,1.54
4759.00,1.54
4758.00,1.55
4757.00,1.55
4756.00,1.55
4755.00,1.55
4754.00,1.56
4753.00,1.56
4752.00,1.56
4751.00,1.56
4750.00,1.57
4749.00,1.57
4748.00,1.57
4747.00,1.57
4746.00,1.58
4745.00,1.58
4744.00,1.58
4743.00,1.58
4742.00,1.58
4741.00,1.59
4740.00,1.59
4739.00,1.59
4738.00,1.59
4737.00,1.60
4736.00,1.60
4735.00,1.60
4734.00,1.60
4733.00,1.61
4732.00,1.61
4731.00,1.61
4730.00,1.61
4729.00,1.62
4728.00,1.62
4727.00,1.62
4726.00,1.63
4725.00,1.63
4724.00,1.63
4723.00,1.64
4722.00,1.64
4721.00,1.64
4720.00,1.65
4719.00,1.65
4718.00,1.65
4717.00,1.66
4716.00,1.66
4715.00,1.66
4714.00,1.67
4713.00,1.67
4712.00,1.67
4711.00,1.68
4710.00,1.68
4709.00,1.68
4708.00,1.69
4707.00,1.69
4706.00,1.69
4705.00,1.69
4704.00,1.70
4703.00,1.70
4702.00,1.70
4701.00,1.71
4700.00,1.71
4699.00,1.71
4698.00,1.72
4697.00,1.72
4696.00,1.72
4695.00,1.73
4694.00,1.73
4693.00,1.73
4692.00,1.73
4691.00,1.74
4690.00,1.74
4689.00,1.74
4688.00,1.74
4687.00,1.75
4686.00,1.75
4685.00,1.75
4684.00,1.75
4683.00,1.75
4682.00,1.76
4681.00,1.76
4680.00,1.76
4679.00,1.76
4678.00,1.76
4677.00,1.77
4676.00,1.77
4675.00,1.77
4674.00,1.77
4673.00,1.78
4672.00,1.78
4671.00,1.78
4670.00,1.78
4669.00,1.78
4668.00,1.79
4667.00,1.79
4666.00,1.79
4665.00,1.79
4664.00,1.79
4663.00,1.80
4662.00,1.80
4661.00,1.80
4660.00,1.80
4659.00,1.81
4658.00,1.81
4657.00,1.81
4656.00,1.81
4655.00,1.82
4654.00,1.82
4653.00,1.82
4652.00,1.82
4651.00,1.83
4650.00,1.83
4649.00,1.83
4648.00,1.83
4647.00,1.84
4646.00,1.84
4645.00,1.84
4644.00,1.84
4643.00,1.85
4642.00,1.85
4641.00,1.85
4640.00,1.85
4639.00,1.85
4638.00,1.86
4637.00,1.86
4636.00,1.86
4635.00,1.86
4634.00,1.86
4633.00,1.86
4632.00,1.86
4631.00,1.86
4630.00,1.86
4629.00,1.86
4628.00,1.87
4627.00,1.87
4626.00,1.87
4625.00,1.87
4624.00,1.87
4623.00,1.87
4622.00,1.87
4621.00,1.88
4620.00,1.88
4619.00,1.88
4618.00,1.88
4617.00,1.88
4616.00,1.89
4615.00,1.89
4614.00,1.89
4613.00,1.89
4612.00,1.89
4611.00,1.89
4610.00,1.90
4609.00,1.90
4608.00,1.90
4607.00,1.90
4606.00,1.90
4605.00,1.91
4604.00,1.91
4603.00,1.91
4602.00,1.91
4601.00,1.91
4600.00,1.91
4599.00,1.92
4598.00,1.92
4597.00,1.92
4596.00,1.92
4595.00,1.92
4594.00,1.93
4593.00,1.93
4592.00,1.93
4591.00,1.93
4590.00,1.93
4589.00,1.94
4588.00,1.94
4587.00,1.94
4586.00,1.94
4585.00,1.94
4584.00,1.95
4583.00,1.95
4582.00,1.95
4581.00,1.95
4580.00,1.96
4579.00,1.96
4578.00,1.96
4577.00,1.96
4576.00,1.96
4575.00,1.96
4574.00,1.97
4573.00,1.97
4572.00,1.97
4571.00,1.97
4570.00,1.97
4569.00,1.97
4568.00,1.97
4567.00,1.97
4566.00,1.97
4565.00,1.97
4564.00,1.97
4563.00,1.97
4562.00,1.98
4561.00,1.98
4560.00,1.98
4559.00,1.98
4558.00,1.98
4557.00,1.98
4556.00,1.98
4555.00,1.98
4554.00,1.98
4553.00,1.99
4552.00,1.99
4551.00,1.99
4550.00,1.99
4549.00,1.99
4548.00,1.99
4547.00,1.99
4546.00,2.00
4545.00,2.00
4544.00,2.00
4543.00,2.00
4542.00,2.00
4541.00,2.00
4540.00,2.00
4539.00,2.00
4538.00,2.01
4537.00,2.01
4536.00,2.01
4535.00,2.01
4534.00,2.01
4533.00,2.01
4532.00,2.01
4531.00,2.01
4530.00,2.01
4529.00,2.02
4528.00,2.02
4527.00,2.02
4526.00,2.02
4525.00,2.02
4524.00,2.02
4523.00,2.02
4522.00,2.02
4521.00,2.02
4520.00,2.02
4519.00,2.02
4518.00,2.02
4517.00,2.02
4516.00,2.03
4515.00,2.03
4514.00,2.03
4513.00,2.03
4512.00,2.03
4511.00,2.03
4510.00,2.03
4509.00,2.03
4508.00,2.03
4507.00,2.03
4506.00,2.03
4505.00,2.03
4504.00,2.03
4503.00,2.03
4502.00,2.03
4501.00,2.03
4500.00,2.03
4499.00,2.03
4498.00,2.02
4497.00,2.02
4496.00,2.02
4495.00,2.02
4494.00,2.02
4493.00,2.02
4492.00,2.02
4491.00,2.01
4490.00,2.01
4489.00,2.01
4488.00,2.01
4487.00,2.01
4486.00,2.01
4485.00,2.01
4484.00,2.01
4483.00,2.00
4482.00,2.00
4481.00,2.00
4480.00,2.00
4479.00,2.00
4478.00,2.00
4477.00,1.99
4476.00,1.99
4475.00,1.99
4474.00,1.98
4473.00,1.98
4472.00,1.98
4471.00,1.97
4470.00,1.97
4469.00,1.96
4468.00,1.96
4467.00,1.95
4466.00,1.95
4465.00,1.94
4464.00,1.94
4463.00,1.93
4462.00,1.92
4461.00,1.92
4460.00,1.91
4459.00,1.90
4458.00,1.90
4457.00,1.89
4456.00,1.89
4455.00,1.88
4454.00,1.87
4453.00,1.87
4452.00,1.86
4451.00,1.85
4450.00,1.85
4449.00,1.84
4448.00,1.83
4447.00,1.83
4446.00,1.82
4445.00,1.81
4444.00,1.81
4443.00,1.80
4442.00,1.79
4441.00,1.78
4440.00,1.78
4439.00,1.77
4438.00,1.76
4437.00,1.76
4436.00,1.75
4435.00,1.74
4434.00,1.74
4433.00,1.73
4432.00,1.73
4431.00,1.72
4430.00,1.71
4429.00,1.71
4428.00,1.71
4427.00,1.70
4426.00,1.70
4425.00,1.69
4424.00,1.69
4423.00,1.69
4422.00,1.68
4421.00,1.68
4420.00,1.68
4419.00,1.68
4418.00,1.67
4417.00,1.67
4416.00,1.67
4415.00,1.67
4414.00,1.67
4413.00,1.66
4412.00,1.66
4411.00,1.66
4410.00,1.66
4409.00,1.66
4408.00,1.66
4407.00,1.66
4406.00,1.66
4405.00,1.66
4404.00,1.66
4403.00,1.66
4402.00,1.66
4401.00,1.66
4400.00,1.67
4399.00,1.67
4398.00,1.67
4397.00,1.67
4396.00,1.67
4395.00,1.67
4394.00,1.68
4393.00,1.68
4392.00,1.68
4391.00,1.68
4390.00,1.69
4389.00,1.69
4388.00,1.69
4387.00,1.69
4386.00,1.70
4385.00,1.70
4384.00,1.70
4383.00,1.70
4382.00,1.70
4381.00,1.70
4380.00,1.71
4379.00,1.71
4378.00,1.71
4377.00,1.71
4376.00,1.71
4375.00,1.71
4374.00,1.72
4373.00,1.72
4372.00,1.72
4371.00,1.72
4370.00,1.72
4369.00,1.72
4368.00,1.72
4367.00,1.72
4366.00,1.72
4365.00,1.72
4364.00,1.72
4363.00,1.72
4362.00,1.72
4361.00,1.72
4360.00,1.72
4359.00,1.72
4358.00,1.71
4357.00,1.71
4356.00,1.71
4355.00,1.71
4354.00,1.71
4353.00,1.71
4352.00,1.71
4351.00,1.71
4350.00,1.71
4349.00,1.71
4348.00,1.71
4347.00,1.71
4346.00,1.71
4345.00,1.71
4344.00,1.71
4343.00,1.71
4342.00,1.71
4341.00,1.71
4340.00,1.71
4339.00,1.71
4338.00,1.71
4337.00,1.72
4336.00,1.72
4335.00,1.72
4334.00,1.72
4333.00,1.72
4332.00,1.72
4331.00,1.72
4330.00,1.72
4329.00,1.73
4328.00,1.73
4327.00,1.73
4326.00,1.73
4325.00,1.73
4324.00,1.74
4323.00,1.74
4322.00,1.74
4321.00,1.74
4320.00,1.75
4319.00,1.75
4318.00,1.76
4317.00,1.76
4316.00,1.76
4315.00,1.77
4314.00,1.77
4313.00,1.78
4312.00,1.78
4311.00,1.79
4310.00,1.79
4309.00,1.79
4308.00,1.80
4307.00,1.80
4306.00,1.80
4305.00,1.81
4304.00,1.81
4303.00,1.81
4302.00,1.81
4301.00,1.82
4300.00,1.82
4299.00,1.82
4298.00,1.82
4297.00,1.83
4296.00,1.83
4295.00,1.83
4294.00,1.83
4293.00,1.84
4292.00,1.84
4291.00,1.84
4290.00,1.85
4289.00,1.85
4288.00,1.85
4287.00,1.85
4286.00,1.86
4285.00,1.86
4284.00,1.86
4283.00,1.86
4282.00,1.86
4281.00,1.86
4280.00,1.86
4279.00,1.86
4278.00,1.86
4277.00,1.86
4276.00,1.86
4275.00,1.86
4274.00,1.86
4273.00,1.86
4272.00,1.86
4271.00,1.86
4270.00,1.85
4269.00,1.85
4268.00,1.85
4267.00,1.85
4266.00,1.85
4265.00,1.85
4264.00,1.85
4263.00,1.85
4262.00,1.85
4261.00,1.85
4260.00,1.85
4259.00,1.84
4258.00,1.84
4257.00,1.84
4256.00,1.84
4255.00,1.84
4254.00,1.84
4253.00,1.84
4252.00,1.84
4251.00,1.84
4250.00,1.84
4249.00,1.84
4248.00,1.84
4247.00,1.84
4246.00,1.84
4245.00,1.84
4244.00,1.84
4243.00,1.85
4242.00,1.85
4241.00,1.85
4240.00,1.85
4239.00,1.86
4238.00,1.86
4237.00,1.87
4236.00,1.87
4235.00,1.87
4234.00,1.88
4233.00,1.88
4232.00,1.89
4231.00,1.89
4230.00,1.89
4229.00,1.90
4228.00,1.90
4227.00,1.90
4226.00,1.90
4225.00,1.91
4224.00,1.91
4223.00,1.91
4222.00,1.91
4221.00,1.91
4220.00,1.91
4219.00,1.91
4218.00,1.91
4217.00,1.91
4216.00,1.91
4215.00,1.91
4214.00,1.91
4213.00,1.91
4212.00,1.91
4211.00,1.91
4210.00,1.91
4209.00,1.91
4208.00,1.91
4207.00,1.91
4206.00,1.91
4205.00,1.91
4204.00,1.91
4203.00,1.91
4202.00,1.91
4201.00,1.91
4200.00,1.91
4199.00,1.91
4198.00,1.91
4197.00,1.91
4196.00,1.91
4195.00,1.92
4194.00,1.92
4193.00,1.92
4192.00,1.92
4191.00,1.92
4190.00,1.92
4189.00,1.92
4188.00,1.92
4187.00,1.92
4186.00,1.92
4185.00,1.92
4184.00,1.93
4183.00,1.93
4182.00,1.93
4181.00,1.93
4180.00,1.93
4179.00,1.93
4178.00,1.93
4177.00,1.94
4176.00,1.94
4175.00,1.94
4174.00,1.94
4173.00,1.94
4172.00,1.94
4171.00,1.95
4170.00,1.95
4169.00,1.95
4168.00,1.95
4167.00,1.95
4166.00,1.95
4165.00,1.95
4164.00,1.95
4163.00,1.95
4162.00,1.95
4161.00,1.95
4160.00,1.95
4159.00,1.95
4158.00,1.94
4157.00,1.94
4156.00,1.94
4155.00,1.94
4154.00,1.94
4153.00,1.94
4152.00,1.94
4151.00,1.94
4150.00,1.94
4149.00,1.94
4148.00,1.94
4147.00,1.94
4146.00,1.94
4145.00,1.94
4144.00,1.94
4143.00,1.94
4142.00,1.94
4141.00,1.94
4140.00,1.94
4139.00,1.94
4138.00,1.94
4137.00,1.94
4136.00,1.94
4135.00,1.94
4134.00,1.94
4133.00,1.94
4132.00,1.94
4131.00,1.94
4130.00,1.94
4129.00,1.94
4128.00,1.94
4127.00,1.94
4126.00,1.94
4125.00,1.95
4124.00,1.95
4123.00,1.95
4122.00,1.95
4121.00,1.95
4120.00,1.95
4119.00,1.95
4118.00,1.96
4117.00,1.96
4116.00,1.96
4115.00,1.96
4114.00,1.96
4113.00,1.96
4112.00,1.96
4111.00,1.96
4110.00,1.96
4109.00,1.96
4108.00,1.96
4107.00,1.96
4106.00,1.96
4105.00,1.96
4104.00,1.96
4103.00,1.96
4102.00,1.96
4101.00,1.96
4100.00,1.96
4099.00,1.97
4098.00,1.97
4097.00,1.97
4096.00,1.97
4095.00,1.98
4094.00,1.98
4093.00,1.98
4092.00,1.98
4091.00,1.99
4090.00,1.99
4089.00,1.99
4088.00,1.99
4087.00,2.00
4086.00,2.00
4085.00,2.00
4084.00,2.00
4083.00,2.00
4082.00,2.00
4081.00,2.00
4080.00,2.00
4079.00,2.00
4078.00,2.00
4077.00,2.00
4076.00,2.00
4075.00,2.00
4074.00,1.99
4073.00,1.99
4072.00,1.99
4071.00,1.99
4070.00,1.99
4069.00,1.99
4068.00,1.99
4067.00,1.99
4066.00,1.99
4065.00,1.99
4064.00,1.99
4063.00,1.99
4062.00,1.99
4061.00,1.99
4060.00,1.99
4059.00,1.99
4058.00,1.99
4057.00,1.99
4056.00,1.99
4055.00,1.99
4054.00,1.99
4053.00,1.99
4052.00,1.99
4051.00,1.99
4050.00,1.99
4049.00,1.99
4048.00,1.99
4047.00,1.99
4046.00,1.99
4045.00,1.99
4044.00,1.99
4043.00,1.99
4042.00,1.99
4041.00,2.00
4040.00,2.00
4039.00,2.00
4038.00,2.00
4037.00,2.00
4036.00,2.01
4035.00,2.01
4034.00,2.01
4033.00,2.01
4032.00,2.02
4031.00,2.02
4030.00,2.02
4029.00,2.02
4028.00,2.02
4027.00,2.02
4026.00,2.02
4025.00,2.03
4024.00,2.03
4023.00,2.03
4022.00,2.03
4021.00,2.03
4020.00,2.03
4019.00,2.03
4018.00,2.03
4017.00,2.04
4016.00,2.04
4015.00,2.04
4014.00,2.04
4013.00,2.04
4012.00,2.05
4011.00,2.05
4010.00,2.05
4009.00,2.06
4008.00,2.06
4007.00,2.06
4006.00,2.07
4005.00,2.07
4004.00,2.08
4003.00,2.08
4002.00,2.08
4001.00,2.09
4000.00,2.09
