创建为新数据集,样品 131 用户 Administrator 日期 星期六, 七月 21 2018
cm-1,%T
10000.00,2.45
9999.00,2.45
9998.00,2.45
9997.00,2.45
9996.00,2.45
9995.00,2.45
9994.00,2.45
9993.00,2.45
9992.00,2.45
9991.00,2.45
9990.00,2.44
9989.00,2.44
9988.00,2.44
9987.00,2.44
9986.00,2.44
9985.00,2.44
9984.00,2.44
9983.00,2.44
9982.00,2.44
9981.00,2.44
9980.00,2.44
9979.00,2.44
9978.00,2.44
9977.00,2.44
9976.00,2.44
9975.00,2.44
9974.00,2.44
9973.00,2.44
9972.00,2.44
9971.00,2.44
9970.00,2.44
9969.00,2.44
9968.00,2.44
9967.00,2.44
9966.00,2.43
9965.00,2.43
9964.00,2.43
9963.00,2.43
9962.00,2.43
9961.00,2.43
9960.00,2.43
9959.00,2.43
9958.00,2.43
9957.00,2.43
9956.00,2.43
9955.00,2.43
9954.00,2.44
9953.00,2.44
9952.00,2.44
9951.00,2.44
9950.00,2.44
9949.00,2.45
9948.00,2.45
9947.00,2.45
9946.00,2.45
9945.00,2.45
9944.00,2.45
9943.00,2.45
9942.00,2.45
9941.00,2.45
9940.00,2.45
9939.00,2.45
9938.00,2.45
9937.00,2.45
9936.00,2.44
9935.00,2.44
9934.00,2.44
9933.00,2.44
9932.00,2.43
9931.00,2.43
9930.00,2.43
9929.00,2.43
9928.00,2.43
9927.00,2.42
9926.00,2.42
9925.00,2.42
9924.00,2.42
9923.00,2.42
9922.00,2.41
9921.00,2.41
9920.00,2.41
9919.00,2.41
9918.00,2.40
9917.00,2.40
9916.00,2.40
9915.00,2.39
9914.00,2.39
9913.00,2.39
9912.00,2.38
9911.00,2.38
9910.00,2.37
9909.00,2.37
9908.00,2.37
9907.00,2.37
9906.00,2.36
9905.00,2.36
9904.00,2.36
9903.00,2.36
9902.00,2.36
9901.00,2.36
9900.00,2.36
9899.00,2.36
9898.00,2.36
9897.00,2.37
9896.00,2.37
9895.00,2.37
9894.00,2.37
9893.00,2.38
9892.00,2.38
9891.00,2.38
9890.00,2.38
9889.00,2.38
9888.00,2.39
9887.00,2.39
9886.00,2.39
9885.00,2.39
9884.00,2.39
9883.00,2.39
9882.00,2.39
9881.00,2.39
9880.00,2.39
9879.00,2.39
9878.00,2.39
9877.00,2.39
9876.00,2.39
9875.00,2.39
9874.00,2.39
9873.00,2.39
9872.00,2.40
9871.00,2.40
9870.00,2.40
9869.00,2.40
9868.00,2.40
9867.00,2.40
9866.00,2.40
9865.00,2.40
9864.00,2.40
9863.00,2.40
9862.00,2.39
9861.00,2.39
9860.00,2.39
9859.00,2.39
9858.00,2.39
9857.00,2.39
9856.00,2.39
9855.00,2.39
9854.00,2.39
9853.00,2.39
9852.00,2.39
9851.00,2.39
9850.00,2.39
9849.00,2.39
9848.00,2.39
9847.00,2.39
9846.00,2.39
9845.00,2.39
9844.00,2.38
9843.00,2.38
9842.00,2.38
9841.00,2.38
9840.00,2.38
9839.00,2.38
9838.00,2.37
9837.00,2.37
9836.00,2.37
9835.00,2.37
9834.00,2.37
9833.00,2.37
9832.00,2.37
9831.00,2.37
9830.00,2.37
9829.00,2.37
9828.00,2.37
9827.00,2.37
9826.00,2.38
9825.00,2.38
9824.00,2.38
9823.00,2.38
9822.00,2.39
9821.00,2.39
9820.00,2.39
9819.00,2.39
9818.00,2.40
9817.00,2.40
9816.00,2.40
9815.00,2.41
9814.00,2.41
9813.00,2.41
9812.00,2.41
9811.00,2.41
9810.00,2.41
9809.00,2.41
9808.00,2.41
9807.00,2.41
9806.00,2.41
9805.00,2.41
9804.00,2.40
9803.00,2.40
9802.00,2.40
9801.00,2.40
9800.00,2.39
9799.00,2.39
9798.00,2.39
9797.00,2.38
9796.00,2.38
9795.00,2.38
9794.00,2.38
9793.00,2.38
9792.00,2.38
9791.00,2.37
9790.00,2.37
9789.00,2.37
9788.00,2.37
9787.00,2.38
9786.00,2.38
9785.00,2.38
9784.00,2.38
9783.00,2.38
9782.00,2.38
9781.00,2.38
9780.00,2.39
9779.00,2.39
9778.00,2.39
9777.00,2.39
9776.00,2.40
9775.00,2.40
9774.00,2.40
9773.00,2.41
9772.00,2.41
9771.00,2.41
9770.00,2.41
9769.00,2.42
9768.00,2.42
9767.00,2.42
9766.00,2.42
9765.00,2.42
9764.00,2.42
9763.00,2.42
9762.00,2.42
9761.00,2.42
9760.00,2.42
9759.00,2.42
9758.00,2.42
9757.00,2.42
9756.00,2.42
9755.00,2.42
9754.00,2.43
9753.00,2.43
9752.00,2.43
9751.00,2.43
9750.00,2.43
9749.00,2.43
9748.00,2.44
9747.00,2.44
9746.00,2.44
9745.00,2.44
9744.00,2.44
9743.00,2.44
9742.00,2.44
9741.00,2.44
9740.00,2.44
9739.00,2.44
9738.00,2.44
9737.00,2.44
9736.00,2.44
9735.00,2.44
9734.00,2.44
9733.00,2.44
9732.00,2.44
9731.00,2.43
9730.00,2.43
9729.00,2.43
9728.00,2.43
9727.00,2.42
9726.00,2.42
9725.00,2.42
9724.00,2.41
9723.00,2.41
9722.00,2.41
9721.00,2.40
9720.00,2.40
9719.00,2.40
9718.00,2.39
9717.00,2.39
9716.00,2.39
9715.00,2.38
9714.00,2.38
9713.00,2.38
9712.00,2.38
9711.00,2.38
9710.00,2.38
9709.00,2.38
9708.00,2.38
9707.00,2.38
9706.00,2.38
9705.00,2.38
9704.00,2.38
9703.00,2.39
9702.00,2.39
9701.00,2.39
9700.00,2.39
9699.00,2.40
9698.00,2.40
9697.00,2.40
9696.00,2.40
9695.00,2.40
9694.00,2.40
9693.00,2.40
9692.00,2.40
9691.00,2.40
9690.00,2.40
9689.00,2.40
9688.00,2.40
9687.00,2.39
9686.00,2.39
9685.00,2.39
9684.00,2.39
9683.00,2.39
9682.00,2.39
9681.00,2.39
9680.00,2.39
9679.00,2.39
9678.00,2.39
9677.00,2.39
9676.00,2.39
9675.00,2.39
9674.00,2.40
9673.00,2.40
9672.00,2.40
9671.00,2.40
9670.00,2.40
9669.00,2.40
9668.00,2.41
9667.00,2.41
9666.00,2.41
9665.00,2.41
9664.00,2.41
9663.00,2.41
9662.00,2.41
9661.00,2.41
9660.00,2.41
9659.00,2.41
9658.00,2.41
9657.00,2.41
9656.00,2.41
9655.00,2.41
9654.00,2.41
9653.00,2.41
9652.00,2.41
9651.00,2.41
9650.00,2.41
9649.00,2.41
9648.00,2.41
9647.00,2.41
9646.00,2.41
9645.00,2.41
9644.00,2.41
9643.00,2.41
9642.00,2.41
9641.00,2.41
9640.00,2.42
9639.00,2.42
9638.00,2.42
9637.00,2.42
9636.00,2.42
9635.00,2.42
9634.00,2.42
9633.00,2.41
9632.00,2.41
9631.00,2.41
9630.00,2.41
9629.00,2.41
9628.00,2.41
9627.00,2.41
9626.00,2.41
9625.00,2.41
9624.00,2.40
9623.00,2.40
9622.00,2.40
9621.00,2.40
9620.00,2.40
9619.00,2.40
9618.00,2.41
9617.00,2.41
9616.00,2.41
9615.00,2.41
9614.00,2.42
9613.00,2.42
9612.00,2.42
9611.00,2.43
9610.00,2.43
9609.00,2.43
9608.00,2.44
9607.00,2.44
9606.00,2.44
9605.00,2.44
9604.00,2.44
9603.00,2.44
9602.00,2.44
9601.00,2.44
9600.00,2.44
9599.00,2.44
9598.00,2.43
9597.00,2.43
9596.00,2.43
9595.00,2.42
9594.00,2.42
9593.00,2.41
9592.00,2.41
9591.00,2.41
9590.00,2.40
9589.00,2.40
9588.00,2.40
9587.00,2.40
9586.00,2.40
9585.00,2.40
9584.00,2.40
9583.00,2.40
9582.00,2.40
9581.00,2.40
9580.00,2.40
9579.00,2.41
9578.00,2.41
9577.00,2.41
9576.00,2.41
9575.00,2.42
9574.00,2.42
9573.00,2.42
9572.00,2.43
9571.00,2.43
9570.00,2.43
9569.00,2.43
9568.00,2.44
9567.00,2.44
9566.00,2.44
9565.00,2.44
9564.00,2.44
9563.00,2.45
9562.00,2.45
9561.00,2.45
9560.00,2.45
9559.00,2.45
9558.00,2.45
9557.00,2.45
9556.00,2.45
9555.00,2.45
9554.00,2.45
9553.00,2.45
9552.00,2.45
9551.00,2.45
9550.00,2.45
9549.00,2.45
9548.00,2.44
9547.00,2.44
9546.00,2.44
9545.00,2.44
9544.00,2.44
9543.00,2.43
9542.00,2.43
9541.00,2.43
9540.00,2.43
9539.00,2.43
9538.00,2.43
9537.00,2.43
9536.00,2.42
9535.00,2.42
9534.00,2.42
9533.00,2.42
9532.00,2.41
9531.00,2.41
9530.00,2.41
9529.00,2.40
9528.00,2.40
9527.00,2.39
9526.00,2.39
9525.00,2.39
9524.00,2.38
9523.00,2.38
9522.00,2.38
9521.00,2.38
9520.00,2.38
9519.00,2.37
9518.00,2.37
9517.00,2.37
9516.00,2.37
9515.00,2.38
9514.00,2.38
9513.00,2.38
9512.00,2.38
9511.00,2.38
9510.00,2.38
9509.00,2.39
9508.00,2.39
9507.00,2.39
9506.00,2.39
9505.00,2.39
9504.00,2.39
9503.00,2.39
9502.00,2.39
9501.00,2.40
9500.00,2.40
9499.00,2.40
9498.00,2.40
9497.00,2.39
9496.00,2.39
9495.00,2.39
9494.00,2.39
9493.00,2.39
9492.00,2.39
9491.00,2.39
9490.00,2.39
9489.00,2.40
9488.00,2.40
9487.00,2.40
9486.00,2.40
9485.00,2.40
9484.00,2.40
9483.00,2.40
9482.00,2.40
9481.00,2.41
9480.00,2.41
9479.00,2.41
9478.00,2.41
9477.00,2.41
9476.00,2.41
9475.00,2.42
9474.00,2.42
9473.00,2.42
9472.00,2.42
9471.00,2.42
9470.00,2.43
9469.00,2.43
9468.00,2.43
9467.00,2.43
9466.00,2.43
9465.00,2.43
9464.00,2.44
9463.00,2.44
9462.00,2.44
9461.00,2.44
9460.00,2.44
9459.00,2.44
9458.00,2.44
9457.00,2.44
9456.00,2.44
9455.00,2.44
9454.00,2.44
9453.00,2.43
9452.00,2.43
9451.00,2.43
9450.00,2.43
9449.00,2.43
9448.00,2.42
9447.00,2.42
9446.00,2.42
9445.00,2.42
9444.00,2.42
9443.00,2.41
9442.00,2.41
9441.00,2.41
9440.00,2.41
9439.00,2.41
9438.00,2.41
9437.00,2.40
9436.00,2.40
9435.00,2.40
9434.00,2.40
9433.00,2.40
9432.00,2.41
9431.00,2.41
9430.00,2.41
9429.00,2.41
9428.00,2.41
9427.00,2.41
9426.00,2.42
9425.00,2.42
9424.00,2.42
9423.00,2.42
9422.00,2.42
9421.00,2.43
9420.00,2.43
9419.00,2.43
9418.00,2.43
9417.00,2.43
9416.00,2.43
9415.00,2.43
9414.00,2.44
9413.00,2.44
9412.00,2.44
9411.00,2.44
9410.00,2.44
9409.00,2.44
9408.00,2.44
9407.00,2.44
9406.00,2.44
9405.00,2.44
9404.00,2.44
9403.00,2.44
9402.00,2.44
9401.00,2.44
9400.00,2.44
9399.00,2.44
9398.00,2.44
9397.00,2.44
9396.00,2.44
9395.00,2.44
9394.00,2.44
9393.00,2.44
9392.00,2.44
9391.00,2.43
9390.00,2.43
9389.00,2.43
9388.00,2.43
9387.00,2.43
9386.00,2.43
9385.00,2.43
9384.00,2.43
9383.00,2.43
9382.00,2.44
9381.00,2.44
9380.00,2.44
9379.00,2.44
9378.00,2.44
9377.00,2.44
9376.00,2.44
9375.00,2.45
9374.00,2.45
9373.00,2.45
9372.00,2.45
9371.00,2.45
9370.00,2.45
9369.00,2.45
9368.00,2.45
9367.00,2.44
9366.00,2.44
9365.00,2.44
9364.00,2.44
9363.00,2.43
9362.00,2.43
9361.00,2.43
9360.00,2.43
9359.00,2.42
9358.00,2.42
9357.00,2.42
9356.00,2.42
9355.00,2.42
9354.00,2.42
9353.00,2.42
9352.00,2.43
9351.00,2.43
9350.00,2.43
9349.00,2.43
9348.00,2.44
9347.00,2.44
9346.00,2.44
9345.00,2.44
9344.00,2.44
9343.00,2.45
9342.00,2.45
9341.00,2.45
9340.00,2.45
9339.00,2.45
9338.00,2.45
9337.00,2.45
9336.00,2.45
9335.00,2.45
9334.00,2.44
9333.00,2.44
9332.00,2.44
9331.00,2.44
9330.00,2.43
9329.00,2.43
9328.00,2.43
9327.00,2.43
9326.00,2.43
9325.00,2.43
9324.00,2.43
9323.00,2.42
9322.00,2.42
9321.00,2.42
9320.00,2.42
9319.00,2.42
9318.00,2.42
9317.00,2.42
9316.00,2.42
9315.00,2.42
9314.00,2.42
9313.00,2.42
9312.00,2.42
9311.00,2.42
9310.00,2.42
9309.00,2.42
9308.00,2.42
9307.00,2.41
9306.00,2.41
9305.00,2.41
9304.00,2.41
9303.00,2.41
9302.00,2.40
9301.00,2.40
9300.00,2.40
9299.00,2.40
9298.00,2.40
9297.00,2.40
9296.00,2.40
9295.00,2.40
9294.00,2.40
9293.00,2.40
9292.00,2.40
9291.00,2.40
9290.00,2.40
9289.00,2.40
9288.00,2.40
9287.00,2.40
9286.00,2.40
9285.00,2.40
9284.00,2.40
9283.00,2.40
9282.00,2.40
9281.00,2.40
9280.00,2.40
9279.00,2.40
9278.00,2.40
9277.00,2.40
9276.00,2.40
9275.00,2.41
9274.00,2.41
9273.00,2.41
9272.00,2.41
9271.00,2.41
9270.00,2.41
9269.00,2.41
9268.00,2.42
9267.00,2.42
9266.00,2.42
9265.00,2.42
9264.00,2.42
9263.00,2.42
9262.00,2.43
9261.00,2.43
9260.00,2.43
9259.00,2.43
9258.00,2.43
9257.00,2.43
9256.00,2.43
9255.00,2.43
9254.00,2.43
9253.00,2.43
9252.00,2.44
9251.00,2.44
9250.00,2.44
9249.00,2.44
9248.00,2.44
9247.00,2.44
9246.00,2.44
9245.00,2.44
9244.00,2.44
9243.00,2.44
9242.00,2.44
9241.00,2.44
9240.00,2.44
9239.00,2.44
9238.00,2.44
9237.00,2.44
9236.00,2.44
9235.00,2.44
9234.00,2.44
9233.00,2.43
9232.00,2.43
9231.00,2.43
9230.00,2.43
9229.00,2.43
9228.00,2.43
9227.00,2.43
9226.00,2.43
9225.00,2.43
9224.00,2.42
9223.00,2.42
9222.00,2.42
9221.00,2.42
9220.00,2.42
9219.00,2.42
9218.00,2.42
9217.00,2.42
9216.00,2.41
9215.00,2.41
9214.00,2.41
9213.00,2.41
9212.00,2.41
9211.00,2.41
9210.00,2.41
9209.00,2.41
9208.00,2.42
9207.00,2.42
9206.00,2.42
9205.00,2.42
9204.00,2.42
9203.00,2.42
9202.00,2.42
9201.00,2.42
9200.00,2.42
9199.00,2.41
9198.00,2.41
9197.00,2.41
9196.00,2.41
9195.00,2.41
9194.00,2.41
9193.00,2.41
9192.00,2.41
9191.00,2.41
9190.00,2.41
9189.00,2.41
9188.00,2.41
9187.00,2.41
9186.00,2.41
9185.00,2.42
9184.00,2.42
9183.00,2.42
9182.00,2.42
9181.00,2.42
9180.00,2.43
9179.00,2.43
9178.00,2.43
9177.00,2.43
9176.00,2.43
9175.00,2.44
9174.00,2.44
9173.00,2.44
9172.00,2.44
9171.00,2.44
9170.00,2.44
9169.00,2.44
9168.00,2.44
9167.00,2.43
9166.00,2.43
9165.00,2.43
9164.00,2.43
9163.00,2.43
9162.00,2.43
9161.00,2.42
9160.00,2.42
9159.00,2.42
9158.00,2.42
9157.00,2.42
9156.00,2.42
9155.00,2.42
9154.00,2.42
9153.00,2.42
9152.00,2.42
9151.00,2.42
9150.00,2.42
9149.00,2.43
9148.00,2.43
9147.00,2.43
9146.00,2.43
9145.00,2.44
9144.00,2.44
9143.00,2.44
9142.00,2.44
9141.00,2.45
9140.00,2.45
9139.00,2.45
9138.00,2.45
9137.00,2.45
9136.00,2.45
9135.00,2.45
9134.00,2.45
9133.00,2.45
9132.00,2.45
9131.00,2.45
9130.00,2.45
9129.00,2.44
9128.00,2.44
9127.00,2.44
9126.00,2.44
9125.00,2.43
9124.00,2.43
9123.00,2.43
9122.00,2.43
9121.00,2.43
9120.00,2.42
9119.00,2.42
9118.00,2.42
9117.00,2.42
9116.00,2.42
9115.00,2.42
9114.00,2.42
9113.00,2.42
9112.00,2.42
9111.00,2.42
9110.00,2.42
9109.00,2.42
9108.00,2.42
9107.00,2.43
9106.00,2.43
9105.00,2.43
9104.00,2.43
9103.00,2.43
9102.00,2.43
9101.00,2.43
9100.00,2.43
9099.00,2.43
9098.00,2.43
9097.00,2.43
9096.00,2.43
9095.00,2.43
9094.00,2.43
9093.00,2.43
9092.00,2.43
9091.00,2.43
9090.00,2.43
9089.00,2.44
9088.00,2.44
9087.00,2.44
9086.00,2.44
9085.00,2.44
9084.00,2.44
9083.00,2.44
9082.00,2.44
9081.00,2.44
9080.00,2.44
9079.00,2.44
9078.00,2.44
9077.00,2.44
9076.00,2.44
9075.00,2.44
9074.00,2.44
9073.00,2.44
9072.00,2.44
9071.00,2.45
9070.00,2.45
9069.00,2.45
9068.00,2.45
9067.00,2.45
9066.00,2.45
9065.00,2.45
9064.00,2.45
9063.00,2.45
9062.00,2.45
9061.00,2.45
9060.00,2.45
9059.00,2.45
9058.00,2.45
9057.00,2.45
9056.00,2.45
9055.00,2.45
9054.00,2.44
9053.00,2.44
9052.00,2.44
9051.00,2.44
9050.00,2.44
9049.00,2.44
9048.00,2.44
9047.00,2.44
9046.00,2.44
9045.00,2.43
9044.00,2.43
9043.00,2.43
9042.00,2.43
9041.00,2.43
9040.00,2.43
9039.00,2.43
9038.00,2.43
9037.00,2.43
9036.00,2.43
9035.00,2.42
9034.00,2.42
9033.00,2.42
9032.00,2.42
9031.00,2.42
9030.00,2.42
9029.00,2.43
9028.00,2.43
9027.00,2.43
9026.00,2.43
9025.00,2.43
9024.00,2.44
9023.00,2.44
9022.00,2.44
9021.00,2.44
9020.00,2.44
9019.00,2.45
9018.00,2.45
9017.00,2.45
9016.00,2.45
9015.00,2.45
9014.00,2.45
9013.00,2.45
9012.00,2.45
9011.00,2.45
9010.00,2.45
9009.00,2.45
9008.00,2.45
9007.00,2.45
9006.00,2.45
9005.00,2.45
9004.00,2.45
9003.00,2.45
9002.00,2.45
9001.00,2.45
9000.00,2.45
8999.00,2.45
8998.00,2.45
8997.00,2.45
8996.00,2.45
8995.00,2.45
8994.00,2.45
8993.00,2.45
8992.00,2.45
8991.00,2.45
8990.00,2.44
8989.00,2.44
8988.00,2.44
8987.00,2.44
8986.00,2.43
8985.00,2.43
8984.00,2.43
8983.00,2.43
8982.00,2.42
8981.00,2.42
8980.00,2.42
8979.00,2.42
8978.00,2.42
8977.00,2.42
8976.00,2.42
8975.00,2.42
8974.00,2.42
8973.00,2.42
8972.00,2.42
8971.00,2.43
8970.00,2.43
8969.00,2.43
8968.00,2.43
8967.00,2.43
8966.00,2.43
8965.00,2.44
8964.00,2.44
8963.00,2.44
8962.00,2.44
8961.00,2.44
8960.00,2.44
8959.00,2.44
8958.00,2.44
8957.00,2.44
8956.00,2.44
8955.00,2.44
8954.00,2.44
8953.00,2.44
8952.00,2.44
8951.00,2.43
8950.00,2.43
8949.00,2.43
8948.00,2.43
8947.00,2.43
8946.00,2.43
8945.00,2.43
8944.00,2.43
8943.00,2.43
8942.00,2.43
8941.00,2.43
8940.00,2.43
8939.00,2.43
8938.00,2.43
8937.00,2.43
8936.00,2.43
8935.00,2.43
8934.00,2.43
8933.00,2.44
8932.00,2.44
8931.00,2.44
8930.00,2.44
8929.00,2.44
8928.00,2.44
8927.00,2.44
8926.00,2.44
8925.00,2.45
8924.00,2.45
8923.00,2.45
8922.00,2.45
8921.00,2.45
8920.00,2.45
8919.00,2.45
8918.00,2.45
8917.00,2.45
8916.00,2.45
8915.00,2.44
8914.00,2.44
8913.00,2.44
8912.00,2.44
8911.00,2.44
8910.00,2.44
8909.00,2.44
8908.00,2.44
8907.00,2.44
8906.00,2.44
8905.00,2.44
8904.00,2.44
8903.00,2.44
8902.00,2.44
8901.00,2.44
8900.00,2.44
8899.00,2.44
8898.00,2.45
8897.00,2.45
8896.00,2.45
8895.00,2.45
8894.00,2.45
8893.00,2.45
8892.00,2.45
8891.00,2.45
8890.00,2.45
8889.00,2.45
8888.00,2.45
8887.00,2.45
8886.00,2.45
8885.00,2.45
8884.00,2.45
8883.00,2.45
8882.00,2.44
8881.00,2.44
8880.00,2.44
8879.00,2.44
8878.00,2.44
8877.00,2.43
8876.00,2.43
8875.00,2.43
8874.00,2.43
8873.00,2.43
8872.00,2.43
8871.00,2.43
8870.00,2.43
8869.00,2.43
8868.00,2.43
8867.00,2.43
8866.00,2.43
8865.00,2.43
8864.00,2.43
8863.00,2.43
8862.00,2.43
8861.00,2.43
8860.00,2.44
8859.00,2.44
8858.00,2.44
8857.00,2.44
8856.00,2.43
8855.00,2.43
8854.00,2.43
8853.00,2.43
8852.00,2.43
8851.00,2.43
8850.00,2.43
8849.00,2.42
8848.00,2.42
8847.00,2.42
8846.00,2.42
8845.00,2.42
8844.00,2.41
8843.00,2.41
8842.00,2.41
8841.00,2.41
8840.00,2.41
8839.00,2.41
8838.00,2.41
8837.00,2.41
8836.00,2.41
8835.00,2.41
8834.00,2.41
8833.00,2.41
8832.00,2.41
8831.00,2.41
8830.00,2.40
8829.00,2.40
8828.00,2.40
8827.00,2.40
8826.00,2.40
8825.00,2.40
8824.00,2.40
8823.00,2.40
8822.00,2.40
8821.00,2.40
8820.00,2.40
8819.00,2.40
8818.00,2.40
8817.00,2.40
8816.00,2.40
8815.00,2.40
8814.00,2.40
8813.00,2.40
8812.00,2.40
8811.00,2.40
8810.00,2.40
8809.00,2.40
8808.00,2.40
8807.00,2.40
8806.00,2.40
8805.00,2.40
8804.00,2.40
8803.00,2.41
8802.00,2.41
8801.00,2.41
8800.00,2.41
8799.00,2.41
8798.00,2.41
8797.00,2.41
8796.00,2.41
8795.00,2.42
8794.00,2.42
8793.00,2.41
8792.00,2.41
8791.00,2.41
8790.00,2.41
8789.00,2.41
8788.00,2.41
8787.00,2.40
8786.00,2.40
8785.00,2.40
8784.00,2.39
8783.00,2.39
8782.00,2.39
8781.00,2.39
8780.00,2.38
8779.00,2.38
8778.00,2.38
8777.00,2.38
8776.00,2.38
8775.00,2.38
8774.00,2.38
8773.00,2.38
8772.00,2.38
8771.00,2.38
8770.00,2.38
8769.00,2.38
8768.00,2.38
8767.00,2.39
8766.00,2.39
8765.00,2.39
8764.00,2.39
8763.00,2.39
8762.00,2.39
8761.00,2.39
8760.00,2.39
8759.00,2.39
8758.00,2.39
8757.00,2.38
8756.00,2.38
8755.00,2.38
8754.00,2.38
8753.00,2.37
8752.00,2.37
8751.00,2.37
8750.00,2.36
8749.00,2.36
8748.00,2.36
8747.00,2.35
8746.00,2.35
8745.00,2.35
8744.00,2.35
8743.00,2.34
8742.00,2.34
8741.00,2.34
8740.00,2.34
8739.00,2.34
8738.00,2.34
8737.00,2.34
8736.00,2.34
8735.00,2.34
8734.00,2.34
8733.00,2.34
8732.00,2.34
8731.00,2.35
8730.00,2.35
8729.00,2.35
8728.00,2.35
8727.00,2.35
8726.00,2.35
8725.00,2.35
8724.00,2.35
8723.00,2.35
8722.00,2.35
8721.00,2.35
8720.00,2.35
8719.00,2.35
8718.00,2.35
8717.00,2.35
8716.00,2.35
8715.00,2.35
8714.00,2.34
8713.00,2.34
8712.00,2.34
8711.00,2.34
8710.00,2.34
8709.00,2.34
8708.00,2.33
8707.00,2.33
8706.00,2.33
8705.00,2.33
8704.00,2.33
8703.00,2.33
8702.00,2.33
8701.00,2.33
8700.00,2.33
8699.00,2.32
8698.00,2.32
8697.00,2.32
8696.00,2.32
8695.00,2.32
8694.00,2.32
8693.00,2.32
8692.00,2.32
8691.00,2.32
8690.00,2.32
8689.00,2.32
8688.00,2.32
8687.00,2.32
8686.00,2.32
8685.00,2.32
8684.00,2.32
8683.00,2.32
8682.00,2.32
8681.00,2.32
8680.00,2.32
8679.00,2.32
8678.00,2.32
8677.00,2.32
8676.00,2.32
8675.00,2.32
8674.00,2.32
8673.00,2.32
8672.00,2.32
8671.00,2.32
8670.00,2.32
8669.00,2.32
8668.00,2.32
8667.00,2.32
8666.00,2.32
8665.00,2.32
8664.00,2.32
8663.00,2.32
8662.00,2.32
8661.00,2.32
8660.00,2.32
8659.00,2.32
8658.00,2.32
8657.00,2.32
8656.00,2.31
8655.00,2.31
8654.00,2.31
8653.00,2.31
8652.00,2.31
8651.00,2.31
8650.00,2.31
8649.00,2.31
8648.00,2.31
8647.00,2.31
8646.00,2.31
8645.00,2.31
8644.00,2.31
8643.00,2.31
8642.00,2.31
8641.00,2.32
8640.00,2.32
8639.00,2.32
8638.00,2.31
8637.00,2.31
8636.00,2.31
8635.00,2.31
8634.00,2.31
8633.00,2.31
8632.00,2.31
8631.00,2.31
8630.00,2.31
8629.00,2.30
8628.00,2.30
8627.00,2.30
8626.00,2.30
8625.00,2.30
8624.00,2.30
8623.00,2.30
8622.00,2.30
8621.00,2.29
8620.00,2.29
8619.00,2.29
8618.00,2.29
8617.00,2.29
8616.00,2.30
8615.00,2.30
8614.00,2.30
8613.00,2.30
8612.00,2.30
8611.00,2.30
8610.00,2.30
8609.00,2.30
8608.00,2.30
8607.00,2.29
8606.00,2.29
8605.00,2.29
8604.00,2.29
8603.00,2.29
8602.00,2.29
8601.00,2.29
8600.00,2.29
8599.00,2.28
8598.00,2.28
8597.00,2.28
8596.00,2.28
8595.00,2.28
8594.00,2.28
8593.00,2.28
8592.00,2.28
8591.00,2.28
8590.00,2.28
8589.00,2.28
8588.00,2.28
8587.00,2.28
8586.00,2.28
8585.00,2.28
8584.00,2.28
8583.00,2.28
8582.00,2.28
8581.00,2.28
8580.00,2.28
8579.00,2.28
8578.00,2.28
8577.00,2.28
8576.00,2.28
8575.00,2.28
8574.00,2.28
8573.00,2.28
8572.00,2.28
8571.00,2.27
8570.00,2.27
8569.00,2.27
8568.00,2.27
8567.00,2.27
8566.00,2.26
8565.00,2.26
8564.00,2.26
8563.00,2.26
8562.00,2.26
8561.00,2.26
8560.00,2.26
8559.00,2.25
8558.00,2.25
8557.00,2.25
8556.00,2.26
8555.00,2.26
8554.00,2.26
8553.00,2.26
8552.00,2.26
8551.00,2.26
8550.00,2.26
8549.00,2.26
8548.00,2.26
8547.00,2.26
8546.00,2.26
8545.00,2.26
8544.00,2.26
8543.00,2.25
8542.00,2.25
8541.00,2.25
8540.00,2.25
8539.00,2.25
8538.00,2.25
8537.00,2.25
8536.00,2.24
8535.00,2.24
8534.00,2.24
8533.00,2.24
8532.00,2.24
8531.00,2.24
8530.00,2.24
8529.00,2.24
8528.00,2.24
8527.00,2.24
8526.00,2.23
8525.00,2.23
8524.00,2.23
8523.00,2.23
8522.00,2.23
8521.00,2.23
8520.00,2.23
8519.00,2.23
8518.00,2.23
8517.00,2.23
8516.00,2.23
8515.00,2.23
8514.00,2.23
8513.00,2.23
8512.00,2.22
8511.00,2.22
8510.00,2.22
8509.00,2.22
8508.00,2.22
8507.00,2.21
8506.00,2.21
8505.00,2.21
8504.00,2.21
8503.00,2.21
8502.00,2.21
8501.00,2.20
8500.00,2.20
8499.00,2.20
8498.00,2.20
8497.00,2.20
8496.00,2.20
8495.00,2.20
8494.00,2.20
8493.00,2.19
8492.00,2.19
8491.00,2.19
8490.00,2.19
8489.00,2.19
8488.00,2.19
8487.00,2.19
8486.00,2.19
8485.00,2.19
8484.00,2.19
8483.00,2.19
8482.00,2.19
8481.00,2.18
8480.00,2.18
8479.00,2.18
8478.00,2.18
8477.00,2.18
8476.00,2.18
8475.00,2.18
8474.00,2.18
8473.00,2.18
8472.00,2.18
8471.00,2.18
8470.00,2.18
8469.00,2.18
8468.00,2.18
8467.00,2.18
8466.00,2.18
8465.00,2.18
8464.00,2.18
8463.00,2.17
8462.00,2.17
8461.00,2.17
8460.00,2.17
8459.00,2.17
8458.00,2.17
8457.00,2.16
8456.00,2.16
8455.00,2.16
8454.00,2.16
8453.00,2.15
8452.00,2.15
8451.00,2.15
8450.00,2.15
8449.00,2.15
8448.00,2.15
8447.00,2.14
8446.00,2.14
8445.00,2.14
8444.00,2.14
8443.00,2.14
8442.00,2.15
8441.00,2.15
8440.00,2.15
8439.00,2.15
8438.00,2.15
8437.00,2.16
8436.00,2.16
8435.00,2.16
8434.00,2.16
8433.00,2.16
8432.00,2.17
8431.00,2.17
8430.00,2.17
8429.00,2.17
8428.00,2.17
8427.00,2.17
8426.00,2.17
8425.00,2.17
8424.00,2.17
8423.00,2.17
8422.00,2.17
8421.00,2.17
8420.00,2.17
8419.00,2.17
8418.00,2.17
8417.00,2.17
8416.00,2.17
8415.00,2.17
8414.00,2.17
8413.00,2.17
8412.00,2.17
8411.00,2.17
8410.00,2.16
8409.00,2.16
8408.00,2.16
8407.00,2.16
8406.00,2.16
8405.00,2.16
8404.00,2.16
8403.00,2.16
8402.00,2.16
8401.00,2.16
8400.00,2.17
8399.00,2.17
8398.00,2.17
8397.00,2.17
8396.00,2.17
8395.00,2.17
8394.00,2.17
8393.00,2.17
8392.00,2.17
8391.00,2.17
8390.00,2.17
8389.00,2.17
8388.00,2.17
8387.00,2.17
8386.00,2.17
8385.00,2.17
8384.00,2.17
8383.00,2.17
8382.00,2.17
8381.00,2.17
8380.00,2.18
8379.00,2.18
8378.00,2.18
8377.00,2.18
8376.00,2.18
8375.00,2.19
8374.00,2.19
8373.00,2.19
8372.00,2.19
8371.00,2.20
8370.00,2.20
8369.00,2.20
8368.00,2.20
8367.00,2.20
8366.00,2.21
8365.00,2.21
8364.00,2.21
8363.00,2.21
8362.00,2.21
8361.00,2.21
8360.00,2.22
8359.00,2.22
8358.00,2.22
8357.00,2.22
8356.00,2.22
8355.00,2.22
8354.00,2.22
8353.00,2.22
8352.00,2.22
8351.00,2.22
8350.00,2.22
8349.00,2.23
8348.00,2.23
8347.00,2.23
8346.00,2.23
8345.00,2.23
8344.00,2.23
8343.00,2.23
8342.00,2.23
8341.00,2.23
8340.00,2.23
8339.00,2.23
8338.00,2.23
8337.00,2.23
8336.00,2.23
8335.00,2.23
8334.00,2.23
8333.00,2.23
8332.00,2.23
8331.00,2.23
8330.00,2.23
8329.00,2.23
8328.00,2.23
8327.00,2.23
8326.00,2.23
8325.00,2.23
8324.00,2.23
8323.00,2.23
8322.00,2.23
8321.00,2.23
8320.00,2.23
8319.00,2.23
8318.00,2.23
8317.00,2.23
8316.00,2.23
8315.00,2.23
8314.00,2.23
8313.00,2.23
8312.00,2.23
8311.00,2.23
8310.00,2.23
8309.00,2.23
8308.00,2.23
8307.00,2.23
8306.00,2.23
8305.00,2.23
8304.00,2.23
8303.00,2.23
8302.00,2.23
8301.00,2.23
8300.00,2.23
8299.00,2.23
8298.00,2.23
8297.00,2.23
8296.00,2.23
8295.00,2.23
8294.00,2.23
8293.00,2.23
8292.00,2.23
8291.00,2.23
8290.00,2.23
8289.00,2.23
8288.00,2.23
8287.00,2.23
8286.00,2.23
8285.00,2.23
8284.00,2.23
8283.00,2.23
8282.00,2.23
8281.00,2.23
8280.00,2.23
8279.00,2.23
8278.00,2.23
8277.00,2.23
8276.00,2.23
8275.00,2.23
8274.00,2.22
8273.00,2.22
8272.00,2.22
8271.00,2.22
8270.00,2.22
8269.00,2.22
8268.00,2.22
8267.00,2.22
8266.00,2.23
8265.00,2.23
8264.00,2.23
8263.00,2.23
8262.00,2.23
8261.00,2.23
8260.00,2.23
8259.00,2.23
8258.00,2.24
8257.00,2.24
8256.00,2.24
8255.00,2.24
8254.00,2.25
8253.00,2.25
8252.00,2.25
8251.00,2.25
8250.00,2.25
8249.00,2.25
8248.00,2.26
8247.00,2.26
8246.00,2.26
8245.00,2.26
8244.00,2.26
8243.00,2.26
8242.00,2.26
8241.00,2.26
8240.00,2.26
8239.00,2.26
8238.00,2.26
8237.00,2.26
8236.00,2.26
8235.00,2.26
8234.00,2.26
8233.00,2.26
8232.00,2.26
8231.00,2.26
8230.00,2.26
8229.00,2.26
8228.00,2.26
8227.00,2.26
8226.00,2.26
8225.00,2.26
8224.00,2.26
8223.00,2.26
8222.00,2.26
8221.00,2.27
8220.00,2.27
8219.00,2.27
8218.00,2.27
8217.00,2.27
8216.00,2.27
8215.00,2.27
8214.00,2.27
8213.00,2.27
8212.00,2.27
8211.00,2.27
8210.00,2.27
8209.00,2.27
8208.00,2.27
8207.00,2.27
8206.00,2.27
8205.00,2.27
8204.00,2.28
8203.00,2.28
8202.00,2.28
8201.00,2.28
8200.00,2.28
8199.00,2.29
8198.00,2.29
8197.00,2.29
8196.00,2.29
8195.00,2.30
8194.00,2.30
8193.00,2.30
8192.00,2.30
8191.00,2.30
8190.00,2.30
8189.00,2.30
8188.00,2.30
8187.00,2.30
8186.00,2.30
8185.00,2.30
8184.00,2.30
8183.00,2.30
8182.00,2.30
8181.00,2.30
8180.00,2.30
8179.00,2.30
8178.00,2.30
8177.00,2.30
8176.00,2.30
8175.00,2.30
8174.00,2.30
8173.00,2.30
8172.00,2.30
8171.00,2.30
8170.00,2.30
8169.00,2.30
8168.00,2.31
8167.00,2.31
8166.00,2.31
8165.00,2.31
8164.00,2.31
8163.00,2.31
8162.00,2.31
8161.00,2.31
8160.00,2.31
8159.00,2.31
8158.00,2.31
8157.00,2.31
8156.00,2.31
8155.00,2.31
8154.00,2.31
8153.00,2.31
8152.00,2.31
8151.00,2.31
8150.00,2.31
8149.00,2.31
8148.00,2.31
8147.00,2.31
8146.00,2.31
8145.00,2.31
8144.00,2.31
8143.00,2.31
8142.00,2.31
8141.00,2.31
8140.00,2.31
8139.00,2.31
8138.00,2.31
8137.00,2.31
8136.00,2.32
8135.00,2.32
8134.00,2.32
8133.00,2.32
8132.00,2.32
8131.00,2.32
8130.00,2.32
8129.00,2.32
8128.00,2.32
8127.00,2.33
8126.00,2.33
8125.00,2.33
8124.00,2.33
8123.00,2.33
8122.00,2.33
8121.00,2.33
8120.00,2.33
8119.00,2.33
8118.00,2.33
8117.00,2.33
8116.00,2.33
8115.00,2.33
8114.00,2.33
8113.00,2.33
8112.00,2.33
8111.00,2.33
8110.00,2.33
8109.00,2.33
8108.00,2.33
8107.00,2.33
8106.00,2.33
8105.00,2.33
8104.00,2.33
8103.00,2.33
8102.00,2.33
8101.00,2.33
8100.00,2.33
8099.00,2.33
8098.00,2.34
8097.00,2.34
8096.00,2.34
8095.00,2.34
8094.00,2.34
8093.00,2.34
8092.00,2.34
8091.00,2.35
8090.00,2.35
8089.00,2.35
8088.00,2.35
8087.00,2.35
8086.00,2.35
8085.00,2.35
8084.00,2.35
8083.00,2.35
8082.00,2.35
8081.00,2.35
8080.00,2.35
8079.00,2.35
8078.00,2.35
8077.00,2.35
8076.00,2.35
8075.00,2.35
8074.00,2.35
8073.00,2.35
8072.00,2.35
8071.00,2.35
8070.00,2.36
8069.00,2.36
8068.00,2.36
8067.00,2.36
8066.00,2.36
8065.00,2.36
8064.00,2.36
8063.00,2.36
8062.00,2.36
8061.00,2.36
8060.00,2.36
8059.00,2.36
8058.00,2.36
8057.00,2.36
8056.00,2.36
8055.00,2.36
8054.00,2.36
8053.00,2.36
8052.00,2.36
8051.00,2.36
8050.00,2.36
8049.00,2.36
8048.00,2.36
8047.00,2.36
8046.00,2.36
8045.00,2.36
8044.00,2.36
8043.00,2.36
8042.00,2.37
8041.00,2.37
8040.00,2.37
8039.00,2.37
8038.00,2.37
8037.00,2.36
8036.00,2.36
8035.00,2.36
8034.00,2.36
8033.00,2.36
8032.00,2.36
8031.00,2.36
8030.00,2.36
8029.00,2.36
8028.00,2.36
8027.00,2.36
8026.00,2.36
8025.00,2.36
8024.00,2.36
8023.00,2.36
8022.00,2.36
8021.00,2.37
8020.00,2.37
8019.00,2.37
8018.00,2.37
8017.00,2.37
8016.00,2.37
8015.00,2.37
8014.00,2.37
8013.00,2.37
8012.00,2.37
8011.00,2.37
8010.00,2.38
8009.00,2.38
8008.00,2.38
8007.00,2.38
8006.00,2.38
8005.00,2.38
8004.00,2.38
8003.00,2.38
8002.00,2.38
8001.00,2.38
8000.00,2.38
7999.00,2.38
7998.00,2.38
7997.00,2.38
7996.00,2.38
7995.00,2.38
7994.00,2.38
7993.00,2.38
7992.00,2.38
7991.00,2.38
7990.00,2.38
7989.00,2.38
7988.00,2.38
7987.00,2.38
7986.00,2.38
7985.00,2.38
7984.00,2.38
7983.00,2.38
7982.00,2.38
7981.00,2.38
7980.00,2.38
7979.00,2.39
7978.00,2.39
7977.00,2.39
7976.00,2.39
7975.00,2.39
7974.00,2.40
7973.00,2.40
7972.00,2.40
7971.00,2.40
7970.00,2.40
7969.00,2.40
7968.00,2.40
7967.00,2.41
7966.00,2.41
7965.00,2.41
7964.00,2.41
7963.00,2.41
7962.00,2.41
7961.00,2.40
7960.00,2.40
7959.00,2.40
7958.00,2.40
7957.00,2.40
7956.00,2.40
7955.00,2.40
7954.00,2.40
7953.00,2.40
7952.00,2.40
7951.00,2.40
7950.00,2.41
7949.00,2.41
7948.00,2.41
7947.00,2.41
7946.00,2.41
7945.00,2.41
7944.00,2.41
7943.00,2.41
7942.00,2.41
7941.00,2.41
7940.00,2.41
7939.00,2.41
7938.00,2.41
7937.00,2.40
7936.00,2.40
7935.00,2.40
7934.00,2.40
7933.00,2.40
7932.00,2.40
7931.00,2.40
7930.00,2.40
7929.00,2.40
7928.00,2.40
7927.00,2.40
7926.00,2.40
7925.00,2.40
7924.00,2.40
7923.00,2.40
7922.00,2.40
7921.00,2.40
7920.00,2.40
7919.00,2.40
7918.00,2.40
7917.00,2.40
7916.00,2.40
7915.00,2.40
7914.00,2.40
7913.00,2.40
7912.00,2.40
7911.00,2.40
7910.00,2.41
7909.00,2.41
7908.00,2.41
7907.00,2.41
7906.00,2.41
7905.00,2.41
7904.00,2.42
7903.00,2.42
7902.00,2.42
7901.00,2.42
7900.00,2.42
7899.00,2.42
7898.00,2.42
7897.00,2.42
7896.00,2.42
7895.00,2.42
7894.00,2.43
7893.00,2.43
7892.00,2.43
7891.00,2.43
7890.00,2.43
7889.00,2.43
7888.00,2.43
7887.00,2.43
7886.00,2.43
7885.00,2.43
7884.00,2.43
7883.00,2.43
7882.00,2.43
7881.00,2.43
7880.00,2.43
7879.00,2.43
7878.00,2.43
7877.00,2.43
7876.00,2.43
7875.00,2.43
7874.00,2.43
7873.00,2.43
7872.00,2.43
7871.00,2.43
7870.00,2.42
7869.00,2.42
7868.00,2.42
7867.00,2.42
7866.00,2.42
7865.00,2.42
7864.00,2.41
7863.00,2.41
7862.00,2.41
7861.00,2.41
7860.00,2.41
7859.00,2.41
7858.00,2.41
7857.00,2.41
7856.00,2.41
7855.00,2.41
7854.00,2.41
7853.00,2.41
7852.00,2.41
7851.00,2.42
7850.00,2.42
7849.00,2.42
7848.00,2.42
7847.00,2.42
7846.00,2.42
7845.00,2.42
7844.00,2.43
7843.00,2.43
7842.00,2.43
7841.00,2.43
7840.00,2.43
7839.00,2.43
7838.00,2.43
7837.00,2.43
7836.00,2.43
7835.00,2.43
7834.00,2.43
7833.00,2.43
7832.00,2.43
7831.00,2.44
7830.00,2.44
7829.00,2.44
7828.00,2.44
7827.00,2.44
7826.00,2.44
7825.00,2.45
7824.00,2.45
7823.00,2.45
7822.00,2.45
7821.00,2.45
7820.00,2.45
7819.00,2.45
7818.00,2.45
7817.00,2.45
7816.00,2.45
7815.00,2.45
7814.00,2.45
7813.00,2.45
7812.00,2.45
7811.00,2.45
7810.00,2.45
7809.00,2.45
7808.00,2.45
7807.00,2.44
7806.00,2.44
7805.00,2.44
7804.00,2.44
7803.00,2.44
7802.00,2.44
7801.00,2.44
7800.00,2.44
7799.00,2.44
7798.00,2.44
7797.00,2.44
7796.00,2.44
7795.00,2.44
7794.00,2.44
7793.00,2.44
7792.00,2.44
7791.00,2.44
7790.00,2.44
7789.00,2.44
7788.00,2.44
7787.00,2.44
7786.00,2.44
7785.00,2.44
7784.00,2.44
7783.00,2.44
7782.00,2.45
7781.00,2.45
7780.00,2.45
7779.00,2.45
7778.00,2.45
7777.00,2.45
7776.00,2.45
7775.00,2.45
7774.00,2.44
7773.00,2.44
7772.00,2.44
7771.00,2.44
7770.00,2.44
7769.00,2.44
7768.00,2.44
7767.00,2.44
7766.00,2.44
7765.00,2.44
7764.00,2.44
7763.00,2.44
7762.00,2.44
7761.00,2.43
7760.00,2.43
7759.00,2.43
7758.00,2.43
7757.00,2.43
7756.00,2.43
7755.00,2.43
7754.00,2.43
7753.00,2.43
7752.00,2.43
7751.00,2.43
7750.00,2.43
7749.00,2.43
7748.00,2.43
7747.00,2.43
7746.00,2.43
7745.00,2.43
7744.00,2.43
7743.00,2.43
7742.00,2.44
7741.00,2.44
7740.00,2.44
7739.00,2.44
7738.00,2.44
7737.00,2.44
7736.00,2.44
7735.00,2.44
7734.00,2.44
7733.00,2.44
7732.00,2.44
7731.00,2.44
7730.00,2.44
7729.00,2.44
7728.00,2.44
7727.00,2.44
7726.00,2.45
7725.00,2.45
7724.00,2.45
7723.00,2.45
7722.00,2.45
7721.00,2.45
7720.00,2.45
7719.00,2.45
7718.00,2.45
7717.00,2.45
7716.00,2.45
7715.00,2.45
7714.00,2.45
7713.00,2.45
7712.00,2.45
7711.00,2.45
7710.00,2.45
7709.00,2.45
7708.00,2.45
7707.00,2.45
7706.00,2.45
7705.00,2.45
7704.00,2.45
7703.00,2.45
7702.00,2.45
7701.00,2.45
7700.00,2.45
7699.00,2.45
7698.00,2.45
7697.00,2.44
7696.00,2.44
7695.00,2.44
7694.00,2.44
7693.00,2.44
7692.00,2.44
7691.00,2.44
7690.00,2.44
7689.00,2.44
7688.00,2.44
7687.00,2.44
7686.00,2.44
7685.00,2.45
7684.00,2.45
7683.00,2.45
7682.00,2.45
7681.00,2.45
7680.00,2.45
7679.00,2.45
7678.00,2.45
7677.00,2.45
7676.00,2.45
7675.00,2.45
7674.00,2.45
7673.00,2.45
7672.00,2.45
7671.00,2.45
7670.00,2.45
7669.00,2.45
7668.00,2.45
7667.00,2.45
7666.00,2.45
7665.00,2.45
7664.00,2.45
7663.00,2.45
7662.00,2.45
7661.00,2.45
7660.00,2.45
7659.00,2.45
7658.00,2.44
7657.00,2.44
7656.00,2.44
7655.00,2.44
7654.00,2.44
7653.00,2.44
7652.00,2.44
7651.00,2.44
7650.00,2.44
7649.00,2.44
7648.00,2.43
7647.00,2.43
7646.00,2.43
7645.00,2.43
7644.00,2.43
7643.00,2.43
7642.00,2.43
7641.00,2.43
7640.00,2.43
7639.00,2.43
7638.00,2.43
7637.00,2.44
7636.00,2.44
7635.00,2.44
7634.00,2.44
7633.00,2.44
7632.00,2.44
7631.00,2.44
7630.00,2.44
7629.00,2.44
7628.00,2.44
7627.00,2.44
7626.00,2.44
7625.00,2.44
7624.00,2.44
7623.00,2.44
7622.00,2.44
7621.00,2.44
7620.00,2.44
7619.00,2.44
7618.00,2.44
7617.00,2.44
7616.00,2.44
7615.00,2.44
7614.00,2.43
7613.00,2.43
7612.00,2.43
7611.00,2.43
7610.00,2.43
7609.00,2.43
7608.00,2.43
7607.00,2.42
7606.00,2.42
7605.00,2.42
7604.00,2.42
7603.00,2.42
7602.00,2.42
7601.00,2.42
7600.00,2.42
7599.00,2.42
7598.00,2.42
7597.00,2.42
7596.00,2.42
7595.00,2.42
7594.00,2.42
7593.00,2.43
7592.00,2.43
7591.00,2.43
7590.00,2.43
7589.00,2.43
7588.00,2.43
7587.00,2.43
7586.00,2.43
7585.00,2.43
7584.00,2.43
7583.00,2.43
7582.00,2.43
7581.00,2.43
7580.00,2.43
7579.00,2.44
7578.00,2.44
7577.00,2.44
7576.00,2.44
7575.00,2.44
7574.00,2.44
7573.00,2.44
7572.00,2.44
7571.00,2.44
7570.00,2.44
7569.00,2.44
7568.00,2.44
7567.00,2.43
7566.00,2.43
7565.00,2.43
7564.00,2.43
7563.00,2.43
7562.00,2.43
7561.00,2.43
7560.00,2.43
7559.00,2.43
7558.00,2.42
7557.00,2.42
7556.00,2.42
7555.00,2.42
7554.00,2.42
7553.00,2.42
7552.00,2.42
7551.00,2.42
7550.00,2.42
7549.00,2.42
7548.00,2.42
7547.00,2.41
7546.00,2.41
7545.00,2.41
7544.00,2.41
7543.00,2.41
7542.00,2.41
7541.00,2.41
7540.00,2.41
7539.00,2.41
7538.00,2.41
7537.00,2.41
7536.00,2.41
7535.00,2.41
7534.00,2.41
7533.00,2.41
7532.00,2.41
7531.00,2.41
7530.00,2.42
7529.00,2.42
7528.00,2.42
7527.00,2.42
7526.00,2.42
7525.00,2.42
7524.00,2.42
7523.00,2.42
7522.00,2.42
7521.00,2.41
7520.00,2.41
7519.00,2.41
7518.00,2.41
7517.00,2.41
7516.00,2.41
7515.00,2.41
7514.00,2.41
7513.00,2.41
7512.00,2.40
7511.00,2.40
7510.00,2.40
7509.00,2.40
7508.00,2.40
7507.00,2.40
7506.00,2.40
7505.00,2.40
7504.00,2.40
7503.00,2.40
7502.00,2.40
7501.00,2.40
7500.00,2.39
7499.00,2.39
7498.00,2.39
7497.00,2.39
7496.00,2.39
7495.00,2.39
7494.00,2.39
7493.00,2.39
7492.00,2.39
7491.00,2.39
7490.00,2.39
7489.00,2.39
7488.00,2.39
7487.00,2.39
7486.00,2.39
7485.00,2.38
7484.00,2.38
7483.00,2.38
7482.00,2.38
7481.00,2.38
7480.00,2.38
7479.00,2.38
7478.00,2.38
7477.00,2.38
7476.00,2.38
7475.00,2.37
7474.00,2.37
7473.00,2.37
7472.00,2.37
7471.00,2.37
7470.00,2.37
7469.00,2.37
7468.00,2.37
7467.00,2.37
7466.00,2.37
7465.00,2.37
7464.00,2.37
7463.00,2.37
7462.00,2.37
7461.00,2.37
7460.00,2.36
7459.00,2.36
7458.00,2.36
7457.00,2.36
7456.00,2.36
7455.00,2.36
7454.00,2.36
7453.00,2.35
7452.00,2.35
7451.00,2.35
7450.00,2.35
7449.00,2.35
7448.00,2.34
7447.00,2.34
7446.00,2.34
7445.00,2.34
7444.00,2.34
7443.00,2.34
7442.00,2.34
7441.00,2.34
7440.00,2.34
7439.00,2.34
7438.00,2.34
7437.00,2.34
7436.00,2.33
7435.00,2.33
7434.00,2.33
7433.00,2.33
7432.00,2.33
7431.00,2.33
7430.00,2.33
7429.00,2.33
7428.00,2.33
7427.00,2.32
7426.00,2.32
7425.00,2.32
7424.00,2.32
7423.00,2.32
7422.00,2.32
7421.00,2.32
7420.00,2.31
7419.00,2.31
7418.00,2.31
7417.00,2.31
7416.00,2.31
7415.00,2.31
7414.00,2.31
7413.00,2.31
7412.00,2.31
7411.00,2.31
7410.00,2.30
7409.00,2.30
7408.00,2.30
7407.00,2.30
7406.00,2.30
7405.00,2.29
7404.00,2.29
7403.00,2.29
7402.00,2.29
7401.00,2.28
7400.00,2.28
7399.00,2.28
7398.00,2.28
7397.00,2.28
7396.00,2.27
7395.00,2.27
7394.00,2.27
7393.00,2.27
7392.00,2.27
7391.00,2.27
7390.00,2.27
7389.00,2.26
7388.00,2.26
7387.00,2.26
7386.00,2.26
7385.00,2.26
7384.00,2.26
7383.00,2.26
7382.00,2.26
7381.00,2.26
7380.00,2.26
7379.00,2.26
7378.00,2.26
7377.00,2.25
7376.00,2.25
7375.00,2.25
7374.00,2.25
7373.00,2.25
7372.00,2.25
7371.00,2.25
7370.00,2.25
7369.00,2.25
7368.00,2.25
7367.00,2.25
7366.00,2.25
7365.00,2.25
7364.00,2.25
7363.00,2.25
7362.00,2.25
7361.00,2.24
7360.00,2.24
7359.00,2.24
7358.00,2.24
7357.00,2.24
7356.00,2.24
7355.00,2.24
7354.00,2.24
7353.00,2.24
7352.00,2.24
7351.00,2.24
7350.00,2.24
7349.00,2.24
7348.00,2.24
7347.00,2.24
7346.00,2.24
7345.00,2.24
7344.00,2.23
7343.00,2.23
7342.00,2.23
7341.00,2.23
7340.00,2.23
7339.00,2.23
7338.00,2.23
7337.00,2.23
7336.00,2.23
7335.00,2.23
7334.00,2.23
7333.00,2.23
7332.00,2.23
7331.00,2.23
7330.00,2.23
7329.00,2.23
7328.00,2.23
7327.00,2.22
7326.00,2.22
7325.00,2.22
7324.00,2.22
7323.00,2.22
7322.00,2.22
7321.00,2.22
7320.00,2.22
7319.00,2.22
7318.00,2.22
7317.00,2.22
7316.00,2.22
7315.00,2.22
7314.00,2.22
7313.00,2.22
7312.00,2.22
7311.00,2.21
7310.00,2.21
7309.00,2.21
7308.00,2.21
7307.00,2.21
7306.00,2.21
7305.00,2.21
7304.00,2.21
7303.00,2.21
7302.00,2.21
7301.00,2.21
7300.00,2.21
7299.00,2.20
7298.00,2.20
7297.00,2.20
7296.00,2.20
7295.00,2.20
7294.00,2.19
7293.00,2.19
7292.00,2.19
7291.00,2.19
7290.00,2.19
7289.00,2.18
7288.00,2.18
7287.00,2.18
7286.00,2.18
7285.00,2.18
7284.00,2.17
7283.00,2.17
7282.00,2.17
7281.00,2.17
7280.00,2.16
7279.00,2.16
7278.00,2.16
7277.00,2.16
7276.00,2.15
7275.00,2.15
7274.00,2.15
7273.00,2.14
7272.00,2.14
7271.00,2.14
7270.00,2.14
7269.00,2.13
7268.00,2.13
7267.00,2.13
7266.00,2.12
7265.00,2.12
7264.00,2.12
7263.00,2.12
7262.00,2.11
7261.00,2.11
7260.00,2.11
7259.00,2.11
7258.00,2.10
7257.00,2.10
7256.00,2.10
7255.00,2.09
7254.00,2.09
7253.00,2.09
7252.00,2.08
7251.00,2.08
7250.00,2.07
7249.00,2.07
7248.00,2.06
7247.00,2.06
7246.00,2.05
7245.00,2.05
7244.00,2.04
7243.00,2.04
7242.00,2.03
7241.00,2.03
7240.00,2.02
7239.00,2.01
7238.00,2.01
7237.00,2.00
7236.00,2.00
7235.00,1.99
7234.00,1.98
7233.00,1.98
7232.00,1.97
7231.00,1.97
7230.00,1.96
7229.00,1.96
7228.00,1.95
7227.00,1.94
7226.00,1.94
7225.00,1.93
7224.00,1.93
7223.00,1.92
7222.00,1.92
7221.00,1.91
7220.00,1.91
7219.00,1.90
7218.00,1.90
7217.00,1.89
7216.00,1.88
7215.00,1.88
7214.00,1.87
7213.00,1.86
7212.00,1.86
7211.00,1.85
7210.00,1.84
7209.00,1.84
7208.00,1.83
7207.00,1.82
7206.00,1.82
7205.00,1.81
7204.00,1.80
7203.00,1.80
7202.00,1.79
7201.00,1.79
7200.00,1.78
7199.00,1.77
7198.00,1.77
7197.00,1.76
7196.00,1.76
7195.00,1.75
7194.00,1.74
7193.00,1.74
7192.00,1.73
7191.00,1.72
7190.00,1.72
7189.00,1.71
7188.00,1.70
7187.00,1.70
7186.00,1.69
7185.00,1.69
7184.00,1.68
7183.00,1.67
7182.00,1.67
7181.00,1.66
7180.00,1.65
7179.00,1.65
7178.00,1.64
7177.00,1.64
7176.00,1.63
7175.00,1.62
7174.00,1.62
7173.00,1.61
7172.00,1.60
7171.00,1.60
7170.00,1.59
7169.00,1.58
7168.00,1.58
7167.00,1.57
7166.00,1.56
7165.00,1.56
7164.00,1.55
7163.00,1.55
7162.00,1.54
7161.00,1.53
7160.00,1.53
7159.00,1.52
7158.00,1.52
7157.00,1.51
7156.00,1.51
7155.00,1.50
7154.00,1.50
7153.00,1.49
7152.00,1.49
7151.00,1.48
7150.00,1.48
7149.00,1.47
7148.00,1.47
7147.00,1.46
7146.00,1.45
7145.00,1.45
7144.00,1.44
7143.00,1.44
7142.00,1.43
7141.00,1.43
7140.00,1.42
7139.00,1.42
7138.00,1.41
7137.00,1.40
7136.00,1.40
7135.00,1.39
7134.00,1.39
7133.00,1.39
7132.00,1.38
7131.00,1.38
7130.00,1.37
7129.00,1.37
7128.00,1.36
7127.00,1.36
7126.00,1.36
7125.00,1.35
7124.00,1.35
7123.00,1.34
7122.00,1.34
7121.00,1.33
7120.00,1.33
7119.00,1.32
7118.00,1.32
7117.00,1.31
7116.00,1.31
7115.00,1.30
7114.00,1.30
7113.00,1.29
7112.00,1.29
7111.00,1.28
7110.00,1.28
7109.00,1.27
7108.00,1.27
7107.00,1.26
7106.00,1.26
7105.00,1.26
7104.00,1.25
7103.00,1.25
7102.00,1.24
7101.00,1.24
7100.00,1.23
7099.00,1.23
7098.00,1.22
7097.00,1.22
7096.00,1.22
7095.00,1.21
7094.00,1.21
7093.00,1.20
7092.00,1.20
7091.00,1.20
7090.00,1.19
7089.00,1.19
7088.00,1.19
7087.00,1.18
7086.00,1.18
7085.00,1.18
7084.00,1.17
7083.00,1.17
7082.00,1.17
7081.00,1.17
7080.00,1.17
7079.00,1.16
7078.00,1.16
7077.00,1.16
7076.00,1.16
7075.00,1.16
7074.00,1.15
7073.00,1.15
7072.00,1.15
7071.00,1.15
7070.00,1.15
7069.00,1.14
7068.00,1.14
7067.00,1.14
7066.00,1.13
7065.00,1.13
7064.00,1.13
7063.00,1.13
7062.00,1.12
7061.00,1.12
7060.00,1.12
7059.00,1.11
7058.00,1.11
7057.00,1.11
7056.00,1.10
7055.00,1.10
7054.00,1.10
7053.00,1.10
7052.00,1.09
7051.00,1.09
7050.00,1.09
7049.00,1.09
7048.00,1.08
7047.00,1.08
7046.00,1.08
7045.00,1.08
7044.00,1.08
7043.00,1.07
7042.00,1.07
7041.00,1.07
7040.00,1.07
7039.00,1.07
7038.00,1.06
7037.00,1.06
7036.00,1.06
7035.00,1.06
7034.00,1.05
7033.00,1.05
7032.00,1.05
7031.00,1.05
7030.00,1.05
7029.00,1.05
7028.00,1.04
7027.00,1.04
7026.00,1.04
7025.00,1.04
7024.00,1.04
7023.00,1.04
7022.00,1.03
7021.00,1.03
7020.00,1.03
7019.00,1.03
7018.00,1.03
7017.00,1.03
7016.00,1.03
7015.00,1.03
7014.00,1.02
7013.00,1.02
7012.00,1.02
7011.00,1.02
7010.00,1.02
7009.00,1.02
7008.00,1.02
7007.00,1.02
7006.00,1.02
7005.00,1.02
7004.00,1.02
7003.00,1.02
7002.00,1.02
7001.00,1.02
7000.00,1.01
6999.00,1.01
6998.00,1.01
6997.00,1.01
6996.00,1.01
6995.00,1.01
6994.00,1.01
6993.00,1.00
6992.00,1.00
6991.00,1.00
6990.00,1.00
6989.00,1.00
6988.00,0.99
6987.00,0.99
6986.00,0.99
6985.00,0.99
6984.00,0.99
6983.00,0.99
6982.00,0.98
6981.00,0.98
6980.00,0.98
6979.00,0.98
6978.00,0.98
6977.00,0.98
6976.00,0.98
6975.00,0.98
6974.00,0.98
6973.00,0.97
6972.00,0.97
6971.00,0.97
6970.00,0.97
6969.00,0.97
6968.00,0.97
6967.00,0.97
6966.00,0.97
6965.00,0.97
6964.00,0.97
6963.00,0.97
6962.00,0.97
6961.00,0.97
6960.00,0.97
6959.00,0.97
6958.00,0.97
6957.00,0.97
6956.00,0.97
6955.00,0.97
6954.00,0.97
6953.00,0.97
6952.00,0.97
6951.00,0.97
6950.00,0.97
6949.00,0.97
6948.00,0.97
6947.00,0.97
6946.00,0.97
6945.00,0.97
6944.00,0.97
6943.00,0.97
6942.00,0.97
6941.00,0.97
6940.00,0.97
6939.00,0.97
6938.00,0.97
6937.00,0.97
6936.00,0.97
6935.00,0.97
6934.00,0.97
6933.00,0.97
6932.00,0.96
6931.00,0.96
6930.00,0.96
6929.00,0.96
6928.00,0.96
6927.00,0.96
6926.00,0.96
6925.00,0.96
6924.00,0.96
6923.00,0.96
6922.00,0.96
6921.00,0.96
6920.00,0.96
6919.00,0.96
6918.00,0.96
6917.00,0.96
6916.00,0.96
6915.00,0.96
6914.00,0.95
6913.00,0.95
6912.00,0.95
6911.00,0.95
6910.00,0.95
6909.00,0.95
6908.00,0.95
6907.00,0.95
6906.00,0.95
6905.00,0.95
6904.00,0.95
6903.00,0.95
6902.00,0.95
6901.00,0.95
6900.00,0.95
6899.00,0.95
6898.00,0.95
6897.00,0.95
6896.00,0.95
6895.00,0.95
6894.00,0.95
6893.00,0.95
6892.00,0.95
6891.00,0.95
6890.00,0.95
6889.00,0.95
6888.00,0.95
6887.00,0.95
6886.00,0.95
6885.00,0.95
6884.00,0.95
6883.00,0.95
6882.00,0.95
6881.00,0.95
6880.00,0.95
6879.00,0.95
6878.00,0.95
6877.00,0.95
6876.00,0.94
6875.00,0.94
6874.00,0.94
6873.00,0.94
6872.00,0.94
6871.00,0.94
6870.00,0.94
6869.00,0.94
6868.00,0.94
6867.00,0.94
6866.00,0.94
6865.00,0.94
6864.00,0.94
6863.00,0.94
6862.00,0.94
6861.00,0.94
6860.00,0.94
6859.00,0.94
6858.00,0.94
6857.00,0.94
6856.00,0.94
6855.00,0.94
6854.00,0.94
6853.00,0.94
6852.00,0.94
6851.00,0.94
6850.00,0.94
6849.00,0.94
6848.00,0.94
6847.00,0.94
6846.00,0.95
6845.00,0.95
6844.00,0.95
6843.00,0.95
6842.00,0.95
6841.00,0.95
6840.00,0.95
6839.00,0.95
6838.00,0.95
6837.00,0.95
6836.00,0.95
6835.00,0.96
6834.00,0.96
6833.00,0.96
6832.00,0.96
6831.00,0.96
6830.00,0.96
6829.00,0.96
6828.00,0.96
6827.00,0.96
6826.00,0.96
6825.00,0.96
6824.00,0.96
6823.00,0.96
6822.00,0.96
6821.00,0.96
6820.00,0.96
6819.00,0.96
6818.00,0.96
6817.00,0.96
6816.00,0.96
6815.00,0.96
6814.00,0.97
6813.00,0.97
6812.00,0.97
6811.00,0.97
6810.00,0.97
6809.00,0.97
6808.00,0.97
6807.00,0.97
6806.00,0.97
6805.00,0.97
6804.00,0.97
6803.00,0.97
6802.00,0.97
6801.00,0.97
6800.00,0.98
6799.00,0.98
6798.00,0.98
6797.00,0.98
6796.00,0.98
6795.00,0.98
6794.00,0.98
6793.00,0.98
6792.00,0.98
6791.00,0.98
6790.00,0.98
6789.00,0.99
6788.00,0.99
6787.00,0.99
6786.00,0.99
6785.00,0.99
6784.00,0.99
6783.00,0.99
6782.00,0.99
6781.00,0.99
6780.00,0.99
6779.00,1.00
6778.00,1.00
6777.00,1.00
6776.00,1.00
6775.00,1.00
6774.00,1.00
6773.00,1.00
6772.00,1.00
6771.00,1.00
6770.00,1.00
6769.00,1.00
6768.00,1.00
6767.00,1.00
6766.00,1.00
6765.00,1.00
6764.00,1.00
6763.00,1.01
6762.00,1.01
6761.00,1.01
6760.00,1.01
6759.00,1.01
6758.00,1.01
6757.00,1.01
6756.00,1.01
6755.00,1.01
6754.00,1.02
6753.00,1.02
6752.00,1.02
6751.00,1.02
6750.00,1.02
6749.00,1.02
6748.00,1.02
6747.00,1.02
6746.00,1.03
6745.00,1.03
6744.00,1.03
6743.00,1.03
6742.00,1.03
6741.00,1.03
6740.00,1.03
6739.00,1.03
6738.00,1.03
6737.00,1.04
6736.00,1.04
6735.00,1.04
6734.00,1.04
6733.00,1.04
6732.00,1.04
6731.00,1.04
6730.00,1.05
6729.00,1.05
6728.00,1.05
6727.00,1.05
6726.00,1.05
6725.00,1.05
6724.00,1.05
6723.00,1.06
6722.00,1.06
6721.00,1.06
6720.00,1.06
6719.00,1.06
6718.00,1.06
6717.00,1.06
6716.00,1.06
6715.00,1.07
6714.00,1.07
6713.00,1.07
6712.00,1.07
6711.00,1.07
6710.00,1.07
6709.00,1.07
6708.00,1.07
6707.00,1.08
6706.00,1.08
6705.00,1.08
6704.00,1.08
6703.00,1.08
6702.00,1.09
6701.00,1.09
6700.00,1.09
6699.00,1.09
6698.00,1.09
6697.00,1.10
6696.00,1.10
6695.00,1.10
6694.00,1.10
6693.00,1.10
6692.00,1.10
6691.00,1.10
6690.00,1.11
6689.00,1.11
6688.00,1.11
6687.00,1.11
6686.00,1.11
6685.00,1.11
6684.00,1.11
6683.00,1.11
6682.00,1.12
6681.00,1.12
6680.00,1.12
6679.00,1.12
6678.00,1.12
6677.00,1.12
6676.00,1.13
6675.00,1.13
6674.00,1.13
6673.00,1.13
6672.00,1.13
6671.00,1.13
6670.00,1.14
6669.00,1.14
6668.00,1.14
6667.00,1.14
6666.00,1.14
6665.00,1.15
6664.00,1.15
6663.00,1.15
6662.00,1.15
6661.00,1.15
6660.00,1.15
6659.00,1.16
6658.00,1.16
6657.00,1.16
6656.00,1.16
6655.00,1.17
6654.00,1.17
6653.00,1.17
6652.00,1.17
6651.00,1.18
6650.00,1.18
6649.00,1.18
6648.00,1.18
6647.00,1.19
6646.00,1.19
6645.00,1.19
6644.00,1.19
6643.00,1.20
6642.00,1.20
6641.00,1.20
6640.00,1.20
6639.00,1.20
6638.00,1.20
6637.00,1.21
6636.00,1.21
6635.00,1.21
6634.00,1.21
6633.00,1.21
6632.00,1.21
6631.00,1.21
6630.00,1.21
6629.00,1.21
6628.00,1.22
6627.00,1.22
6626.00,1.22
6625.00,1.22
6624.00,1.22
6623.00,1.22
6622.00,1.23
6621.00,1.23
6620.00,1.23
6619.00,1.23
6618.00,1.23
6617.00,1.24
6616.00,1.24
6615.00,1.24
6614.00,1.24
6613.00,1.25
6612.00,1.25
6611.00,1.25
6610.00,1.26
6609.00,1.26
6608.00,1.26
6607.00,1.26
6606.00,1.27
6605.00,1.27
6604.00,1.27
6603.00,1.27
6602.00,1.27
6601.00,1.28
6600.00,1.28
6599.00,1.28
6598.00,1.28
6597.00,1.28
6596.00,1.28
6595.00,1.28
6594.00,1.29
6593.00,1.29
6592.00,1.29
6591.00,1.29
6590.00,1.29
6589.00,1.29
6588.00,1.29
6587.00,1.29
6586.00,1.30
6585.00,1.30
6584.00,1.30
6583.00,1.30
6582.00,1.30
6581.00,1.30
6580.00,1.30
6579.00,1.31
6578.00,1.31
6577.00,1.31
6576.00,1.31
6575.00,1.31
6574.00,1.31
6573.00,1.32
6572.00,1.32
6571.00,1.32
6570.00,1.32
6569.00,1.33
6568.00,1.33
6567.00,1.33
6566.00,1.33
6565.00,1.34
6564.00,1.34
6563.00,1.34
6562.00,1.35
6561.00,1.35
6560.00,1.35
6559.00,1.35
6558.00,1.36
6557.00,1.36
6556.00,1.36
6555.00,1.36
6554.00,1.36
6553.00,1.36
6552.00,1.37
6551.00,1.37
6550.00,1.37
6549.00,1.37
6548.00,1.37
6547.00,1.37
6546.00,1.37
6545.00,1.38
6544.00,1.38
6543.00,1.38
6542.00,1.38
6541.00,1.38
6540.00,1.38
6539.00,1.39
6538.00,1.39
6537.00,1.39
6536.00,1.39
6535.00,1.39
6534.00,1.40
6533.00,1.40
6532.00,1.40
6531.00,1.40
6530.00,1.40
6529.00,1.40
6528.00,1.41
6527.00,1.41
6526.00,1.41
6525.00,1.41
6524.00,1.41
6523.00,1.41
6522.00,1.42
6521.00,1.42
6520.00,1.42
6519.00,1.42
6518.00,1.42
6517.00,1.42
6516.00,1.42
6515.00,1.42
6514.00,1.43
6513.00,1.43
6512.00,1.43
6511.00,1.43
6510.00,1.43
6509.00,1.43
6508.00,1.43
6507.00,1.43
6506.00,1.43
6505.00,1.43
6504.00,1.44
6503.00,1.44
6502.00,1.44
6501.00,1.44
6500.00,1.44
6499.00,1.44
6498.00,1.44
6497.00,1.44
6496.00,1.45
6495.00,1.45
6494.00,1.45
6493.00,1.45
6492.00,1.45
6491.00,1.45
6490.00,1.45
6489.00,1.46
6488.00,1.46
6487.00,1.46
6486.00,1.46
6485.00,1.46
6484.00,1.46
6483.00,1.47
6482.00,1.47
6481.00,1.47
6480.00,1.47
6479.00,1.47
6478.00,1.47
6477.00,1.48
6476.00,1.48
6475.00,1.48
6474.00,1.48
6473.00,1.48
6472.00,1.48
6471.00,1.49
6470.00,1.49
6469.00,1.49
6468.00,1.49
6467.00,1.49
6466.00,1.49
6465.00,1.49
6464.00,1.49
6463.00,1.49
6462.00,1.50
6461.00,1.50
6460.00,1.50
6459.00,1.50
6458.00,1.50
6457.00,1.50
6456.00,1.51
6455.00,1.51
6454.00,1.51
6453.00,1.51
6452.00,1.51
6451.00,1.52
6450.00,1.52
6449.00,1.52
6448.00,1.52
6447.00,1.52
6446.00,1.52
6445.00,1.53
6444.00,1.53
6443.00,1.53
6442.00,1.53
6441.00,1.53
6440.00,1.53
6439.00,1.53
6438.00,1.54
6437.00,1.54
6436.00,1.54
6435.00,1.54
6434.00,1.54
6433.00,1.54
6432.00,1.54
6431.00,1.54
6430.00,1.55
6429.00,1.55
6428.00,1.55
6427.00,1.55
6426.00,1.55
6425.00,1.55
6424.00,1.55
6423.00,1.55
6422.00,1.56
6421.00,1.56
6420.00,1.56
6419.00,1.56
6418.00,1.56
6417.00,1.56
6416.00,1.56
6415.00,1.57
6414.00,1.57
6413.00,1.57
6412.00,1.57
6411.00,1.57
6410.00,1.57
6409.00,1.57
6408.00,1.57
6407.00,1.58
6406.00,1.58
6405.00,1.58
6404.00,1.58
6403.00,1.58
6402.00,1.58
6401.00,1.59
6400.00,1.59
6399.00,1.59
6398.00,1.59
6397.00,1.59
6396.00,1.59
6395.00,1.60
6394.00,1.60
6393.00,1.60
6392.00,1.60
6391.00,1.60
6390.00,1.60
6389.00,1.61
6388.00,1.61
6387.00,1.61
6386.00,1.61
6385.00,1.61
6384.00,1.61
6383.00,1.62
6382.00,1.62
6381.00,1.62
6380.00,1.62
6379.00,1.62
6378.00,1.62
6377.00,1.62
6376.00,1.63
6375.00,1.63
6374.00,1.63
6373.00,1.63
6372.00,1.63
6371.00,1.63
6370.00,1.64
6369.00,1.64
6368.00,1.64
6367.00,1.64
6366.00,1.64
6365.00,1.64
6364.00,1.65
6363.00,1.65
6362.00,1.65
6361.00,1.65
6360.00,1.65
6359.00,1.65
6358.00,1.65
6357.00,1.65
6356.00,1.66
6355.00,1.66
6354.00,1.66
6353.00,1.66
6352.00,1.66
6351.00,1.66
6350.00,1.66
6349.00,1.67
6348.00,1.67
6347.00,1.67
6346.00,1.67
6345.00,1.67
6344.00,1.68
6343.00,1.68
6342.00,1.68
6341.00,1.68
6340.00,1.68
6339.00,1.69
6338.00,1.69
6337.00,1.69
6336.00,1.69
6335.00,1.70
6334.00,1.70
6333.00,1.70
6332.00,1.70
6331.00,1.70
6330.00,1.70
6329.00,1.71
6328.00,1.71
6327.00,1.71
6326.00,1.71
6325.00,1.71
6324.00,1.71
6323.00,1.72
6322.00,1.72
6321.00,1.72
6320.00,1.72
6319.00,1.72
6318.00,1.72
6317.00,1.73
6316.00,1.73
6315.00,1.73
6314.00,1.73
6313.00,1.74
6312.00,1.74
6311.00,1.74
6310.00,1.74
6309.00,1.75
6308.00,1.75
6307.00,1.75
6306.00,1.76
6305.00,1.76
6304.00,1.76
6303.00,1.76
6302.00,1.77
6301.00,1.77
6300.00,1.77
6299.00,1.77
6298.00,1.78
6297.00,1.78
6296.00,1.78
6295.00,1.78
6294.00,1.78
6293.00,1.79
6292.00,1.79
6291.00,1.79
6290.00,1.79
6289.00,1.79
6288.00,1.79
6287.00,1.80
6286.00,1.80
6285.00,1.80
6284.00,1.80
6283.00,1.80
6282.00,1.81
6281.00,1.81
6280.00,1.81
6279.00,1.81
6278.00,1.81
6277.00,1.82
6276.00,1.82
6275.00,1.82
6274.00,1.82
6273.00,1.83
6272.00,1.83
6271.00,1.83
6270.00,1.83
6269.00,1.84
6268.00,1.84
6267.00,1.84
6266.00,1.84
6265.00,1.85
6264.00,1.85
6263.00,1.85
6262.00,1.85
6261.00,1.85
6260.00,1.86
6259.00,1.86
6258.00,1.86
6257.00,1.86
6256.00,1.86
6255.00,1.87
6254.00,1.87
6253.00,1.87
6252.00,1.87
6251.00,1.87
6250.00,1.87
6249.00,1.88
6248.00,1.88
6247.00,1.88
6246.00,1.88
6245.00,1.88
6244.00,1.89
6243.00,1.89
6242.00,1.89
6241.00,1.89
6240.00,1.89
6239.00,1.90
6238.00,1.90
6237.00,1.90
6236.00,1.90
6235.00,1.91
6234.00,1.91
6233.00,1.91
6232.00,1.91
6231.00,1.92
6230.00,1.92
6229.00,1.92
6228.00,1.92
6227.00,1.93
6226.00,1.93
6225.00,1.93
6224.00,1.93
6223.00,1.93
6222.00,1.94
6221.00,1.94
6220.00,1.94
6219.00,1.94
6218.00,1.94
6217.00,1.94
6216.00,1.95
6215.00,1.95
6214.00,1.95
6213.00,1.95
6212.00,1.95
6211.00,1.95
6210.00,1.96
6209.00,1.96
6208.00,1.96
6207.00,1.96
6206.00,1.96
6205.00,1.97
6204.00,1.97
6203.00,1.97
6202.00,1.97
6201.00,1.97
6200.00,1.98
6199.00,1.98
6198.00,1.98
6197.00,1.98
6196.00,1.99
6195.00,1.99
6194.00,1.99
6193.00,1.99
6192.00,2.00
6191.00,2.00
6190.00,2.00
6189.00,2.00
6188.00,2.01
6187.00,2.01
6186.00,2.01
6185.00,2.02
6184.00,2.02
6183.00,2.02
6182.00,2.02
6181.00,2.03
6180.00,2.03
6179.00,2.03
6178.00,2.04
6177.00,2.04
6176.00,2.04
6175.00,2.05
6174.00,2.05
6173.00,2.05
6172.00,2.06
6171.00,2.06
6170.00,2.06
6169.00,2.06
6168.00,2.07
6167.00,2.07
6166.00,2.07
6165.00,2.07
6164.00,2.08
6163.00,2.08
6162.00,2.08
6161.00,2.08
6160.00,2.08
6159.00,2.09
6158.00,2.09
6157.00,2.09
6156.00,2.09
6155.00,2.10
6154.00,2.10
6153.00,2.10
6152.00,2.10
6151.00,2.11
6150.00,2.11
6149.00,2.11
6148.00,2.11
6147.00,2.12
6146.00,2.12
6145.00,2.12
6144.00,2.12
6143.00,2.13
6142.00,2.13
6141.00,2.13
6140.00,2.13
6139.00,2.14
6138.00,2.14
6137.00,2.14
6136.00,2.14
6135.00,2.15
6134.00,2.15
6133.00,2.15
6132.00,2.15
6131.00,2.16
6130.00,2.16
6129.00,2.16
6128.00,2.16
6127.00,2.16
6126.00,2.17
6125.00,2.17
6124.00,2.17
6123.00,2.17
6122.00,2.17
6121.00,2.18
6120.00,2.18
6119.00,2.18
6118.00,2.18
6117.00,2.18
6116.00,2.19
6115.00,2.19
6114.00,2.19
6113.00,2.19
6112.00,2.20
6111.00,2.20
6110.00,2.20
6109.00,2.20
6108.00,2.21
6107.00,2.21
6106.00,2.21
6105.00,2.22
6104.00,2.22
6103.00,2.22
6102.00,2.23
6101.00,2.23
6100.00,2.23
6099.00,2.23
6098.00,2.24
6097.00,2.24
6096.00,2.24
6095.00,2.24
6094.00,2.25
6093.00,2.25
6092.00,2.25
6091.00,2.25
6090.00,2.25
6089.00,2.26
6088.00,2.26
6087.00,2.26
6086.00,2.26
6085.00,2.26
6084.00,2.26
6083.00,2.26
6082.00,2.27
6081.00,2.27
6080.00,2.27
6079.00,2.27
6078.00,2.27
6077.00,2.27
6076.00,2.28
6075.00,2.28
6074.00,2.28
6073.00,2.28
6072.00,2.28
6071.00,2.29
6070.00,2.29
6069.00,2.29
6068.00,2.29
6067.00,2.29
6066.00,2.30
6065.00,2.30
6064.00,2.30
6063.00,2.30
6062.00,2.30
6061.00,2.31
6060.00,2.31
6059.00,2.31
6058.00,2.31
6057.00,2.31
6056.00,2.31
6055.00,2.32
6054.00,2.32
6053.00,2.32
6052.00,2.32
6051.00,2.32
6050.00,2.32
6049.00,2.32
6048.00,2.33
6047.00,2.33
6046.00,2.33
6045.00,2.33
6044.00,2.33
6043.00,2.33
6042.00,2.33
6041.00,2.33
6040.00,2.33
6039.00,2.33
6038.00,2.33
6037.00,2.33
6036.00,2.33
6035.00,2.33
6034.00,2.33
6033.00,2.34
6032.00,2.34
6031.00,2.34
6030.00,2.34
6029.00,2.34
6028.00,2.34
6027.00,2.34
6026.00,2.34
6025.00,2.34
6024.00,2.34
6023.00,2.34
6022.00,2.34
6021.00,2.34
6020.00,2.35
6019.00,2.35
6018.00,2.35
6017.00,2.35
6016.00,2.35
6015.00,2.35
6014.00,2.35
6013.00,2.35
6012.00,2.35
6011.00,2.35
6010.00,2.35
6009.00,2.35
6008.00,2.35
6007.00,2.35
6006.00,2.35
6005.00,2.35
6004.00,2.35
6003.00,2.35
6002.00,2.35
6001.00,2.34
6000.00,2.34
5999.00,2.34
5998.00,2.34
5997.00,2.34
5996.00,2.34
5995.00,2.34
5994.00,2.33
5993.00,2.33
5992.00,2.33
5991.00,2.33
5990.00,2.32
5989.00,2.32
5988.00,2.32
5987.00,2.31
5986.00,2.31
5985.00,2.31
5984.00,2.30
5983.00,2.30
5982.00,2.29
5981.00,2.29
5980.00,2.28
5979.00,2.27
5978.00,2.27
5977.00,2.26
5976.00,2.25
5975.00,2.25
5974.00,2.24
5973.00,2.23
5972.00,2.22
5971.00,2.21
5970.00,2.21
5969.00,2.20
5968.00,2.19
5967.00,2.18
5966.00,2.17
5965.00,2.16
5964.00,2.15
5963.00,2.14
5962.00,2.13
5961.00,2.12
5960.00,2.11
5959.00,2.10
5958.00,2.09
5957.00,2.08
5956.00,2.07
5955.00,2.06
5954.00,2.05
5953.00,2.04
5952.00,2.03
5951.00,2.02
5950.00,2.01
5949.00,2.01
5948.00,2.00
5947.00,1.99
5946.00,1.99
5945.00,1.98
5944.00,1.98
5943.00,1.97
5942.00,1.97
5941.00,1.96
5940.00,1.96
5939.00,1.96
5938.00,1.96
5937.00,1.95
5936.00,1.95
5935.00,1.95
5934.00,1.95
5933.00,1.95
5932.00,1.94
5931.00,1.94
5930.00,1.94
5929.00,1.94
5928.00,1.94
5927.00,1.93
5926.00,1.93
5925.00,1.93
5924.00,1.92
5923.00,1.92
5922.00,1.92
5921.00,1.91
5920.00,1.91
5919.00,1.90
5918.00,1.90
5917.00,1.89
5916.00,1.89
5915.00,1.89
5914.00,1.88
5913.00,1.88
5912.00,1.87
5911.00,1.87
5910.00,1.87
5909.00,1.86
5908.00,1.86
5907.00,1.86
5906.00,1.86
5905.00,1.86
5904.00,1.86
5903.00,1.86
5902.00,1.86
5901.00,1.86
5900.00,1.86
5899.00,1.86
5898.00,1.86
5897.00,1.87
5896.00,1.87
5895.00,1.87
5894.00,1.88
5893.00,1.88
5892.00,1.89
5891.00,1.89
5890.00,1.89
5889.00,1.90
5888.00,1.90
5887.00,1.91
5886.00,1.91
5885.00,1.92
5884.00,1.92
5883.00,1.93
5882.00,1.93
5881.00,1.94
5880.00,1.94
5879.00,1.94
5878.00,1.95
5877.00,1.95
5876.00,1.96
5875.00,1.96
5874.00,1.96
5873.00,1.97
5872.00,1.97
5871.00,1.98
5870.00,1.98
5869.00,1.98
5868.00,1.99
5867.00,1.99
5866.00,1.99
5865.00,2.00
5864.00,2.00
5863.00,2.00
5862.00,2.01
5861.00,2.01
5860.00,2.01
5859.00,2.01
5858.00,2.02
5857.00,2.02
5856.00,2.02
5855.00,2.02
5854.00,2.02
5853.00,2.02
5852.00,2.03
5851.00,2.03
5850.00,2.03
5849.00,2.03
5848.00,2.03
5847.00,2.03
5846.00,2.03
5845.00,2.03
5844.00,2.03
5843.00,2.03
5842.00,2.03
5841.00,2.03
5840.00,2.03
5839.00,2.03
5838.00,2.03
5837.00,2.03
5836.00,2.03
5835.00,2.03
5834.00,2.03
5833.00,2.03
5832.00,2.03
5831.00,2.03
5830.00,2.03
5829.00,2.03
5828.00,2.03
5827.00,2.03
5826.00,2.03
5825.00,2.03
5824.00,2.03
5823.00,2.03
5822.00,2.03
5821.00,2.03
5820.00,2.04
5819.00,2.04
5818.00,2.04
5817.00,2.04
5816.00,2.04
5815.00,2.04
5814.00,2.04
5813.00,2.04
5812.00,2.04
5811.00,2.04
5810.00,2.04
5809.00,2.04
5808.00,2.04
5807.00,2.04
5806.00,2.04
5805.00,2.03
5804.00,2.03
5803.00,2.03
5802.00,2.02
5801.00,2.02
5800.00,2.02
5799.00,2.01
5798.00,2.01
5797.00,2.00
5796.00,2.00
5795.00,2.00
5794.00,1.99
5793.00,1.99
5792.00,1.98
5791.00,1.98
5790.00,1.97
5789.00,1.97
5788.00,1.97
5787.00,1.96
5786.00,1.96
5785.00,1.96
5784.00,1.95
5783.00,1.95
5782.00,1.95
5781.00,1.94
5780.00,1.94
5779.00,1.94
5778.00,1.94
5777.00,1.94
5776.00,1.93
5775.00,1.93
5774.00,1.93
5773.00,1.93
5772.00,1.93
5771.00,1.94
5770.00,1.94
5769.00,1.94
5768.00,1.94
5767.00,1.94
5766.00,1.95
5765.00,1.95
5764.00,1.96
5763.00,1.96
5762.00,1.96
5761.00,1.97
5760.00,1.97
5759.00,1.98
5758.00,1.98
5757.00,1.99
5756.00,1.99
5755.00,2.00
5754.00,2.00
5753.00,2.01
5752.00,2.01
5751.00,2.02
5750.00,2.02
5749.00,2.03
5748.00,2.03
5747.00,2.04
5746.00,2.04
5745.00,2.05
5744.00,2.05
5743.00,2.06
5742.00,2.06
5741.00,2.06
5740.00,2.07
5739.00,2.07
5738.00,2.07
5737.00,2.08
5736.00,2.08
5735.00,2.08
5734.00,2.08
5733.00,2.09
5732.00,2.09
5731.00,2.09
5730.00,2.09
5729.00,2.09
5728.00,2.09
5727.00,2.09
5726.00,2.09
5725.00,2.09
5724.00,2.09
5723.00,2.09
5722.00,2.09
5721.00,2.09
5720.00,2.09
5719.00,2.09
5718.00,2.09
5717.00,2.09
5716.00,2.09
5715.00,2.09
5714.00,2.09
5713.00,2.09
5712.00,2.09
5711.00,2.09
5710.00,2.08
5709.00,2.08
5708.00,2.08
5707.00,2.08
5706.00,2.08
5705.00,2.08
5704.00,2.07
5703.00,2.07
5702.00,2.07
5701.00,2.07
5700.00,2.07
5699.00,2.06
5698.00,2.06
5697.00,2.06
5696.00,2.06
5695.00,2.06
5694.00,2.05
5693.00,2.05
5692.00,2.05
5691.00,2.05
5690.00,2.04
5689.00,2.04
5688.00,2.04
5687.00,2.04
5686.00,2.03
5685.00,2.03
5684.00,2.03
5683.00,2.03
5682.00,2.03
5681.00,2.03
5680.00,2.02
5679.00,2.02
5678.00,2.02
5677.00,2.02
5676.00,2.02
5675.00,2.02
5674.00,2.02
5673.00,2.02
5672.00,2.02
5671.00,2.02
5670.00,2.02
5669.00,2.02
5668.00,2.02
5667.00,2.02
5666.00,2.02
5665.00,2.02
5664.00,2.03
5663.00,2.03
5662.00,2.03
5661.00,2.03
5660.00,2.03
5659.00,2.04
5658.00,2.04
5657.00,2.04
5656.00,2.04
5655.00,2.05
5654.00,2.05
5653.00,2.05
5652.00,2.06
5651.00,2.06
5650.00,2.06
5649.00,2.07
5648.00,2.07
5647.00,2.07
5646.00,2.08
5645.00,2.08
5644.00,2.08
5643.00,2.08
5642.00,2.09
5641.00,2.09
5640.00,2.09
5639.00,2.09
5638.00,2.10
5637.00,2.10
5636.00,2.10
5635.00,2.11
5634.00,2.11
5633.00,2.11
5632.00,2.11
5631.00,2.12
5630.00,2.12
5629.00,2.12
5628.00,2.12
5627.00,2.12
5626.00,2.13
5625.00,2.13
5624.00,2.13
5623.00,2.13
5622.00,2.13
5621.00,2.14
5620.00,2.14
5619.00,2.14
5618.00,2.14
5617.00,2.14
5616.00,2.14
5615.00,2.15
5614.00,2.15
5613.00,2.15
5612.00,2.15
5611.00,2.16
5610.00,2.16
5609.00,2.16
5608.00,2.16
5607.00,2.17
5606.00,2.17
5605.00,2.17
5604.00,2.18
5603.00,2.18
5602.00,2.18
5601.00,2.19
5600.00,2.19
5599.00,2.19
5598.00,2.19
5597.00,2.20
5596.00,2.20
5595.00,2.20
5594.00,2.20
5593.00,2.21
5592.00,2.21
5591.00,2.21
5590.00,2.21
5589.00,2.22
5588.00,2.22
5587.00,2.22
5586.00,2.22
5585.00,2.23
5584.00,2.23
5583.00,2.23
5582.00,2.23
5581.00,2.24
5580.00,2.24
5579.00,2.24
5578.00,2.24
5577.00,2.24
5576.00,2.25
5575.00,2.25
5574.00,2.25
5573.00,2.25
5572.00,2.26
5571.00,2.26
5570.00,2.26
5569.00,2.26
5568.00,2.27
5567.00,2.27
5566.00,2.27
5565.00,2.27
5564.00,2.28
5563.00,2.28
5562.00,2.28
5561.00,2.28
5560.00,2.29
5559.00,2.29
5558.00,2.29
5557.00,2.29
5556.00,2.29
5555.00,2.29
5554.00,2.30
5553.00,2.30
5552.00,2.30
5551.00,2.30
5550.00,2.30
5549.00,2.31
5548.00,2.31
5547.00,2.31
5546.00,2.31
5545.00,2.31
5544.00,2.31
5543.00,2.32
5542.00,2.32
5541.00,2.32
5540.00,2.32
5539.00,2.32
5538.00,2.32
5537.00,2.33
5536.00,2.33
5535.00,2.33
5534.00,2.33
5533.00,2.33
5532.00,2.33
5531.00,2.34
5530.00,2.34
5529.00,2.34
5528.00,2.34
5527.00,2.35
5526.00,2.35
5525.00,2.35
5524.00,2.35
5523.00,2.35
5522.00,2.36
5521.00,2.36
5520.00,2.36
5519.00,2.36
5518.00,2.36
5517.00,2.36
5516.00,2.37
5515.00,2.37
5514.00,2.37
5513.00,2.37
5512.00,2.37
5511.00,2.37
5510.00,2.37
5509.00,2.37
5508.00,2.37
5507.00,2.38
5506.00,2.38
5505.00,2.38
5504.00,2.38
5503.00,2.38
5502.00,2.38
5501.00,2.38
5500.00,2.38
5499.00,2.38
5498.00,2.39
5497.00,2.39
5496.00,2.39
5495.00,2.39
5494.00,2.39
5493.00,2.39
5492.00,2.40
5491.00,2.40
5490.00,2.40
5489.00,2.40
5488.00,2.40
5487.00,2.41
5486.00,2.41
5485.00,2.41
5484.00,2.41
5483.00,2.41
5482.00,2.42
5481.00,2.42
5480.00,2.42
5479.00,2.42
5478.00,2.42
5477.00,2.43
5476.00,2.43
5475.00,2.43
5474.00,2.43
5473.00,2.43
5472.00,2.43
5471.00,2.43
5470.00,2.44
5469.00,2.44
5468.00,2.44
5467.00,2.44
5466.00,2.44
5465.00,2.44
5464.00,2.44
5463.00,2.44
5462.00,2.45
5461.00,2.45
5460.00,2.45
5459.00,2.45
5458.00,2.45
5457.00,2.45
5456.00,2.45
5455.00,2.45
5454.00,2.45
5453.00,2.45
5452.00,2.45
5451.00,2.45
5450.00,2.45
5449.00,2.45
5448.00,2.45
5447.00,2.45
5446.00,2.45
5445.00,2.45
5444.00,2.45
5443.00,2.45
5442.00,2.45
5441.00,2.45
5440.00,2.45
5439.00,2.45
5438.00,2.45
5437.00,2.45
5436.00,2.45
5435.00,2.45
5434.00,2.45
5433.00,2.45
5432.00,2.45
5431.00,2.45
5430.00,2.45
5429.00,2.45
5428.00,2.45
5427.00,2.45
5426.00,2.45
5425.00,2.45
5424.00,2.45
5423.00,2.45
5422.00,2.45
5421.00,2.45
5420.00,2.45
5419.00,2.45
5418.00,2.45
5417.00,2.45
5416.00,2.45
5415.00,2.45
5414.00,2.45
5413.00,2.45
5412.00,2.45
5411.00,2.45
5410.00,2.45
5409.00,2.45
5408.00,2.45
5407.00,2.45
5406.00,2.45
5405.00,2.45
5404.00,2.44
5403.00,2.44
5402.00,2.44
5401.00,2.44
5400.00,2.44
5399.00,2.44
5398.00,2.43
5397.00,2.43
5396.00,2.43
5395.00,2.43
5394.00,2.42
5393.00,2.42
5392.00,2.41
5391.00,2.41
5390.00,2.41
5389.00,2.40
5388.00,2.40
5387.00,2.39
5386.00,2.39
5385.00,2.38
5384.00,2.38
5383.00,2.37
5382.00,2.36
5381.00,2.36
5380.00,2.35
5379.00,2.34
5378.00,2.34
5377.00,2.33
5376.00,2.32
5375.00,2.31
5374.00,2.30
5373.00,2.29
5372.00,2.29
5371.00,2.28
5370.00,2.27
5369.00,2.26
5368.00,2.25
5367.00,2.23
5366.00,2.22
5365.00,2.21
5364.00,2.20
5363.00,2.19
5362.00,2.17
5361.00,2.16
5360.00,2.15
5359.00,2.13
5358.00,2.12
5357.00,2.10
5356.00,2.09
5355.00,2.07
5354.00,2.05
5353.00,2.04
5352.00,2.02
5351.00,2.00
5350.00,1.99
5349.00,1.97
5348.00,1.95
5347.00,1.93
5346.00,1.91
5345.00,1.90
5344.00,1.88
5343.00,1.86
5342.00,1.84
5341.00,1.83
5340.00,1.81
5339.00,1.79
5338.00,1.77
5337.00,1.76
5336.00,1.74
5335.00,1.72
5334.00,1.70
5333.00,1.68
5332.00,1.67
5331.00,1.65
5330.00,1.63
5329.00,1.61
5328.00,1.59
5327.00,1.58
5326.00,1.56
5325.00,1.54
5324.00,1.52
5323.00,1.51
5322.00,1.49
5321.00,1.47
5320.00,1.46
5319.00,1.44
5318.00,1.42
5317.00,1.41
5316.00,1.39
5315.00,1.38
5314.00,1.36
5313.00,1.35
5312.00,1.33
5311.00,1.32
5310.00,1.31
5309.00,1.29
5308.00,1.28
5307.00,1.27
5306.00,1.26
5305.00,1.25
5304.00,1.24
5303.00,1.23
5302.00,1.22
5301.00,1.21
5300.00,1.20
5299.00,1.20
5298.00,1.19
5297.00,1.18
5296.00,1.18
5295.00,1.17
5294.00,1.16
5293.00,1.16
5292.00,1.15
5291.00,1.15
5290.00,1.15
5289.00,1.14
5288.00,1.14
5287.00,1.13
5286.00,1.13
5285.00,1.13
5284.00,1.12
5283.00,1.12
5282.00,1.12
5281.00,1.11
5280.00,1.11
5279.00,1.11
5278.00,1.11
5277.00,1.11
5276.00,1.10
5275.00,1.10
5274.00,1.10
5273.00,1.10
5272.00,1.10
5271.00,1.10
5270.00,1.10
5269.00,1.10
5268.00,1.10
5267.00,1.10
5266.00,1.09
5265.00,1.09
5264.00,1.09
5263.00,1.09
5262.00,1.09
5261.00,1.09
5260.00,1.09
5259.00,1.09
5258.00,1.09
5257.00,1.09
5256.00,1.09
5255.00,1.09
5254.00,1.09
5253.00,1.09
5252.00,1.09
5251.00,1.09
5250.00,1.09
5249.00,1.09
5248.00,1.09
5247.00,1.09
5246.00,1.09
5245.00,1.09
5244.00,1.09
5243.00,1.09
5242.00,1.09
5241.00,1.09
5240.00,1.09
5239.00,1.10
5238.00,1.10
5237.00,1.10
5236.00,1.10
5235.00,1.10
5234.00,1.10
5233.00,1.10
5232.00,1.10
5231.00,1.10
5230.00,1.10
5229.00,1.11
5228.00,1.11
5227.00,1.11
5226.00,1.11
5225.00,1.11
5224.00,1.11
5223.00,1.11
5222.00,1.11
5221.00,1.11
5220.00,1.11
5219.00,1.11
5218.00,1.11
5217.00,1.11
5216.00,1.11
5215.00,1.11
5214.00,1.12
5213.00,1.12
5212.00,1.12
5211.00,1.12
5210.00,1.12
5209.00,1.12
5208.00,1.12
5207.00,1.12
5206.00,1.12
5205.00,1.12
5204.00,1.12
5203.00,1.12
5202.00,1.12
5201.00,1.12
5200.00,1.12
5199.00,1.12
5198.00,1.12
5197.00,1.12
5196.00,1.12
5195.00,1.13
5194.00,1.13
5193.00,1.13
5192.00,1.13
5191.00,1.13
5190.00,1.13
5189.00,1.13
5188.00,1.13
5187.00,1.13
5186.00,1.13
5185.00,1.13
5184.00,1.13
5183.00,1.14
5182.00,1.14
5181.00,1.14
5180.00,1.14
5179.00,1.14
5178.00,1.14
5177.00,1.14
5176.00,1.14
5175.00,1.14
5174.00,1.14
5173.00,1.14
5172.00,1.14
5171.00,1.14
5170.00,1.14
5169.00,1.14
5168.00,1.14
5167.00,1.14
5166.00,1.14
5165.00,1.15
5164.00,1.15
5163.00,1.15
5162.00,1.15
5161.00,1.15
5160.00,1.15
5159.00,1.15
5158.00,1.15
5157.00,1.15
5156.00,1.15
5155.00,1.15
5154.00,1.15
5153.00,1.15
5152.00,1.16
5151.00,1.16
5150.00,1.16
5149.00,1.16
5148.00,1.16
5147.00,1.16
5146.00,1.16
5145.00,1.16
5144.00,1.16
5143.00,1.16
5142.00,1.16
5141.00,1.16
5140.00,1.16
5139.00,1.17
5138.00,1.17
5137.00,1.17
5136.00,1.17
5135.00,1.17
5134.00,1.17
5133.00,1.17
5132.00,1.17
5131.00,1.17
5130.00,1.17
5129.00,1.17
5128.00,1.17
5127.00,1.18
5126.00,1.18
5125.00,1.18
5124.00,1.18
5123.00,1.18
5122.00,1.18
5121.00,1.18
5120.00,1.18
5119.00,1.19
5118.00,1.19
5117.00,1.19
5116.00,1.19
5115.00,1.19
5114.00,1.19
5113.00,1.19
5112.00,1.19
5111.00,1.20
5110.00,1.20
5109.00,1.20
5108.00,1.20
5107.00,1.20
5106.00,1.20
5105.00,1.20
5104.00,1.21
5103.00,1.21
5102.00,1.21
5101.00,1.21
5100.00,1.21
5099.00,1.21
5098.00,1.21
5097.00,1.21
5096.00,1.21
5095.00,1.21
5094.00,1.21
5093.00,1.21
5092.00,1.22
5091.00,1.22
5090.00,1.22
5089.00,1.22
5088.00,1.22
5087.00,1.22
5086.00,1.22
5085.00,1.22
5084.00,1.22
5083.00,1.22
5082.00,1.22
5081.00,1.22
5080.00,1.22
5079.00,1.22
5078.00,1.23
5077.00,1.23
5076.00,1.23
5075.00,1.23
5074.00,1.23
5073.00,1.23
5072.00,1.23
5071.00,1.23
5070.00,1.24
5069.00,1.24
5068.00,1.24
5067.00,1.24
5066.00,1.24
5065.00,1.24
5064.00,1.24
5063.00,1.25
5062.00,1.25
5061.00,1.25
5060.00,1.25
5059.00,1.25
5058.00,1.25
5057.00,1.25
5056.00,1.25
5055.00,1.25
5054.00,1.26
5053.00,1.26
5052.00,1.26
5051.00,1.26
5050.00,1.26
5049.00,1.26
5048.00,1.26
5047.00,1.26
5046.00,1.26
5045.00,1.26
5044.00,1.26
5043.00,1.26
5042.00,1.27
5041.00,1.27
5040.00,1.27
5039.00,1.27
5038.00,1.27
5037.00,1.27
5036.00,1.27
5035.00,1.27
5034.00,1.28
5033.00,1.28
5032.00,1.28
5031.00,1.28
5030.00,1.28
5029.00,1.28
5028.00,1.29
5027.00,1.29
5026.00,1.29
5025.00,1.29
5024.00,1.29
5023.00,1.29
5022.00,1.29
5021.00,1.29
5020.00,1.30
5019.00,1.30
5018.00,1.30
5017.00,1.30
5016.00,1.30
5015.00,1.30
5014.00,1.30
5013.00,1.30
5012.00,1.30
5011.00,1.30
5010.00,1.30
5009.00,1.30
5008.00,1.31
5007.00,1.31
5006.00,1.31
5005.00,1.31
5004.00,1.31
5003.00,1.31
5002.00,1.31
5001.00,1.32
5000.00,1.32
4999.00,1.32
4998.00,1.32
4997.00,1.32
4996.00,1.32
4995.00,1.33
4994.00,1.33
4993.00,1.33
4992.00,1.33
4991.00,1.33
4990.00,1.33
4989.00,1.33
4988.00,1.34
4987.00,1.34
4986.00,1.34
4985.00,1.34
4984.00,1.34
4983.00,1.35
4982.00,1.35
4981.00,1.35
4980.00,1.35
4979.00,1.35
4978.00,1.35
4977.00,1.36
4976.00,1.36
4975.00,1.36
4974.00,1.36
4973.00,1.36
4972.00,1.36
4971.00,1.37
4970.00,1.37
4969.00,1.37
4968.00,1.37
4967.00,1.37
4966.00,1.37
4965.00,1.38
4964.00,1.38
4963.00,1.38
4962.00,1.38
4961.00,1.38
4960.00,1.38
4959.00,1.38
4958.00,1.39
4957.00,1.39
4956.00,1.39
4955.00,1.39
4954.00,1.39
4953.00,1.39
4952.00,1.40
4951.00,1.40
4950.00,1.40
4949.00,1.40
4948.00,1.40
4947.00,1.41
4946.00,1.41
4945.00,1.41
4944.00,1.41
4943.00,1.41
4942.00,1.41
4941.00,1.42
4940.00,1.42
4939.00,1.42
4938.00,1.42
4937.00,1.42
4936.00,1.42
4935.00,1.42
4934.00,1.42
4933.00,1.42
4932.00,1.43
4931.00,1.43
4930.00,1.43
4929.00,1.43
4928.00,1.43
4927.00,1.43
4926.00,1.44
4925.00,1.44
4924.00,1.44
4923.00,1.44
4922.00,1.44
4921.00,1.45
4920.00,1.45
4919.00,1.45
4918.00,1.45
4917.00,1.45
4916.00,1.45
4915.00,1.45
4914.00,1.46
4913.00,1.46
4912.00,1.46
4911.00,1.46
4910.00,1.46
4909.00,1.46
4908.00,1.46
4907.00,1.46
4906.00,1.46
4905.00,1.46
4904.00,1.46
4903.00,1.46
4902.00,1.46
4901.00,1.47
4900.00,1.47
4899.00,1.47
4898.00,1.47
4897.00,1.47
4896.00,1.47
4895.00,1.47
4894.00,1.47
4893.00,1.47
4892.00,1.47
4891.00,1.48
4890.00,1.48
4889.00,1.48
4888.00,1.48
4887.00,1.48
4886.00,1.48
4885.00,1.48
4884.00,1.48
4883.00,1.49
4882.00,1.49
4881.00,1.49
4880.00,1.49
4879.00,1.49
4878.00,1.50
4877.00,1.50
4876.00,1.50
4875.00,1.50
4874.00,1.51
4873.00,1.51
4872.00,1.51
4871.00,1.51
4870.00,1.51
4869.00,1.52
4868.00,1.52
4867.00,1.52
4866.00,1.52
4865.00,1.52
4864.00,1.52
4863.00,1.53
4862.00,1.53
4861.00,1.53
4860.00,1.53
4859.00,1.53
4858.00,1.53
4857.00,1.54
4856.00,1.54
4855.00,1.54
4854.00,1.54
4853.00,1.54
4852.00,1.54
4851.00,1.54
4850.00,1.55
4849.00,1.55
4848.00,1.55
4847.00,1.55
4846.00,1.55
4845.00,1.55
4844.00,1.55
4843.00,1.55
4842.00,1.55
4841.00,1.56
4840.00,1.56
4839.00,1.56
4838.00,1.56
4837.00,1.56
4836.00,1.56
4835.00,1.57
4834.00,1.57
4833.00,1.57
4832.00,1.57
4831.00,1.57
4830.00,1.57
4829.00,1.58
4828.00,1.58
4827.00,1.58
4826.00,1.58
4825.00,1.58
4824.00,1.59
4823.00,1.59
4822.00,1.59
4821.00,1.59
4820.00,1.59
4819.00,1.59
4818.00,1.60
4817.00,1.60
4816.00,1.60
4815.00,1.60
4814.00,1.60
4813.00,1.60
4812.00,1.61
4811.00,1.61
4810.00,1.61
4809.00,1.61
4808.00,1.61
4807.00,1.62
4806.00,1.62
4805.00,1.62
4804.00,1.62
4803.00,1.63
4802.00,1.63
4801.00,1.63
4800.00,1.63
4799.00,1.64
4798.00,1.64
4797.00,1.64
4796.00,1.64
4795.00,1.65
4794.00,1.65
4793.00,1.65
4792.00,1.66
4791.00,1.66
4790.00,1.66
4789.00,1.67
4788.00,1.67
4787.00,1.67
4786.00,1.67
4785.00,1.68
4784.00,1.68
4783.00,1.68
4782.00,1.68
4781.00,1.68
4780.00,1.69
4779.00,1.69
4778.00,1.69
4777.00,1.69
4776.00,1.69
4775.00,1.69
4774.00,1.70
4773.00,1.70
4772.00,1.70
4771.00,1.70
4770.00,1.70
4769.00,1.70
4768.00,1.70
4767.00,1.71
4766.00,1.71
4765.00,1.71
4764.00,1.71
4763.00,1.72
4762.00,1.72
4761.00,1.72
4760.00,1.73
4759.00,1.73
4758.00,1.73
4757.00,1.74
4756.00,1.74
4755.00,1.74
4754.00,1.75
4753.00,1.75
4752.00,1.76
4751.00,1.76
4750.00,1.76
4749.00,1.77
4748.00,1.77
4747.00,1.78
4746.00,1.78
4745.00,1.79
4744.00,1.79
4743.00,1.80
4742.00,1.80
4741.00,1.80
4740.00,1.81
4739.00,1.81
4738.00,1.81
4737.00,1.82
4736.00,1.82
4735.00,1.82
4734.00,1.82
4733.00,1.83
4732.00,1.83
4731.00,1.83
4730.00,1.83
4729.00,1.84
4728.00,1.84
4727.00,1.84
4726.00,1.85
4725.00,1.85
4724.00,1.85
4723.00,1.86
4722.00,1.86
4721.00,1.86
4720.00,1.87
4719.00,1.87
4718.00,1.87
4717.00,1.88
4716.00,1.88
4715.00,1.88
4714.00,1.89
4713.00,1.89
4712.00,1.89
4711.00,1.90
4710.00,1.90
4709.00,1.90
4708.00,1.91
4707.00,1.91
4706.00,1.91
4705.00,1.92
4704.00,1.92
4703.00,1.92
4702.00,1.92
4701.00,1.93
4700.00,1.93
4699.00,1.94
4698.00,1.94
4697.00,1.94
4696.00,1.95
4695.00,1.95
4694.00,1.95
4693.00,1.96
4692.00,1.96
4691.00,1.97
4690.00,1.97
4689.00,1.97
4688.00,1.98
4687.00,1.98
4686.00,1.99
4685.00,1.99
4684.00,1.99
4683.00,2.00
4682.00,2.00
4681.00,2.00
4680.00,2.01
4679.00,2.01
4678.00,2.01
4677.00,2.02
4676.00,2.02
4675.00,2.02
4674.00,2.03
4673.00,2.03
4672.00,2.03
4671.00,2.04
4670.00,2.04
4669.00,2.04
4668.00,2.04
4667.00,2.05
4666.00,2.05
4665.00,2.05
4664.00,2.05
4663.00,2.06
4662.00,2.06
4661.00,2.06
4660.00,2.06
4659.00,2.07
4658.00,2.07
4657.00,2.07
4656.00,2.08
4655.00,2.08
4654.00,2.09
4653.00,2.09
4652.00,2.09
4651.00,2.10
4650.00,2.10
4649.00,2.11
4648.00,2.11
4647.00,2.11
4646.00,2.12
4645.00,2.12
4644.00,2.13
4643.00,2.13
4642.00,2.13
4641.00,2.13
4640.00,2.14
4639.00,2.14
4638.00,2.14
4637.00,2.14
4636.00,2.14
4635.00,2.15
4634.00,2.15
4633.00,2.15
4632.00,2.15
4631.00,2.15
4630.00,2.15
4629.00,2.15
4628.00,2.15
4627.00,2.16
4626.00,2.16
4625.00,2.16
4624.00,2.16
4623.00,2.16
4622.00,2.16
4621.00,2.16
4620.00,2.17
4619.00,2.17
4618.00,2.17
4617.00,2.17
4616.00,2.17
4615.00,2.17
4614.00,2.17
4613.00,2.17
4612.00,2.17
4611.00,2.17
4610.00,2.17
4609.00,2.18
4608.00,2.18
4607.00,2.18
4606.00,2.18
4605.00,2.18
4604.00,2.19
4603.00,2.19
4602.00,2.19
4601.00,2.19
4600.00,2.20
4599.00,2.20
4598.00,2.20
4597.00,2.21
4596.00,2.21
4595.00,2.21
4594.00,2.22
4593.00,2.22
4592.00,2.22
4591.00,2.22
4590.00,2.23
4589.00,2.23
4588.00,2.23
4587.00,2.23
4586.00,2.23
4585.00,2.24
4584.00,2.24
4583.00,2.24
4582.00,2.24
4581.00,2.24
4580.00,2.24
4579.00,2.25
4578.00,2.25
4577.00,2.25
4576.00,2.25
4575.00,2.25
4574.00,2.25
4573.00,2.26
4572.00,2.26
4571.00,2.26
4570.00,2.26
4569.00,2.26
4568.00,2.27
4567.00,2.27
4566.00,2.27
4565.00,2.27
4564.00,2.27
4563.00,2.28
4562.00,2.28
4561.00,2.28
4560.00,2.28
4559.00,2.28
4558.00,2.29
4557.00,2.29
4556.00,2.29
4555.00,2.29
4554.00,2.29
4553.00,2.29
4552.00,2.29
4551.00,2.30
4550.00,2.30
4549.00,2.30
4548.00,2.30
4547.00,2.30
4546.00,2.30
4545.00,2.30
4544.00,2.30
4543.00,2.31
4542.00,2.31
4541.00,2.31
4540.00,2.31
4539.00,2.31
4538.00,2.31
4537.00,2.31
4536.00,2.32
4535.00,2.32
4534.00,2.32
4533.00,2.32
4532.00,2.32
4531.00,2.32
4530.00,2.32
4529.00,2.32
4528.00,2.32
4527.00,2.32
4526.00,2.32
4525.00,2.32
4524.00,2.32
4523.00,2.33
4522.00,2.33
4521.00,2.33
4520.00,2.33
4519.00,2.33
4518.00,2.33
4517.00,2.33
4516.00,2.33
4515.00,2.34
4514.00,2.34
4513.00,2.34
4512.00,2.34
4511.00,2.34
4510.00,2.34
4509.00,2.34
4508.00,2.34
4507.00,2.34
4506.00,2.34
4505.00,2.35
4504.00,2.35
4503.00,2.34
4502.00,2.34
4501.00,2.34
4500.00,2.34
4499.00,2.34
4498.00,2.34
4497.00,2.34
4496.00,2.34
4495.00,2.34
4494.00,2.34
4493.00,2.33
4492.00,2.33
4491.00,2.33
4490.00,2.33
4489.00,2.33
4488.00,2.33
4487.00,2.32
4486.00,2.32
4485.00,2.32
4484.00,2.32
4483.00,2.31
4482.00,2.31
4481.00,2.31
4480.00,2.31
4479.00,2.30
4478.00,2.30
4477.00,2.30
4476.00,2.30
4475.00,2.29
4474.00,2.29
4473.00,2.29
4472.00,2.29
4471.00,2.28
4470.00,2.28
4469.00,2.27
4468.00,2.27
4467.00,2.26
4466.00,2.26
4465.00,2.25
4464.00,2.25
4463.00,2.24
4462.00,2.24
4461.00,2.23
4460.00,2.22
4459.00,2.22
4458.00,2.21
4457.00,2.20
4456.00,2.19
4455.00,2.19
4454.00,2.18
4453.00,2.17
4452.00,2.16
4451.00,2.16
4450.00,2.15
4449.00,2.14
4448.00,2.13
4447.00,2.12
4446.00,2.11
4445.00,2.10
4444.00,2.09
4443.00,2.08
4442.00,2.07
4441.00,2.06
4440.00,2.05
4439.00,2.04
4438.00,2.03
4437.00,2.02
4436.00,2.01
4435.00,2.00
4434.00,1.99
4433.00,1.98
4432.00,1.97
4431.00,1.97
4430.00,1.96
4429.00,1.95
4428.00,1.95
4427.00,1.94
4426.00,1.94
4425.00,1.93
4424.00,1.93
4423.00,1.92
4422.00,1.92
4421.00,1.92
4420.00,1.92
4419.00,1.91
4418.00,1.91
4417.00,1.91
4416.00,1.91
4415.00,1.91
4414.00,1.91
4413.00,1.91
4412.00,1.91
4411.00,1.91
4410.00,1.91
4409.00,1.91
4408.00,1.91
4407.00,1.91
4406.00,1.91
4405.00,1.91
4404.00,1.91
4403.00,1.91
4402.00,1.91
4401.00,1.92
4400.00,1.92
4399.00,1.92
4398.00,1.92
4397.00,1.93
4396.00,1.93
4395.00,1.93
4394.00,1.93
4393.00,1.94
4392.00,1.94
4391.00,1.94
4390.00,1.95
4389.00,1.95
4388.00,1.96
4387.00,1.96
4386.00,1.96
4385.00,1.97
4384.00,1.97
4383.00,1.98
4382.00,1.98
4381.00,1.98
4380.00,1.99
4379.00,1.99
4378.00,1.99
4377.00,1.99
4376.00,2.00
4375.00,2.00
4374.00,2.00
4373.00,2.00
4372.00,2.00
4371.00,2.00
4370.00,2.00
4369.00,2.00
4368.00,2.00
4367.00,2.00
4366.00,2.00
4365.00,2.00
4364.00,2.00
4363.00,2.00
4362.00,2.00
4361.00,2.00
4360.00,2.00
4359.00,2.00
4358.00,2.00
4357.00,2.00
4356.00,2.00
4355.00,2.00
4354.00,2.00
4353.00,2.00
4352.00,1.99
4351.00,1.99
4350.00,1.99
4349.00,1.99
4348.00,1.99
4347.00,1.99
4346.00,1.99
4345.00,1.99
4344.00,1.99
4343.00,1.99
4342.00,1.99
4341.00,1.99
4340.00,1.99
4339.00,1.99
4338.00,1.99
4337.00,2.00
4336.00,2.00
4335.00,2.00
4334.00,2.01
4333.00,2.01
4332.00,2.01
4331.00,2.02
4330.00,2.02
4329.00,2.02
4328.00,2.03
4327.00,2.03
4326.00,2.03
4325.00,2.04
4324.00,2.04
4323.00,2.05
4322.00,2.05
4321.00,2.05
4320.00,2.06
4319.00,2.06
4318.00,2.06
4317.00,2.07
4316.00,2.07
4315.00,2.08
4314.00,2.08
4313.00,2.08
4312.00,2.09
4311.00,2.09
4310.00,2.09
4309.00,2.10
4308.00,2.10
4307.00,2.10
4306.00,2.11
4305.00,2.11
4304.00,2.11
4303.00,2.12
4302.00,2.12
4301.00,2.12
4300.00,2.12
4299.00,2.13
4298.00,2.13
4297.00,2.13
4296.00,2.14
4295.00,2.14
4294.00,2.14
4293.00,2.14
4292.00,2.15
4291.00,2.15
4290.00,2.15
4289.00,2.15
4288.00,2.16
4287.00,2.16
4286.00,2.16
4285.00,2.16
4284.00,2.16
4283.00,2.17
4282.00,2.17
4281.00,2.17
4280.00,2.17
4279.00,2.17
4278.00,2.17
4277.00,2.17
4276.00,2.17
4275.00,2.17
4274.00,2.17
4273.00,2.17
4272.00,2.17
4271.00,2.17
4270.00,2.17
4269.00,2.17
4268.00,2.17
4267.00,2.17
4266.00,2.16
4265.00,2.16
4264.00,2.16
4263.00,2.16
4262.00,2.16
4261.00,2.16
4260.00,2.16
4259.00,2.16
4258.00,2.16
4257.00,2.16
4256.00,2.16
4255.00,2.16
4254.00,2.16
4253.00,2.16
4252.00,2.16
4251.00,2.16
4250.00,2.17
4249.00,2.17
4248.00,2.17
4247.00,2.18
4246.00,2.18
4245.00,2.18
4244.00,2.19
4243.00,2.19
4242.00,2.19
4241.00,2.20
4240.00,2.20
4239.00,2.20
4238.00,2.20
4237.00,2.20
4236.00,2.21
4235.00,2.21
4234.00,2.21
4233.00,2.21
4232.00,2.21
4231.00,2.21
4230.00,2.22
4229.00,2.22
4228.00,2.22
4227.00,2.22
4226.00,2.22
4225.00,2.22
4224.00,2.22
4223.00,2.22
4222.00,2.22
4221.00,2.22
4220.00,2.22
4219.00,2.23
4218.00,2.23
4217.00,2.23
4216.00,2.23
4215.00,2.23
4214.00,2.23
4213.00,2.23
4212.00,2.23
4211.00,2.23
4210.00,2.23
4209.00,2.23
4208.00,2.23
4207.00,2.23
4206.00,2.23
4205.00,2.23
4204.00,2.23
4203.00,2.23
4202.00,2.23
4201.00,2.23
4200.00,2.23
4199.00,2.23
4198.00,2.23
4197.00,2.23
4196.00,2.23
4195.00,2.23
4194.00,2.23
4193.00,2.23
4192.00,2.23
4191.00,2.23
4190.00,2.23
4189.00,2.23
4188.00,2.24
4187.00,2.24
4186.00,2.24
4185.00,2.24
4184.00,2.24
4183.00,2.24
4182.00,2.25
4181.00,2.25
4180.00,2.25
4179.00,2.25
4178.00,2.25
4177.00,2.25
4176.00,2.25
4175.00,2.25
4174.00,2.25
4173.00,2.25
4172.00,2.25
4171.00,2.25
4170.00,2.25
4169.00,2.25
4168.00,2.25
4167.00,2.25
4166.00,2.25
4165.00,2.25
4164.00,2.25
4163.00,2.25
4162.00,2.25
4161.00,2.25
4160.00,2.25
4159.00,2.25
4158.00,2.25
4157.00,2.25
4156.00,2.25
4155.00,2.26
4154.00,2.26
4153.00,2.26
4152.00,2.26
4151.00,2.26
4150.00,2.26
4149.00,2.26
4148.00,2.26
4147.00,2.27
4146.00,2.27
4145.00,2.27
4144.00,2.27
4143.00,2.27
4142.00,2.27
4141.00,2.28
4140.00,2.28
4139.00,2.28
4138.00,2.28
4137.00,2.28
4136.00,2.28
4135.00,2.29
4134.00,2.29
4133.00,2.29
4132.00,2.29
4131.00,2.29
4130.00,2.29
4129.00,2.29
4128.00,2.29
4127.00,2.29
4126.00,2.29
4125.00,2.29
4124.00,2.29
4123.00,2.28
4122.00,2.28
4121.00,2.28
4120.00,2.28
4119.00,2.28
4118.00,2.28
4117.00,2.28
4116.00,2.28
4115.00,2.28
4114.00,2.28
4113.00,2.29
4112.00,2.29
4111.00,2.29
4110.00,2.29
4109.00,2.29
4108.00,2.29
4107.00,2.29
4106.00,2.30
4105.00,2.30
4104.00,2.30
4103.00,2.30
4102.00,2.30
4101.00,2.30
4100.00,2.30
4099.00,2.30
4098.00,2.30
4097.00,2.30
4096.00,2.30
4095.00,2.30
4094.00,2.30
4093.00,2.30
4092.00,2.30
4091.00,2.30
4090.00,2.30
4089.00,2.30
4088.00,2.30
4087.00,2.30
4086.00,2.30
4085.00,2.30
4084.00,2.30
4083.00,2.31
4082.00,2.31
4081.00,2.31
4080.00,2.31
4079.00,2.32
4078.00,2.32
4077.00,2.32
4076.00,2.32
4075.00,2.33
4074.00,2.33
4073.00,2.33
4072.00,2.33
4071.00,2.33
4070.00,2.34
4069.00,2.34
4068.00,2.34
4067.00,2.34
4066.00,2.34
4065.00,2.35
4064.00,2.35
4063.00,2.35
4062.00,2.35
4061.00,2.35
4060.00,2.35
4059.00,2.36
4058.00,2.36
4057.00,2.36
4056.00,2.36
4055.00,2.36
4054.00,2.36
4053.00,2.36
4052.00,2.36
4051.00,2.36
4050.00,2.36
4049.00,2.36
4048.00,2.36
4047.00,2.36
4046.00,2.36
4045.00,2.36
4044.00,2.36
4043.00,2.36
4042.00,2.36
4041.00,2.36
4040.00,2.37
4039.00,2.37
4038.00,2.37
4037.00,2.38
4036.00,2.38
4035.00,2.38
4034.00,2.39
4033.00,2.39
4032.00,2.39
4031.00,2.39
4030.00,2.40
4029.00,2.40
4028.00,2.40
4027.00,2.41
4026.00,2.41
4025.00,2.41
4024.00,2.41
4023.00,2.41
4022.00,2.42
4021.00,2.42
4020.00,2.42
4019.00,2.42
4018.00,2.43
4017.00,2.43
4016.00,2.43
4015.00,2.44
4014.00,2.44
4013.00,2.44
4012.00,2.44
4011.00,2.45
4010.00,2.45
4009.00,2.45
4008.00,2.45
4007.00,2.45
4006.00,2.45
4005.00,2.45
4004.00,2.45
4003.00,2.45
4002.00,2.45
4001.00,2.45
4000.00,2.45
