创建为新数据集,样品 140 用户 Administrator 日期 星期六, 七月 21 2018
cm-1,%T
10000.00,1.30
9999.00,1.29
9998.00,1.29
9997.00,1.29
9996.00,1.28
9995.00,1.28
9994.00,1.28
9993.00,1.28
9992.00,1.28
9991.00,1.27
9990.00,1.27
9989.00,1.27
9988.00,1.27
9987.00,1.27
9986.00,1.27
9985.00,1.28
9984.00,1.28
9983.00,1.28
9982.00,1.28
9981.00,1.28
9980.00,1.28
9979.00,1.29
9978.00,1.29
9977.00,1.29
9976.00,1.29
9975.00,1.29
9974.00,1.29
9973.00,1.29
9972.00,1.29
9971.00,1.29
9970.00,1.29
9969.00,1.29
9968.00,1.29
9967.00,1.29
9966.00,1.29
9965.00,1.29
9964.00,1.28
9963.00,1.28
9962.00,1.28
9961.00,1.28
9960.00,1.28
9959.00,1.28
9958.00,1.27
9957.00,1.27
9956.00,1.27
9955.00,1.27
9954.00,1.27
9953.00,1.27
9952.00,1.27
9951.00,1.27
9950.00,1.28
9949.00,1.28
9948.00,1.28
9947.00,1.28
9946.00,1.28
9945.00,1.28
9944.00,1.29
9943.00,1.29
9942.00,1.29
9941.00,1.29
9940.00,1.29
9939.00,1.29
9938.00,1.29
9937.00,1.28
9936.00,1.28
9935.00,1.28
9934.00,1.28
9933.00,1.27
9932.00,1.27
9931.00,1.27
9930.00,1.27
9929.00,1.26
9928.00,1.26
9927.00,1.26
9926.00,1.26
9925.00,1.25
9924.00,1.25
9923.00,1.25
9922.00,1.25
9921.00,1.25
9920.00,1.25
9919.00,1.25
9918.00,1.25
9917.00,1.25
9916.00,1.25
9915.00,1.25
9914.00,1.25
9913.00,1.25
9912.00,1.25
9911.00,1.26
9910.00,1.26
9909.00,1.26
9908.00,1.26
9907.00,1.26
9906.00,1.26
9905.00,1.26
9904.00,1.26
9903.00,1.26
9902.00,1.26
9901.00,1.26
9900.00,1.26
9899.00,1.26
9898.00,1.26
9897.00,1.26
9896.00,1.26
9895.00,1.26
9894.00,1.26
9893.00,1.26
9892.00,1.26
9891.00,1.26
9890.00,1.26
9889.00,1.26
9888.00,1.26
9887.00,1.26
9886.00,1.26
9885.00,1.26
9884.00,1.26
9883.00,1.27
9882.00,1.27
9881.00,1.27
9880.00,1.28
9879.00,1.28
9878.00,1.28
9877.00,1.29
9876.00,1.29
9875.00,1.29
9874.00,1.29
9873.00,1.29
9872.00,1.29
9871.00,1.29
9870.00,1.29
9869.00,1.29
9868.00,1.29
9867.00,1.29
9866.00,1.28
9865.00,1.28
9864.00,1.28
9863.00,1.28
9862.00,1.27
9861.00,1.27
9860.00,1.27
9859.00,1.27
9858.00,1.27
9857.00,1.27
9856.00,1.27
9855.00,1.27
9854.00,1.26
9853.00,1.26
9852.00,1.26
9851.00,1.26
9850.00,1.26
9849.00,1.26
9848.00,1.26
9847.00,1.26
9846.00,1.26
9845.00,1.26
9844.00,1.26
9843.00,1.26
9842.00,1.25
9841.00,1.25
9840.00,1.25
9839.00,1.25
9838.00,1.25
9837.00,1.25
9836.00,1.25
9835.00,1.25
9834.00,1.25
9833.00,1.25
9832.00,1.25
9831.00,1.25
9830.00,1.25
9829.00,1.25
9828.00,1.25
9827.00,1.25
9826.00,1.26
9825.00,1.26
9824.00,1.26
9823.00,1.26
9822.00,1.26
9821.00,1.26
9820.00,1.26
9819.00,1.26
9818.00,1.25
9817.00,1.25
9816.00,1.25
9815.00,1.25
9814.00,1.25
9813.00,1.25
9812.00,1.25
9811.00,1.24
9810.00,1.24
9809.00,1.24
9808.00,1.24
9807.00,1.24
9806.00,1.24
9805.00,1.25
9804.00,1.25
9803.00,1.25
9802.00,1.25
9801.00,1.26
9800.00,1.26
9799.00,1.26
9798.00,1.27
9797.00,1.27
9796.00,1.27
9795.00,1.28
9794.00,1.28
9793.00,1.28
9792.00,1.28
9791.00,1.29
9790.00,1.29
9789.00,1.29
9788.00,1.29
9787.00,1.29
9786.00,1.29
9785.00,1.29
9784.00,1.29
9783.00,1.28
9782.00,1.28
9781.00,1.28
9780.00,1.28
9779.00,1.28
9778.00,1.28
9777.00,1.28
9776.00,1.27
9775.00,1.27
9774.00,1.27
9773.00,1.27
9772.00,1.27
9771.00,1.27
9770.00,1.27
9769.00,1.27
9768.00,1.26
9767.00,1.26
9766.00,1.26
9765.00,1.26
9764.00,1.26
9763.00,1.26
9762.00,1.26
9761.00,1.26
9760.00,1.26
9759.00,1.25
9758.00,1.25
9757.00,1.25
9756.00,1.25
9755.00,1.25
9754.00,1.25
9753.00,1.25
9752.00,1.25
9751.00,1.25
9750.00,1.25
9749.00,1.25
9748.00,1.25
9747.00,1.25
9746.00,1.25
9745.00,1.25
9744.00,1.25
9743.00,1.25
9742.00,1.26
9741.00,1.26
9740.00,1.26
9739.00,1.26
9738.00,1.26
9737.00,1.26
9736.00,1.26
9735.00,1.26
9734.00,1.26
9733.00,1.26
9732.00,1.26
9731.00,1.26
9730.00,1.26
9729.00,1.26
9728.00,1.25
9727.00,1.25
9726.00,1.25
9725.00,1.25
9724.00,1.24
9723.00,1.24
9722.00,1.24
9721.00,1.24
9720.00,1.24
9719.00,1.24
9718.00,1.24
9717.00,1.24
9716.00,1.24
9715.00,1.24
9714.00,1.24
9713.00,1.24
9712.00,1.25
9711.00,1.25
9710.00,1.25
9709.00,1.25
9708.00,1.26
9707.00,1.26
9706.00,1.26
9705.00,1.26
9704.00,1.26
9703.00,1.27
9702.00,1.27
9701.00,1.27
9700.00,1.27
9699.00,1.27
9698.00,1.27
9697.00,1.27
9696.00,1.27
9695.00,1.27
9694.00,1.27
9693.00,1.27
9692.00,1.27
9691.00,1.27
9690.00,1.27
9689.00,1.27
9688.00,1.27
9687.00,1.27
9686.00,1.27
9685.00,1.28
9684.00,1.28
9683.00,1.28
9682.00,1.28
9681.00,1.28
9680.00,1.28
9679.00,1.29
9678.00,1.29
9677.00,1.29
9676.00,1.29
9675.00,1.29
9674.00,1.29
9673.00,1.29
9672.00,1.29
9671.00,1.29
9670.00,1.29
9669.00,1.29
9668.00,1.29
9667.00,1.29
9666.00,1.29
9665.00,1.29
9664.00,1.29
9663.00,1.29
9662.00,1.29
9661.00,1.29
9660.00,1.29
9659.00,1.29
9658.00,1.29
9657.00,1.29
9656.00,1.29
9655.00,1.29
9654.00,1.29
9653.00,1.29
9652.00,1.29
9651.00,1.29
9650.00,1.29
9649.00,1.29
9648.00,1.29
9647.00,1.29
9646.00,1.29
9645.00,1.29
9644.00,1.29
9643.00,1.29
9642.00,1.29
9641.00,1.29
9640.00,1.28
9639.00,1.28
9638.00,1.28
9637.00,1.28
9636.00,1.28
9635.00,1.28
9634.00,1.28
9633.00,1.28
9632.00,1.28
9631.00,1.27
9630.00,1.27
9629.00,1.27
9628.00,1.27
9627.00,1.27
9626.00,1.27
9625.00,1.27
9624.00,1.27
9623.00,1.27
9622.00,1.27
9621.00,1.27
9620.00,1.27
9619.00,1.27
9618.00,1.27
9617.00,1.27
9616.00,1.27
9615.00,1.26
9614.00,1.26
9613.00,1.26
9612.00,1.26
9611.00,1.26
9610.00,1.26
9609.00,1.26
9608.00,1.26
9607.00,1.26
9606.00,1.25
9605.00,1.25
9604.00,1.25
9603.00,1.25
9602.00,1.25
9601.00,1.24
9600.00,1.24
9599.00,1.24
9598.00,1.24
9597.00,1.24
9596.00,1.24
9595.00,1.23
9594.00,1.23
9593.00,1.23
9592.00,1.23
9591.00,1.23
9590.00,1.23
9589.00,1.23
9588.00,1.23
9587.00,1.23
9586.00,1.23
9585.00,1.24
9584.00,1.24
9583.00,1.24
9582.00,1.24
9581.00,1.24
9580.00,1.24
9579.00,1.24
9578.00,1.24
9577.00,1.24
9576.00,1.24
9575.00,1.24
9574.00,1.24
9573.00,1.24
9572.00,1.24
9571.00,1.24
9570.00,1.24
9569.00,1.24
9568.00,1.24
9567.00,1.24
9566.00,1.23
9565.00,1.23
9564.00,1.23
9563.00,1.23
9562.00,1.23
9561.00,1.23
9560.00,1.23
9559.00,1.23
9558.00,1.23
9557.00,1.23
9556.00,1.23
9555.00,1.23
9554.00,1.24
9553.00,1.24
9552.00,1.24
9551.00,1.24
9550.00,1.24
9549.00,1.24
9548.00,1.25
9547.00,1.25
9546.00,1.25
9545.00,1.25
9544.00,1.25
9543.00,1.25
9542.00,1.26
9541.00,1.26
9540.00,1.26
9539.00,1.26
9538.00,1.26
9537.00,1.26
9536.00,1.26
9535.00,1.26
9534.00,1.26
9533.00,1.26
9532.00,1.26
9531.00,1.26
9530.00,1.26
9529.00,1.26
9528.00,1.26
9527.00,1.26
9526.00,1.26
9525.00,1.26
9524.00,1.26
9523.00,1.26
9522.00,1.26
9521.00,1.26
9520.00,1.26
9519.00,1.26
9518.00,1.26
9517.00,1.26
9516.00,1.26
9515.00,1.26
9514.00,1.26
9513.00,1.26
9512.00,1.26
9511.00,1.26
9510.00,1.26
9509.00,1.26
9508.00,1.26
9507.00,1.26
9506.00,1.26
9505.00,1.26
9504.00,1.27
9503.00,1.27
9502.00,1.27
9501.00,1.27
9500.00,1.27
9499.00,1.27
9498.00,1.26
9497.00,1.26
9496.00,1.26
9495.00,1.26
9494.00,1.26
9493.00,1.26
9492.00,1.26
9491.00,1.26
9490.00,1.26
9489.00,1.26
9488.00,1.26
9487.00,1.26
9486.00,1.26
9485.00,1.26
9484.00,1.26
9483.00,1.26
9482.00,1.26
9481.00,1.26
9480.00,1.26
9479.00,1.25
9478.00,1.25
9477.00,1.25
9476.00,1.25
9475.00,1.25
9474.00,1.25
9473.00,1.26
9472.00,1.26
9471.00,1.26
9470.00,1.26
9469.00,1.26
9468.00,1.26
9467.00,1.26
9466.00,1.26
9465.00,1.26
9464.00,1.27
9463.00,1.27
9462.00,1.27
9461.00,1.27
9460.00,1.27
9459.00,1.27
9458.00,1.27
9457.00,1.27
9456.00,1.27
9455.00,1.27
9454.00,1.27
9453.00,1.27
9452.00,1.27
9451.00,1.27
9450.00,1.27
9449.00,1.26
9448.00,1.26
9447.00,1.26
9446.00,1.26
9445.00,1.26
9444.00,1.26
9443.00,1.26
9442.00,1.26
9441.00,1.26
9440.00,1.27
9439.00,1.27
9438.00,1.27
9437.00,1.27
9436.00,1.28
9435.00,1.28
9434.00,1.28
9433.00,1.28
9432.00,1.29
9431.00,1.29
9430.00,1.29
9429.00,1.29
9428.00,1.29
9427.00,1.29
9426.00,1.29
9425.00,1.29
9424.00,1.29
9423.00,1.28
9422.00,1.28
9421.00,1.28
9420.00,1.28
9419.00,1.27
9418.00,1.27
9417.00,1.27
9416.00,1.27
9415.00,1.27
9414.00,1.27
9413.00,1.27
9412.00,1.26
9411.00,1.26
9410.00,1.26
9409.00,1.27
9408.00,1.27
9407.00,1.27
9406.00,1.27
9405.00,1.27
9404.00,1.27
9403.00,1.27
9402.00,1.27
9401.00,1.27
9400.00,1.27
9399.00,1.27
9398.00,1.27
9397.00,1.28
9396.00,1.28
9395.00,1.28
9394.00,1.28
9393.00,1.28
9392.00,1.28
9391.00,1.29
9390.00,1.29
9389.00,1.29
9388.00,1.29
9387.00,1.29
9386.00,1.29
9385.00,1.29
9384.00,1.29
9383.00,1.29
9382.00,1.29
9381.00,1.29
9380.00,1.29
9379.00,1.29
9378.00,1.28
9377.00,1.28
9376.00,1.28
9375.00,1.28
9374.00,1.28
9373.00,1.28
9372.00,1.28
9371.00,1.28
9370.00,1.28
9369.00,1.28
9368.00,1.28
9367.00,1.28
9366.00,1.28
9365.00,1.28
9364.00,1.28
9363.00,1.28
9362.00,1.28
9361.00,1.28
9360.00,1.28
9359.00,1.28
9358.00,1.28
9357.00,1.27
9356.00,1.27
9355.00,1.27
9354.00,1.27
9353.00,1.27
9352.00,1.27
9351.00,1.27
9350.00,1.27
9349.00,1.27
9348.00,1.27
9347.00,1.27
9346.00,1.27
9345.00,1.27
9344.00,1.27
9343.00,1.27
9342.00,1.27
9341.00,1.27
9340.00,1.27
9339.00,1.27
9338.00,1.26
9337.00,1.26
9336.00,1.26
9335.00,1.26
9334.00,1.26
9333.00,1.26
9332.00,1.26
9331.00,1.26
9330.00,1.26
9329.00,1.26
9328.00,1.26
9327.00,1.25
9326.00,1.25
9325.00,1.25
9324.00,1.25
9323.00,1.25
9322.00,1.25
9321.00,1.25
9320.00,1.25
9319.00,1.25
9318.00,1.24
9317.00,1.24
9316.00,1.24
9315.00,1.24
9314.00,1.24
9313.00,1.24
9312.00,1.24
9311.00,1.24
9310.00,1.24
9309.00,1.24
9308.00,1.24
9307.00,1.25
9306.00,1.25
9305.00,1.25
9304.00,1.25
9303.00,1.25
9302.00,1.25
9301.00,1.25
9300.00,1.25
9299.00,1.25
9298.00,1.26
9297.00,1.26
9296.00,1.26
9295.00,1.26
9294.00,1.26
9293.00,1.26
9292.00,1.27
9291.00,1.27
9290.00,1.27
9289.00,1.27
9288.00,1.27
9287.00,1.28
9286.00,1.28
9285.00,1.28
9284.00,1.28
9283.00,1.28
9282.00,1.28
9281.00,1.28
9280.00,1.28
9279.00,1.28
9278.00,1.28
9277.00,1.28
9276.00,1.27
9275.00,1.27
9274.00,1.27
9273.00,1.27
9272.00,1.26
9271.00,1.26
9270.00,1.26
9269.00,1.26
9268.00,1.25
9267.00,1.25
9266.00,1.25
9265.00,1.25
9264.00,1.25
9263.00,1.25
9262.00,1.25
9261.00,1.25
9260.00,1.25
9259.00,1.25
9258.00,1.25
9257.00,1.25
9256.00,1.25
9255.00,1.26
9254.00,1.26
9253.00,1.26
9252.00,1.26
9251.00,1.26
9250.00,1.27
9249.00,1.27
9248.00,1.27
9247.00,1.27
9246.00,1.27
9245.00,1.27
9244.00,1.27
9243.00,1.27
9242.00,1.27
9241.00,1.27
9240.00,1.27
9239.00,1.27
9238.00,1.27
9237.00,1.26
9236.00,1.26
9235.00,1.26
9234.00,1.26
9233.00,1.26
9232.00,1.26
9231.00,1.26
9230.00,1.26
9229.00,1.26
9228.00,1.26
9227.00,1.26
9226.00,1.26
9225.00,1.26
9224.00,1.26
9223.00,1.26
9222.00,1.26
9221.00,1.26
9220.00,1.26
9219.00,1.26
9218.00,1.26
9217.00,1.26
9216.00,1.26
9215.00,1.26
9214.00,1.25
9213.00,1.25
9212.00,1.25
9211.00,1.25
9210.00,1.25
9209.00,1.25
9208.00,1.25
9207.00,1.25
9206.00,1.25
9205.00,1.25
9204.00,1.25
9203.00,1.25
9202.00,1.25
9201.00,1.25
9200.00,1.25
9199.00,1.25
9198.00,1.25
9197.00,1.25
9196.00,1.26
9195.00,1.26
9194.00,1.26
9193.00,1.26
9192.00,1.26
9191.00,1.26
9190.00,1.26
9189.00,1.26
9188.00,1.27
9187.00,1.27
9186.00,1.27
9185.00,1.27
9184.00,1.27
9183.00,1.28
9182.00,1.28
9181.00,1.28
9180.00,1.28
9179.00,1.28
9178.00,1.29
9177.00,1.29
9176.00,1.29
9175.00,1.29
9174.00,1.29
9173.00,1.29
9172.00,1.29
9171.00,1.29
9170.00,1.29
9169.00,1.29
9168.00,1.29
9167.00,1.29
9166.00,1.29
9165.00,1.28
9164.00,1.28
9163.00,1.28
9162.00,1.28
9161.00,1.28
9160.00,1.28
9159.00,1.27
9158.00,1.27
9157.00,1.27
9156.00,1.27
9155.00,1.27
9154.00,1.27
9153.00,1.26
9152.00,1.26
9151.00,1.26
9150.00,1.26
9149.00,1.26
9148.00,1.26
9147.00,1.26
9146.00,1.26
9145.00,1.26
9144.00,1.25
9143.00,1.25
9142.00,1.25
9141.00,1.25
9140.00,1.25
9139.00,1.25
9138.00,1.25
9137.00,1.25
9136.00,1.25
9135.00,1.25
9134.00,1.25
9133.00,1.25
9132.00,1.25
9131.00,1.26
9130.00,1.26
9129.00,1.26
9128.00,1.26
9127.00,1.26
9126.00,1.26
9125.00,1.26
9124.00,1.26
9123.00,1.26
9122.00,1.26
9121.00,1.26
9120.00,1.26
9119.00,1.26
9118.00,1.26
9117.00,1.26
9116.00,1.26
9115.00,1.26
9114.00,1.25
9113.00,1.25
9112.00,1.25
9111.00,1.25
9110.00,1.25
9109.00,1.25
9108.00,1.25
9107.00,1.25
9106.00,1.25
9105.00,1.25
9104.00,1.25
9103.00,1.25
9102.00,1.25
9101.00,1.25
9100.00,1.25
9099.00,1.25
9098.00,1.25
9097.00,1.25
9096.00,1.25
9095.00,1.25
9094.00,1.25
9093.00,1.25
9092.00,1.25
9091.00,1.25
9090.00,1.25
9089.00,1.26
9088.00,1.26
9087.00,1.26
9086.00,1.26
9085.00,1.26
9084.00,1.26
9083.00,1.26
9082.00,1.26
9081.00,1.26
9080.00,1.26
9079.00,1.26
9078.00,1.26
9077.00,1.26
9076.00,1.25
9075.00,1.25
9074.00,1.25
9073.00,1.25
9072.00,1.25
9071.00,1.25
9070.00,1.25
9069.00,1.25
9068.00,1.25
9067.00,1.26
9066.00,1.26
9065.00,1.26
9064.00,1.26
9063.00,1.26
9062.00,1.26
9061.00,1.26
9060.00,1.26
9059.00,1.27
9058.00,1.27
9057.00,1.27
9056.00,1.27
9055.00,1.27
9054.00,1.27
9053.00,1.27
9052.00,1.27
9051.00,1.28
9050.00,1.28
9049.00,1.28
9048.00,1.28
9047.00,1.28
9046.00,1.28
9045.00,1.28
9044.00,1.29
9043.00,1.29
9042.00,1.29
9041.00,1.29
9040.00,1.29
9039.00,1.29
9038.00,1.29
9037.00,1.29
9036.00,1.29
9035.00,1.29
9034.00,1.29
9033.00,1.29
9032.00,1.29
9031.00,1.29
9030.00,1.29
9029.00,1.29
9028.00,1.28
9027.00,1.28
9026.00,1.28
9025.00,1.28
9024.00,1.28
9023.00,1.28
9022.00,1.27
9021.00,1.27
9020.00,1.27
9019.00,1.27
9018.00,1.27
9017.00,1.27
9016.00,1.27
9015.00,1.26
9014.00,1.26
9013.00,1.26
9012.00,1.26
9011.00,1.26
9010.00,1.26
9009.00,1.26
9008.00,1.26
9007.00,1.26
9006.00,1.26
9005.00,1.26
9004.00,1.26
9003.00,1.26
9002.00,1.26
9001.00,1.26
9000.00,1.26
8999.00,1.26
8998.00,1.26
8997.00,1.26
8996.00,1.26
8995.00,1.26
8994.00,1.26
8993.00,1.26
8992.00,1.26
8991.00,1.26
8990.00,1.26
8989.00,1.26
8988.00,1.26
8987.00,1.26
8986.00,1.26
8985.00,1.26
8984.00,1.26
8983.00,1.26
8982.00,1.26
8981.00,1.25
8980.00,1.25
8979.00,1.25
8978.00,1.25
8977.00,1.25
8976.00,1.25
8975.00,1.25
8974.00,1.25
8973.00,1.25
8972.00,1.25
8971.00,1.25
8970.00,1.25
8969.00,1.25
8968.00,1.25
8967.00,1.25
8966.00,1.25
8965.00,1.25
8964.00,1.26
8963.00,1.26
8962.00,1.26
8961.00,1.26
8960.00,1.26
8959.00,1.26
8958.00,1.26
8957.00,1.26
8956.00,1.26
8955.00,1.26
8954.00,1.26
8953.00,1.26
8952.00,1.26
8951.00,1.26
8950.00,1.26
8949.00,1.25
8948.00,1.25
8947.00,1.25
8946.00,1.25
8945.00,1.25
8944.00,1.25
8943.00,1.24
8942.00,1.24
8941.00,1.24
8940.00,1.24
8939.00,1.24
8938.00,1.24
8937.00,1.25
8936.00,1.25
8935.00,1.25
8934.00,1.25
8933.00,1.25
8932.00,1.26
8931.00,1.26
8930.00,1.26
8929.00,1.26
8928.00,1.27
8927.00,1.27
8926.00,1.27
8925.00,1.27
8924.00,1.27
8923.00,1.27
8922.00,1.27
8921.00,1.27
8920.00,1.27
8919.00,1.27
8918.00,1.27
8917.00,1.27
8916.00,1.27
8915.00,1.26
8914.00,1.26
8913.00,1.26
8912.00,1.26
8911.00,1.26
8910.00,1.25
8909.00,1.25
8908.00,1.25
8907.00,1.25
8906.00,1.25
8905.00,1.25
8904.00,1.24
8903.00,1.24
8902.00,1.24
8901.00,1.24
8900.00,1.24
8899.00,1.24
8898.00,1.24
8897.00,1.24
8896.00,1.24
8895.00,1.24
8894.00,1.25
8893.00,1.25
8892.00,1.25
8891.00,1.25
8890.00,1.25
8889.00,1.26
8888.00,1.26
8887.00,1.26
8886.00,1.27
8885.00,1.27
8884.00,1.27
8883.00,1.27
8882.00,1.28
8881.00,1.28
8880.00,1.28
8879.00,1.28
8878.00,1.28
8877.00,1.28
8876.00,1.28
8875.00,1.28
8874.00,1.28
8873.00,1.28
8872.00,1.28
8871.00,1.28
8870.00,1.28
8869.00,1.28
8868.00,1.27
8867.00,1.27
8866.00,1.27
8865.00,1.27
8864.00,1.27
8863.00,1.27
8862.00,1.26
8861.00,1.26
8860.00,1.26
8859.00,1.26
8858.00,1.26
8857.00,1.26
8856.00,1.26
8855.00,1.26
8854.00,1.26
8853.00,1.26
8852.00,1.26
8851.00,1.26
8850.00,1.26
8849.00,1.26
8848.00,1.26
8847.00,1.26
8846.00,1.26
8845.00,1.26
8844.00,1.26
8843.00,1.26
8842.00,1.26
8841.00,1.25
8840.00,1.25
8839.00,1.25
8838.00,1.25
8837.00,1.25
8836.00,1.25
8835.00,1.25
8834.00,1.25
8833.00,1.25
8832.00,1.25
8831.00,1.25
8830.00,1.25
8829.00,1.25
8828.00,1.25
8827.00,1.25
8826.00,1.25
8825.00,1.25
8824.00,1.25
8823.00,1.25
8822.00,1.25
8821.00,1.25
8820.00,1.25
8819.00,1.25
8818.00,1.25
8817.00,1.25
8816.00,1.25
8815.00,1.25
8814.00,1.25
8813.00,1.25
8812.00,1.25
8811.00,1.25
8810.00,1.25
8809.00,1.25
8808.00,1.25
8807.00,1.25
8806.00,1.25
8805.00,1.25
8804.00,1.25
8803.00,1.25
8802.00,1.25
8801.00,1.25
8800.00,1.25
8799.00,1.25
8798.00,1.25
8797.00,1.25
8796.00,1.25
8795.00,1.25
8794.00,1.25
8793.00,1.25
8792.00,1.26
8791.00,1.26
8790.00,1.26
8789.00,1.26
8788.00,1.26
8787.00,1.26
8786.00,1.26
8785.00,1.26
8784.00,1.26
8783.00,1.26
8782.00,1.26
8781.00,1.25
8780.00,1.25
8779.00,1.25
8778.00,1.25
8777.00,1.25
8776.00,1.25
8775.00,1.25
8774.00,1.24
8773.00,1.24
8772.00,1.24
8771.00,1.24
8770.00,1.24
8769.00,1.24
8768.00,1.23
8767.00,1.23
8766.00,1.23
8765.00,1.23
8764.00,1.23
8763.00,1.23
8762.00,1.23
8761.00,1.23
8760.00,1.23
8759.00,1.23
8758.00,1.23
8757.00,1.23
8756.00,1.23
8755.00,1.23
8754.00,1.23
8753.00,1.23
8752.00,1.23
8751.00,1.23
8750.00,1.24
8749.00,1.24
8748.00,1.24
8747.00,1.24
8746.00,1.24
8745.00,1.24
8744.00,1.24
8743.00,1.24
8742.00,1.24
8741.00,1.23
8740.00,1.23
8739.00,1.23
8738.00,1.23
8737.00,1.23
8736.00,1.23
8735.00,1.23
8734.00,1.23
8733.00,1.23
8732.00,1.22
8731.00,1.22
8730.00,1.22
8729.00,1.22
8728.00,1.22
8727.00,1.21
8726.00,1.21
8725.00,1.21
8724.00,1.21
8723.00,1.21
8722.00,1.21
8721.00,1.21
8720.00,1.20
8719.00,1.20
8718.00,1.20
8717.00,1.20
8716.00,1.20
8715.00,1.20
8714.00,1.21
8713.00,1.21
8712.00,1.21
8711.00,1.21
8710.00,1.21
8709.00,1.21
8708.00,1.21
8707.00,1.21
8706.00,1.21
8705.00,1.21
8704.00,1.21
8703.00,1.22
8702.00,1.22
8701.00,1.22
8700.00,1.22
8699.00,1.22
8698.00,1.22
8697.00,1.22
8696.00,1.22
8695.00,1.22
8694.00,1.22
8693.00,1.22
8692.00,1.22
8691.00,1.22
8690.00,1.22
8689.00,1.22
8688.00,1.22
8687.00,1.22
8686.00,1.21
8685.00,1.21
8684.00,1.21
8683.00,1.21
8682.00,1.21
8681.00,1.21
8680.00,1.21
8679.00,1.21
8678.00,1.21
8677.00,1.21
8676.00,1.21
8675.00,1.21
8674.00,1.21
8673.00,1.21
8672.00,1.21
8671.00,1.21
8670.00,1.21
8669.00,1.21
8668.00,1.21
8667.00,1.21
8666.00,1.21
8665.00,1.21
8664.00,1.21
8663.00,1.21
8662.00,1.21
8661.00,1.21
8660.00,1.21
8659.00,1.21
8658.00,1.21
8657.00,1.21
8656.00,1.21
8655.00,1.21
8654.00,1.21
8653.00,1.21
8652.00,1.20
8651.00,1.20
8650.00,1.20
8649.00,1.20
8648.00,1.20
8647.00,1.20
8646.00,1.20
8645.00,1.20
8644.00,1.20
8643.00,1.20
8642.00,1.20
8641.00,1.19
8640.00,1.19
8639.00,1.19
8638.00,1.19
8637.00,1.19
8636.00,1.19
8635.00,1.19
8634.00,1.19
8633.00,1.19
8632.00,1.20
8631.00,1.20
8630.00,1.20
8629.00,1.20
8628.00,1.20
8627.00,1.20
8626.00,1.20
8625.00,1.20
8624.00,1.20
8623.00,1.20
8622.00,1.20
8621.00,1.20
8620.00,1.20
8619.00,1.20
8618.00,1.20
8617.00,1.20
8616.00,1.20
8615.00,1.20
8614.00,1.20
8613.00,1.20
8612.00,1.20
8611.00,1.20
8610.00,1.19
8609.00,1.19
8608.00,1.19
8607.00,1.19
8606.00,1.19
8605.00,1.19
8604.00,1.19
8603.00,1.19
8602.00,1.19
8601.00,1.19
8600.00,1.19
8599.00,1.19
8598.00,1.19
8597.00,1.19
8596.00,1.19
8595.00,1.19
8594.00,1.19
8593.00,1.19
8592.00,1.19
8591.00,1.19
8590.00,1.19
8589.00,1.19
8588.00,1.19
8587.00,1.19
8586.00,1.19
8585.00,1.19
8584.00,1.19
8583.00,1.19
8582.00,1.19
8581.00,1.19
8580.00,1.19
8579.00,1.19
8578.00,1.19
8577.00,1.19
8576.00,1.19
8575.00,1.19
8574.00,1.19
8573.00,1.19
8572.00,1.19
8571.00,1.19
8570.00,1.19
8569.00,1.19
8568.00,1.19
8567.00,1.19
8566.00,1.19
8565.00,1.19
8564.00,1.19
8563.00,1.19
8562.00,1.19
8561.00,1.19
8560.00,1.19
8559.00,1.19
8558.00,1.19
8557.00,1.19
8556.00,1.19
8555.00,1.19
8554.00,1.19
8553.00,1.19
8552.00,1.19
8551.00,1.19
8550.00,1.18
8549.00,1.18
8548.00,1.18
8547.00,1.18
8546.00,1.18
8545.00,1.18
8544.00,1.18
8543.00,1.18
8542.00,1.17
8541.00,1.17
8540.00,1.17
8539.00,1.17
8538.00,1.17
8537.00,1.17
8536.00,1.17
8535.00,1.17
8534.00,1.17
8533.00,1.18
8532.00,1.18
8531.00,1.18
8530.00,1.18
8529.00,1.18
8528.00,1.18
8527.00,1.18
8526.00,1.18
8525.00,1.18
8524.00,1.18
8523.00,1.18
8522.00,1.18
8521.00,1.18
8520.00,1.18
8519.00,1.18
8518.00,1.18
8517.00,1.18
8516.00,1.18
8515.00,1.18
8514.00,1.18
8513.00,1.18
8512.00,1.17
8511.00,1.17
8510.00,1.17
8509.00,1.17
8508.00,1.17
8507.00,1.17
8506.00,1.17
8505.00,1.17
8504.00,1.17
8503.00,1.17
8502.00,1.17
8501.00,1.17
8500.00,1.17
8499.00,1.17
8498.00,1.17
8497.00,1.17
8496.00,1.17
8495.00,1.17
8494.00,1.17
8493.00,1.17
8492.00,1.17
8491.00,1.17
8490.00,1.17
8489.00,1.17
8488.00,1.17
8487.00,1.17
8486.00,1.17
8485.00,1.17
8484.00,1.17
8483.00,1.17
8482.00,1.17
8481.00,1.17
8480.00,1.17
8479.00,1.17
8478.00,1.17
8477.00,1.17
8476.00,1.17
8475.00,1.17
8474.00,1.17
8473.00,1.17
8472.00,1.17
8471.00,1.17
8470.00,1.17
8469.00,1.17
8468.00,1.17
8467.00,1.17
8466.00,1.17
8465.00,1.17
8464.00,1.17
8463.00,1.17
8462.00,1.17
8461.00,1.17
8460.00,1.17
8459.00,1.17
8458.00,1.17
8457.00,1.17
8456.00,1.16
8455.00,1.16
8454.00,1.16
8453.00,1.16
8452.00,1.16
8451.00,1.16
8450.00,1.16
8449.00,1.15
8448.00,1.15
8447.00,1.15
8446.00,1.15
8445.00,1.15
8444.00,1.15
8443.00,1.15
8442.00,1.15
8441.00,1.15
8440.00,1.15
8439.00,1.15
8438.00,1.15
8437.00,1.15
8436.00,1.14
8435.00,1.14
8434.00,1.14
8433.00,1.14
8432.00,1.14
8431.00,1.14
8430.00,1.14
8429.00,1.14
8428.00,1.14
8427.00,1.14
8426.00,1.14
8425.00,1.14
8424.00,1.14
8423.00,1.14
8422.00,1.14
8421.00,1.14
8420.00,1.14
8419.00,1.14
8418.00,1.14
8417.00,1.14
8416.00,1.14
8415.00,1.15
8414.00,1.15
8413.00,1.15
8412.00,1.15
8411.00,1.15
8410.00,1.15
8409.00,1.15
8408.00,1.15
8407.00,1.15
8406.00,1.15
8405.00,1.15
8404.00,1.15
8403.00,1.15
8402.00,1.16
8401.00,1.16
8400.00,1.16
8399.00,1.16
8398.00,1.16
8397.00,1.16
8396.00,1.16
8395.00,1.16
8394.00,1.16
8393.00,1.16
8392.00,1.16
8391.00,1.15
8390.00,1.15
8389.00,1.15
8388.00,1.15
8387.00,1.15
8386.00,1.15
8385.00,1.15
8384.00,1.15
8383.00,1.15
8382.00,1.15
8381.00,1.15
8380.00,1.15
8379.00,1.15
8378.00,1.15
8377.00,1.15
8376.00,1.15
8375.00,1.15
8374.00,1.16
8373.00,1.16
8372.00,1.16
8371.00,1.16
8370.00,1.16
8369.00,1.16
8368.00,1.17
8367.00,1.17
8366.00,1.17
8365.00,1.17
8364.00,1.17
8363.00,1.17
8362.00,1.17
8361.00,1.18
8360.00,1.18
8359.00,1.18
8358.00,1.18
8357.00,1.18
8356.00,1.18
8355.00,1.18
8354.00,1.18
8353.00,1.18
8352.00,1.18
8351.00,1.18
8350.00,1.18
8349.00,1.18
8348.00,1.18
8347.00,1.18
8346.00,1.18
8345.00,1.18
8344.00,1.18
8343.00,1.18
8342.00,1.18
8341.00,1.18
8340.00,1.18
8339.00,1.18
8338.00,1.18
8337.00,1.18
8336.00,1.18
8335.00,1.18
8334.00,1.18
8333.00,1.18
8332.00,1.18
8331.00,1.18
8330.00,1.18
8329.00,1.18
8328.00,1.18
8327.00,1.18
8326.00,1.18
8325.00,1.18
8324.00,1.18
8323.00,1.18
8322.00,1.19
8321.00,1.19
8320.00,1.19
8319.00,1.19
8318.00,1.19
8317.00,1.19
8316.00,1.19
8315.00,1.20
8314.00,1.20
8313.00,1.20
8312.00,1.20
8311.00,1.20
8310.00,1.20
8309.00,1.20
8308.00,1.20
8307.00,1.20
8306.00,1.20
8305.00,1.20
8304.00,1.20
8303.00,1.20
8302.00,1.20
8301.00,1.20
8300.00,1.20
8299.00,1.20
8298.00,1.20
8297.00,1.20
8296.00,1.20
8295.00,1.20
8294.00,1.20
8293.00,1.20
8292.00,1.20
8291.00,1.20
8290.00,1.20
8289.00,1.20
8288.00,1.20
8287.00,1.20
8286.00,1.20
8285.00,1.20
8284.00,1.20
8283.00,1.20
8282.00,1.20
8281.00,1.20
8280.00,1.20
8279.00,1.20
8278.00,1.20
8277.00,1.20
8276.00,1.20
8275.00,1.20
8274.00,1.20
8273.00,1.20
8272.00,1.20
8271.00,1.20
8270.00,1.20
8269.00,1.20
8268.00,1.20
8267.00,1.20
8266.00,1.20
8265.00,1.20
8264.00,1.20
8263.00,1.20
8262.00,1.20
8261.00,1.20
8260.00,1.21
8259.00,1.21
8258.00,1.21
8257.00,1.21
8256.00,1.21
8255.00,1.21
8254.00,1.21
8253.00,1.21
8252.00,1.21
8251.00,1.21
8250.00,1.21
8249.00,1.20
8248.00,1.20
8247.00,1.20
8246.00,1.20
8245.00,1.20
8244.00,1.20
8243.00,1.20
8242.00,1.20
8241.00,1.20
8240.00,1.20
8239.00,1.20
8238.00,1.20
8237.00,1.20
8236.00,1.20
8235.00,1.20
8234.00,1.20
8233.00,1.20
8232.00,1.20
8231.00,1.20
8230.00,1.20
8229.00,1.19
8228.00,1.19
8227.00,1.19
8226.00,1.19
8225.00,1.19
8224.00,1.19
8223.00,1.19
8222.00,1.19
8221.00,1.19
8220.00,1.19
8219.00,1.19
8218.00,1.19
8217.00,1.19
8216.00,1.19
8215.00,1.19
8214.00,1.19
8213.00,1.19
8212.00,1.19
8211.00,1.19
8210.00,1.19
8209.00,1.19
8208.00,1.19
8207.00,1.19
8206.00,1.19
8205.00,1.19
8204.00,1.19
8203.00,1.19
8202.00,1.20
8201.00,1.20
8200.00,1.20
8199.00,1.20
8198.00,1.20
8197.00,1.20
8196.00,1.20
8195.00,1.20
8194.00,1.21
8193.00,1.21
8192.00,1.21
8191.00,1.21
8190.00,1.21
8189.00,1.22
8188.00,1.22
8187.00,1.22
8186.00,1.22
8185.00,1.22
8184.00,1.22
8183.00,1.22
8182.00,1.23
8181.00,1.23
8180.00,1.23
8179.00,1.23
8178.00,1.23
8177.00,1.23
8176.00,1.23
8175.00,1.23
8174.00,1.23
8173.00,1.23
8172.00,1.23
8171.00,1.23
8170.00,1.23
8169.00,1.23
8168.00,1.23
8167.00,1.23
8166.00,1.23
8165.00,1.23
8164.00,1.23
8163.00,1.23
8162.00,1.23
8161.00,1.23
8160.00,1.23
8159.00,1.23
8158.00,1.23
8157.00,1.23
8156.00,1.23
8155.00,1.23
8154.00,1.23
8153.00,1.23
8152.00,1.23
8151.00,1.22
8150.00,1.22
8149.00,1.22
8148.00,1.22
8147.00,1.22
8146.00,1.22
8145.00,1.22
8144.00,1.22
8143.00,1.22
8142.00,1.22
8141.00,1.22
8140.00,1.22
8139.00,1.22
8138.00,1.22
8137.00,1.22
8136.00,1.22
8135.00,1.22
8134.00,1.22
8133.00,1.23
8132.00,1.23
8131.00,1.23
8130.00,1.23
8129.00,1.23
8128.00,1.23
8127.00,1.23
8126.00,1.23
8125.00,1.23
8124.00,1.23
8123.00,1.23
8122.00,1.23
8121.00,1.23
8120.00,1.23
8119.00,1.23
8118.00,1.23
8117.00,1.23
8116.00,1.23
8115.00,1.23
8114.00,1.23
8113.00,1.23
8112.00,1.23
8111.00,1.23
8110.00,1.23
8109.00,1.23
8108.00,1.23
8107.00,1.23
8106.00,1.23
8105.00,1.23
8104.00,1.23
8103.00,1.23
8102.00,1.23
8101.00,1.24
8100.00,1.24
8099.00,1.24
8098.00,1.24
8097.00,1.24
8096.00,1.24
8095.00,1.24
8094.00,1.24
8093.00,1.24
8092.00,1.24
8091.00,1.24
8090.00,1.24
8089.00,1.24
8088.00,1.24
8087.00,1.24
8086.00,1.24
8085.00,1.24
8084.00,1.24
8083.00,1.24
8082.00,1.24
8081.00,1.24
8080.00,1.24
8079.00,1.24
8078.00,1.24
8077.00,1.24
8076.00,1.24
8075.00,1.24
8074.00,1.24
8073.00,1.24
8072.00,1.24
8071.00,1.24
8070.00,1.24
8069.00,1.24
8068.00,1.24
8067.00,1.24
8066.00,1.24
8065.00,1.24
8064.00,1.24
8063.00,1.24
8062.00,1.24
8061.00,1.24
8060.00,1.24
8059.00,1.24
8058.00,1.24
8057.00,1.24
8056.00,1.25
8055.00,1.25
8054.00,1.25
8053.00,1.25
8052.00,1.25
8051.00,1.25
8050.00,1.25
8049.00,1.25
8048.00,1.25
8047.00,1.25
8046.00,1.25
8045.00,1.26
8044.00,1.26
8043.00,1.26
8042.00,1.26
8041.00,1.26
8040.00,1.26
8039.00,1.26
8038.00,1.26
8037.00,1.26
8036.00,1.26
8035.00,1.26
8034.00,1.26
8033.00,1.26
8032.00,1.26
8031.00,1.26
8030.00,1.26
8029.00,1.26
8028.00,1.26
8027.00,1.26
8026.00,1.26
8025.00,1.26
8024.00,1.26
8023.00,1.26
8022.00,1.26
8021.00,1.26
8020.00,1.26
8019.00,1.26
8018.00,1.26
8017.00,1.26
8016.00,1.26
8015.00,1.26
8014.00,1.26
8013.00,1.27
8012.00,1.27
8011.00,1.27
8010.00,1.27
8009.00,1.27
8008.00,1.27
8007.00,1.27
8006.00,1.27
8005.00,1.27
8004.00,1.27
8003.00,1.27
8002.00,1.27
8001.00,1.27
8000.00,1.27
7999.00,1.27
7998.00,1.27
7997.00,1.27
7996.00,1.27
7995.00,1.27
7994.00,1.27
7993.00,1.27
7992.00,1.26
7991.00,1.26
7990.00,1.26
7989.00,1.26
7988.00,1.26
7987.00,1.26
7986.00,1.26
7985.00,1.26
7984.00,1.26
7983.00,1.26
7982.00,1.26
7981.00,1.25
7980.00,1.25
7979.00,1.25
7978.00,1.25
7977.00,1.25
7976.00,1.25
7975.00,1.25
7974.00,1.25
7973.00,1.25
7972.00,1.25
7971.00,1.25
7970.00,1.25
7969.00,1.25
7968.00,1.25
7967.00,1.25
7966.00,1.25
7965.00,1.25
7964.00,1.25
7963.00,1.25
7962.00,1.25
7961.00,1.25
7960.00,1.25
7959.00,1.25
7958.00,1.25
7957.00,1.25
7956.00,1.25
7955.00,1.25
7954.00,1.25
7953.00,1.25
7952.00,1.25
7951.00,1.25
7950.00,1.25
7949.00,1.25
7948.00,1.25
7947.00,1.25
7946.00,1.25
7945.00,1.25
7944.00,1.25
7943.00,1.26
7942.00,1.26
7941.00,1.26
7940.00,1.26
7939.00,1.26
7938.00,1.26
7937.00,1.26
7936.00,1.26
7935.00,1.26
7934.00,1.26
7933.00,1.26
7932.00,1.27
7931.00,1.27
7930.00,1.27
7929.00,1.27
7928.00,1.27
7927.00,1.27
7926.00,1.27
7925.00,1.27
7924.00,1.27
7923.00,1.26
7922.00,1.26
7921.00,1.26
7920.00,1.26
7919.00,1.26
7918.00,1.26
7917.00,1.26
7916.00,1.26
7915.00,1.26
7914.00,1.26
7913.00,1.26
7912.00,1.26
7911.00,1.26
7910.00,1.26
7909.00,1.26
7908.00,1.26
7907.00,1.26
7906.00,1.26
7905.00,1.26
7904.00,1.26
7903.00,1.26
7902.00,1.26
7901.00,1.26
7900.00,1.26
7899.00,1.26
7898.00,1.26
7897.00,1.26
7896.00,1.26
7895.00,1.26
7894.00,1.27
7893.00,1.27
7892.00,1.27
7891.00,1.27
7890.00,1.27
7889.00,1.27
7888.00,1.27
7887.00,1.27
7886.00,1.27
7885.00,1.27
7884.00,1.27
7883.00,1.27
7882.00,1.27
7881.00,1.27
7880.00,1.27
7879.00,1.27
7878.00,1.27
7877.00,1.27
7876.00,1.27
7875.00,1.27
7874.00,1.27
7873.00,1.27
7872.00,1.27
7871.00,1.27
7870.00,1.27
7869.00,1.27
7868.00,1.27
7867.00,1.27
7866.00,1.27
7865.00,1.27
7864.00,1.27
7863.00,1.27
7862.00,1.27
7861.00,1.27
7860.00,1.27
7859.00,1.27
7858.00,1.27
7857.00,1.27
7856.00,1.27
7855.00,1.27
7854.00,1.27
7853.00,1.27
7852.00,1.27
7851.00,1.27
7850.00,1.27
7849.00,1.27
7848.00,1.27
7847.00,1.27
7846.00,1.27
7845.00,1.27
7844.00,1.27
7843.00,1.27
7842.00,1.27
7841.00,1.27
7840.00,1.27
7839.00,1.27
7838.00,1.27
7837.00,1.27
7836.00,1.27
7835.00,1.27
7834.00,1.27
7833.00,1.27
7832.00,1.27
7831.00,1.27
7830.00,1.27
7829.00,1.27
7828.00,1.27
7827.00,1.27
7826.00,1.27
7825.00,1.28
7824.00,1.28
7823.00,1.28
7822.00,1.28
7821.00,1.28
7820.00,1.28
7819.00,1.28
7818.00,1.28
7817.00,1.28
7816.00,1.28
7815.00,1.28
7814.00,1.28
7813.00,1.28
7812.00,1.28
7811.00,1.28
7810.00,1.28
7809.00,1.28
7808.00,1.28
7807.00,1.28
7806.00,1.28
7805.00,1.27
7804.00,1.27
7803.00,1.27
7802.00,1.27
7801.00,1.27
7800.00,1.27
7799.00,1.27
7798.00,1.27
7797.00,1.27
7796.00,1.27
7795.00,1.27
7794.00,1.27
7793.00,1.27
7792.00,1.27
7791.00,1.27
7790.00,1.27
7789.00,1.27
7788.00,1.27
7787.00,1.27
7786.00,1.27
7785.00,1.27
7784.00,1.27
7783.00,1.27
7782.00,1.26
7781.00,1.26
7780.00,1.26
7779.00,1.26
7778.00,1.26
7777.00,1.26
7776.00,1.26
7775.00,1.26
7774.00,1.26
7773.00,1.26
7772.00,1.26
7771.00,1.26
7770.00,1.26
7769.00,1.26
7768.00,1.26
7767.00,1.27
7766.00,1.27
7765.00,1.27
7764.00,1.27
7763.00,1.27
7762.00,1.27
7761.00,1.27
7760.00,1.27
7759.00,1.27
7758.00,1.27
7757.00,1.27
7756.00,1.27
7755.00,1.27
7754.00,1.27
7753.00,1.27
7752.00,1.27
7751.00,1.27
7750.00,1.27
7749.00,1.27
7748.00,1.27
7747.00,1.27
7746.00,1.27
7745.00,1.27
7744.00,1.27
7743.00,1.27
7742.00,1.28
7741.00,1.28
7740.00,1.28
7739.00,1.28
7738.00,1.28
7737.00,1.28
7736.00,1.28
7735.00,1.28
7734.00,1.28
7733.00,1.28
7732.00,1.28
7731.00,1.28
7730.00,1.28
7729.00,1.28
7728.00,1.28
7727.00,1.28
7726.00,1.28
7725.00,1.28
7724.00,1.28
7723.00,1.28
7722.00,1.28
7721.00,1.28
7720.00,1.28
7719.00,1.28
7718.00,1.28
7717.00,1.28
7716.00,1.28
7715.00,1.28
7714.00,1.28
7713.00,1.29
7712.00,1.29
7711.00,1.29
7710.00,1.29
7709.00,1.29
7708.00,1.29
7707.00,1.29
7706.00,1.29
7705.00,1.29
7704.00,1.29
7703.00,1.29
7702.00,1.29
7701.00,1.29
7700.00,1.29
7699.00,1.29
7698.00,1.29
7697.00,1.29
7696.00,1.29
7695.00,1.29
7694.00,1.29
7693.00,1.29
7692.00,1.29
7691.00,1.29
7690.00,1.29
7689.00,1.29
7688.00,1.29
7687.00,1.29
7686.00,1.29
7685.00,1.29
7684.00,1.29
7683.00,1.29
7682.00,1.29
7681.00,1.29
7680.00,1.29
7679.00,1.29
7678.00,1.29
7677.00,1.29
7676.00,1.29
7675.00,1.29
7674.00,1.29
7673.00,1.29
7672.00,1.29
7671.00,1.29
7670.00,1.29
7669.00,1.28
7668.00,1.28
7667.00,1.28
7666.00,1.28
7665.00,1.28
7664.00,1.28
7663.00,1.28
7662.00,1.28
7661.00,1.28
7660.00,1.28
7659.00,1.28
7658.00,1.28
7657.00,1.28
7656.00,1.28
7655.00,1.28
7654.00,1.28
7653.00,1.28
7652.00,1.28
7651.00,1.28
7650.00,1.28
7649.00,1.28
7648.00,1.28
7647.00,1.29
7646.00,1.29
7645.00,1.29
7644.00,1.29
7643.00,1.29
7642.00,1.29
7641.00,1.29
7640.00,1.29
7639.00,1.29
7638.00,1.29
7637.00,1.29
7636.00,1.29
7635.00,1.29
7634.00,1.28
7633.00,1.28
7632.00,1.28
7631.00,1.28
7630.00,1.28
7629.00,1.28
7628.00,1.28
7627.00,1.28
7626.00,1.28
7625.00,1.28
7624.00,1.28
7623.00,1.27
7622.00,1.27
7621.00,1.27
7620.00,1.27
7619.00,1.27
7618.00,1.27
7617.00,1.27
7616.00,1.27
7615.00,1.27
7614.00,1.27
7613.00,1.27
7612.00,1.27
7611.00,1.27
7610.00,1.27
7609.00,1.27
7608.00,1.27
7607.00,1.27
7606.00,1.27
7605.00,1.27
7604.00,1.27
7603.00,1.28
7602.00,1.28
7601.00,1.28
7600.00,1.28
7599.00,1.28
7598.00,1.28
7597.00,1.28
7596.00,1.28
7595.00,1.28
7594.00,1.29
7593.00,1.29
7592.00,1.29
7591.00,1.29
7590.00,1.29
7589.00,1.29
7588.00,1.29
7587.00,1.29
7586.00,1.29
7585.00,1.29
7584.00,1.29
7583.00,1.29
7582.00,1.29
7581.00,1.29
7580.00,1.29
7579.00,1.29
7578.00,1.29
7577.00,1.29
7576.00,1.28
7575.00,1.28
7574.00,1.28
7573.00,1.28
7572.00,1.28
7571.00,1.28
7570.00,1.28
7569.00,1.28
7568.00,1.28
7567.00,1.28
7566.00,1.28
7565.00,1.27
7564.00,1.27
7563.00,1.27
7562.00,1.27
7561.00,1.27
7560.00,1.27
7559.00,1.27
7558.00,1.27
7557.00,1.27
7556.00,1.27
7555.00,1.27
7554.00,1.27
7553.00,1.27
7552.00,1.27
7551.00,1.27
7550.00,1.27
7549.00,1.27
7548.00,1.27
7547.00,1.27
7546.00,1.27
7545.00,1.27
7544.00,1.27
7543.00,1.27
7542.00,1.27
7541.00,1.27
7540.00,1.27
7539.00,1.27
7538.00,1.27
7537.00,1.27
7536.00,1.27
7535.00,1.27
7534.00,1.27
7533.00,1.27
7532.00,1.27
7531.00,1.27
7530.00,1.27
7529.00,1.27
7528.00,1.27
7527.00,1.27
7526.00,1.27
7525.00,1.27
7524.00,1.27
7523.00,1.27
7522.00,1.26
7521.00,1.26
7520.00,1.26
7519.00,1.26
7518.00,1.26
7517.00,1.26
7516.00,1.26
7515.00,1.26
7514.00,1.26
7513.00,1.26
7512.00,1.26
7511.00,1.26
7510.00,1.26
7509.00,1.26
7508.00,1.26
7507.00,1.26
7506.00,1.26
7505.00,1.26
7504.00,1.26
7503.00,1.26
7502.00,1.25
7501.00,1.25
7500.00,1.25
7499.00,1.25
7498.00,1.25
7497.00,1.25
7496.00,1.25
7495.00,1.25
7494.00,1.25
7493.00,1.25
7492.00,1.25
7491.00,1.25
7490.00,1.25
7489.00,1.25
7488.00,1.25
7487.00,1.25
7486.00,1.25
7485.00,1.25
7484.00,1.25
7483.00,1.25
7482.00,1.25
7481.00,1.25
7480.00,1.25
7479.00,1.25
7478.00,1.25
7477.00,1.25
7476.00,1.25
7475.00,1.25
7474.00,1.25
7473.00,1.25
7472.00,1.25
7471.00,1.25
7470.00,1.25
7469.00,1.24
7468.00,1.24
7467.00,1.24
7466.00,1.24
7465.00,1.24
7464.00,1.24
7463.00,1.24
7462.00,1.24
7461.00,1.24
7460.00,1.24
7459.00,1.24
7458.00,1.24
7457.00,1.24
7456.00,1.24
7455.00,1.24
7454.00,1.24
7453.00,1.24
7452.00,1.24
7451.00,1.24
7450.00,1.24
7449.00,1.24
7448.00,1.24
7447.00,1.24
7446.00,1.24
7445.00,1.24
7444.00,1.24
7443.00,1.24
7442.00,1.24
7441.00,1.24
7440.00,1.24
7439.00,1.24
7438.00,1.24
7437.00,1.23
7436.00,1.23
7435.00,1.23
7434.00,1.23
7433.00,1.23
7432.00,1.23
7431.00,1.22
7430.00,1.22
7429.00,1.22
7428.00,1.22
7427.00,1.22
7426.00,1.21
7425.00,1.21
7424.00,1.21
7423.00,1.21
7422.00,1.21
7421.00,1.21
7420.00,1.21
7419.00,1.21
7418.00,1.21
7417.00,1.21
7416.00,1.21
7415.00,1.21
7414.00,1.21
7413.00,1.21
7412.00,1.21
7411.00,1.21
7410.00,1.21
7409.00,1.21
7408.00,1.21
7407.00,1.21
7406.00,1.21
7405.00,1.21
7404.00,1.21
7403.00,1.22
7402.00,1.22
7401.00,1.22
7400.00,1.22
7399.00,1.22
7398.00,1.22
7397.00,1.22
7396.00,1.22
7395.00,1.22
7394.00,1.22
7393.00,1.22
7392.00,1.21
7391.00,1.21
7390.00,1.21
7389.00,1.21
7388.00,1.21
7387.00,1.21
7386.00,1.21
7385.00,1.21
7384.00,1.21
7383.00,1.20
7382.00,1.20
7381.00,1.20
7380.00,1.20
7379.00,1.20
7378.00,1.20
7377.00,1.20
7376.00,1.19
7375.00,1.19
7374.00,1.19
7373.00,1.19
7372.00,1.19
7371.00,1.19
7370.00,1.19
7369.00,1.19
7368.00,1.19
7367.00,1.19
7366.00,1.19
7365.00,1.19
7364.00,1.19
7363.00,1.19
7362.00,1.19
7361.00,1.19
7360.00,1.19
7359.00,1.19
7358.00,1.19
7357.00,1.19
7356.00,1.19
7355.00,1.19
7354.00,1.19
7353.00,1.19
7352.00,1.19
7351.00,1.19
7350.00,1.19
7349.00,1.19
7348.00,1.19
7347.00,1.18
7346.00,1.18
7345.00,1.18
7344.00,1.18
7343.00,1.18
7342.00,1.18
7341.00,1.18
7340.00,1.18
7339.00,1.18
7338.00,1.18
7337.00,1.17
7336.00,1.17
7335.00,1.17
7334.00,1.17
7333.00,1.17
7332.00,1.17
7331.00,1.17
7330.00,1.17
7329.00,1.17
7328.00,1.17
7327.00,1.17
7326.00,1.17
7325.00,1.17
7324.00,1.17
7323.00,1.18
7322.00,1.18
7321.00,1.18
7320.00,1.18
7319.00,1.18
7318.00,1.18
7317.00,1.18
7316.00,1.18
7315.00,1.18
7314.00,1.18
7313.00,1.18
7312.00,1.18
7311.00,1.18
7310.00,1.18
7309.00,1.18
7308.00,1.17
7307.00,1.17
7306.00,1.17
7305.00,1.17
7304.00,1.17
7303.00,1.17
7302.00,1.17
7301.00,1.16
7300.00,1.16
7299.00,1.16
7298.00,1.16
7297.00,1.16
7296.00,1.16
7295.00,1.16
7294.00,1.15
7293.00,1.15
7292.00,1.15
7291.00,1.15
7290.00,1.15
7289.00,1.15
7288.00,1.15
7287.00,1.14
7286.00,1.14
7285.00,1.14
7284.00,1.14
7283.00,1.14
7282.00,1.14
7281.00,1.14
7280.00,1.14
7279.00,1.14
7278.00,1.13
7277.00,1.13
7276.00,1.13
7275.00,1.13
7274.00,1.13
7273.00,1.13
7272.00,1.13
7271.00,1.13
7270.00,1.13
7269.00,1.13
7268.00,1.13
7267.00,1.12
7266.00,1.12
7265.00,1.12
7264.00,1.12
7263.00,1.12
7262.00,1.12
7261.00,1.12
7260.00,1.12
7259.00,1.11
7258.00,1.11
7257.00,1.11
7256.00,1.11
7255.00,1.11
7254.00,1.11
7253.00,1.10
7252.00,1.10
7251.00,1.10
7250.00,1.10
7249.00,1.10
7248.00,1.09
7247.00,1.09
7246.00,1.09
7245.00,1.09
7244.00,1.08
7243.00,1.08
7242.00,1.08
7241.00,1.07
7240.00,1.07
7239.00,1.07
7238.00,1.07
7237.00,1.06
7236.00,1.06
7235.00,1.06
7234.00,1.05
7233.00,1.05
7232.00,1.05
7231.00,1.04
7230.00,1.04
7229.00,1.03
7228.00,1.03
7227.00,1.03
7226.00,1.02
7225.00,1.02
7224.00,1.01
7223.00,1.01
7222.00,1.01
7221.00,1.00
7220.00,1.00
7219.00,0.99
7218.00,0.99
7217.00,0.99
7216.00,0.98
7215.00,0.98
7214.00,0.98
7213.00,0.97
7212.00,0.97
7211.00,0.97
7210.00,0.97
7209.00,0.97
7208.00,0.96
7207.00,0.96
7206.00,0.96
7205.00,0.96
7204.00,0.96
7203.00,0.95
7202.00,0.95
7201.00,0.95
7200.00,0.95
7199.00,0.94
7198.00,0.94
7197.00,0.94
7196.00,0.93
7195.00,0.93
7194.00,0.93
7193.00,0.92
7192.00,0.92
7191.00,0.91
7190.00,0.91
7189.00,0.91
7188.00,0.90
7187.00,0.90
7186.00,0.89
7185.00,0.89
7184.00,0.88
7183.00,0.88
7182.00,0.88
7181.00,0.87
7180.00,0.87
7179.00,0.86
7178.00,0.86
7177.00,0.86
7176.00,0.85
7175.00,0.85
7174.00,0.85
7173.00,0.84
7172.00,0.84
7171.00,0.84
7170.00,0.83
7169.00,0.83
7168.00,0.83
7167.00,0.83
7166.00,0.82
7165.00,0.82
7164.00,0.82
7163.00,0.82
7162.00,0.81
7161.00,0.81
7160.00,0.81
7159.00,0.81
7158.00,0.80
7157.00,0.80
7156.00,0.80
7155.00,0.80
7154.00,0.79
7153.00,0.79
7152.00,0.79
7151.00,0.79
7150.00,0.78
7149.00,0.78
7148.00,0.78
7147.00,0.78
7146.00,0.77
7145.00,0.77
7144.00,0.77
7143.00,0.77
7142.00,0.76
7141.00,0.76
7140.00,0.76
7139.00,0.75
7138.00,0.75
7137.00,0.75
7136.00,0.75
7135.00,0.74
7134.00,0.74
7133.00,0.74
7132.00,0.73
7131.00,0.73
7130.00,0.73
7129.00,0.73
7128.00,0.72
7127.00,0.72
7126.00,0.72
7125.00,0.72
7124.00,0.71
7123.00,0.71
7122.00,0.71
7121.00,0.71
7120.00,0.70
7119.00,0.70
7118.00,0.70
7117.00,0.70
7116.00,0.70
7115.00,0.69
7114.00,0.69
7113.00,0.69
7112.00,0.69
7111.00,0.68
7110.00,0.68
7109.00,0.68
7108.00,0.68
7107.00,0.68
7106.00,0.67
7105.00,0.67
7104.00,0.67
7103.00,0.67
7102.00,0.67
7101.00,0.66
7100.00,0.66
7099.00,0.66
7098.00,0.66
7097.00,0.66
7096.00,0.66
7095.00,0.65
7094.00,0.65
7093.00,0.65
7092.00,0.65
7091.00,0.65
7090.00,0.65
7089.00,0.65
7088.00,0.64
7087.00,0.64
7086.00,0.64
7085.00,0.64
7084.00,0.64
7083.00,0.64
7082.00,0.64
7081.00,0.64
7080.00,0.63
7079.00,0.63
7078.00,0.63
7077.00,0.63
7076.00,0.63
7075.00,0.63
7074.00,0.63
7073.00,0.63
7072.00,0.63
7071.00,0.63
7070.00,0.62
7069.00,0.62
7068.00,0.62
7067.00,0.62
7066.00,0.62
7065.00,0.62
7064.00,0.62
7063.00,0.62
7062.00,0.62
7061.00,0.62
7060.00,0.62
7059.00,0.61
7058.00,0.61
7057.00,0.61
7056.00,0.61
7055.00,0.61
7054.00,0.61
7053.00,0.61
7052.00,0.61
7051.00,0.61
7050.00,0.61
7049.00,0.60
7048.00,0.60
7047.00,0.60
7046.00,0.60
7045.00,0.60
7044.00,0.60
7043.00,0.60
7042.00,0.59
7041.00,0.59
7040.00,0.59
7039.00,0.59
7038.00,0.59
7037.00,0.59
7036.00,0.59
7035.00,0.59
7034.00,0.59
7033.00,0.59
7032.00,0.59
7031.00,0.59
7030.00,0.59
7029.00,0.59
7028.00,0.59
7027.00,0.59
7026.00,0.59
7025.00,0.59
7024.00,0.59
7023.00,0.59
7022.00,0.59
7021.00,0.59
7020.00,0.59
7019.00,0.59
7018.00,0.59
7017.00,0.59
7016.00,0.59
7015.00,0.58
7014.00,0.58
7013.00,0.58
7012.00,0.58
7011.00,0.58
7010.00,0.58
7009.00,0.58
7008.00,0.58
7007.00,0.58
7006.00,0.58
7005.00,0.58
7004.00,0.58
7003.00,0.57
7002.00,0.57
7001.00,0.57
7000.00,0.57
6999.00,0.57
6998.00,0.57
6997.00,0.57
6996.00,0.56
6995.00,0.56
6994.00,0.56
6993.00,0.56
6992.00,0.56
6991.00,0.56
6990.00,0.56
6989.00,0.56
6988.00,0.56
6987.00,0.56
6986.00,0.56
6985.00,0.56
6984.00,0.56
6983.00,0.56
6982.00,0.56
6981.00,0.56
6980.00,0.56
6979.00,0.56
6978.00,0.56
6977.00,0.56
6976.00,0.56
6975.00,0.56
6974.00,0.56
6973.00,0.56
6972.00,0.56
6971.00,0.56
6970.00,0.56
6969.00,0.56
6968.00,0.56
6967.00,0.56
6966.00,0.56
6965.00,0.56
6964.00,0.56
6963.00,0.56
6962.00,0.56
6961.00,0.56
6960.00,0.56
6959.00,0.56
6958.00,0.56
6957.00,0.56
6956.00,0.56
6955.00,0.56
6954.00,0.56
6953.00,0.56
6952.00,0.56
6951.00,0.55
6950.00,0.55
6949.00,0.55
6948.00,0.55
6947.00,0.55
6946.00,0.55
6945.00,0.55
6944.00,0.55
6943.00,0.55
6942.00,0.55
6941.00,0.55
6940.00,0.55
6939.00,0.55
6938.00,0.55
6937.00,0.55
6936.00,0.55
6935.00,0.55
6934.00,0.55
6933.00,0.55
6932.00,0.55
6931.00,0.55
6930.00,0.55
6929.00,0.55
6928.00,0.55
6927.00,0.55
6926.00,0.55
6925.00,0.55
6924.00,0.55
6923.00,0.55
6922.00,0.55
6921.00,0.55
6920.00,0.55
6919.00,0.55
6918.00,0.55
6917.00,0.55
6916.00,0.55
6915.00,0.55
6914.00,0.55
6913.00,0.55
6912.00,0.55
6911.00,0.55
6910.00,0.55
6909.00,0.55
6908.00,0.55
6907.00,0.55
6906.00,0.55
6905.00,0.55
6904.00,0.55
6903.00,0.55
6902.00,0.55
6901.00,0.55
6900.00,0.55
6899.00,0.55
6898.00,0.55
6897.00,0.55
6896.00,0.55
6895.00,0.54
6894.00,0.54
6893.00,0.54
6892.00,0.54
6891.00,0.54
6890.00,0.54
6889.00,0.54
6888.00,0.54
6887.00,0.54
6886.00,0.54
6885.00,0.54
6884.00,0.54
6883.00,0.54
6882.00,0.54
6881.00,0.54
6880.00,0.54
6879.00,0.54
6878.00,0.55
6877.00,0.55
6876.00,0.55
6875.00,0.55
6874.00,0.55
6873.00,0.55
6872.00,0.55
6871.00,0.55
6870.00,0.55
6869.00,0.56
6868.00,0.56
6867.00,0.56
6866.00,0.56
6865.00,0.56
6864.00,0.56
6863.00,0.56
6862.00,0.56
6861.00,0.55
6860.00,0.55
6859.00,0.55
6858.00,0.55
6857.00,0.55
6856.00,0.55
6855.00,0.55
6854.00,0.55
6853.00,0.55
6852.00,0.55
6851.00,0.54
6850.00,0.54
6849.00,0.54
6848.00,0.54
6847.00,0.54
6846.00,0.54
6845.00,0.54
6844.00,0.54
6843.00,0.54
6842.00,0.54
6841.00,0.54
6840.00,0.54
6839.00,0.54
6838.00,0.54
6837.00,0.55
6836.00,0.55
6835.00,0.55
6834.00,0.55
6833.00,0.55
6832.00,0.55
6831.00,0.55
6830.00,0.55
6829.00,0.55
6828.00,0.55
6827.00,0.55
6826.00,0.55
6825.00,0.55
6824.00,0.55
6823.00,0.55
6822.00,0.55
6821.00,0.55
6820.00,0.55
6819.00,0.55
6818.00,0.55
6817.00,0.55
6816.00,0.55
6815.00,0.56
6814.00,0.56
6813.00,0.56
6812.00,0.56
6811.00,0.56
6810.00,0.56
6809.00,0.56
6808.00,0.56
6807.00,0.56
6806.00,0.56
6805.00,0.56
6804.00,0.56
6803.00,0.56
6802.00,0.56
6801.00,0.56
6800.00,0.56
6799.00,0.56
6798.00,0.56
6797.00,0.56
6796.00,0.56
6795.00,0.56
6794.00,0.56
6793.00,0.56
6792.00,0.56
6791.00,0.56
6790.00,0.56
6789.00,0.56
6788.00,0.56
6787.00,0.56
6786.00,0.56
6785.00,0.56
6784.00,0.56
6783.00,0.57
6782.00,0.57
6781.00,0.57
6780.00,0.57
6779.00,0.57
6778.00,0.57
6777.00,0.57
6776.00,0.57
6775.00,0.57
6774.00,0.57
6773.00,0.57
6772.00,0.57
6771.00,0.57
6770.00,0.57
6769.00,0.57
6768.00,0.57
6767.00,0.57
6766.00,0.57
6765.00,0.58
6764.00,0.58
6763.00,0.58
6762.00,0.58
6761.00,0.58
6760.00,0.58
6759.00,0.58
6758.00,0.58
6757.00,0.58
6756.00,0.58
6755.00,0.58
6754.00,0.58
6753.00,0.58
6752.00,0.58
6751.00,0.58
6750.00,0.58
6749.00,0.58
6748.00,0.58
6747.00,0.59
6746.00,0.59
6745.00,0.59
6744.00,0.59
6743.00,0.59
6742.00,0.59
6741.00,0.59
6740.00,0.59
6739.00,0.60
6738.00,0.60
6737.00,0.60
6736.00,0.60
6735.00,0.60
6734.00,0.60
6733.00,0.60
6732.00,0.60
6731.00,0.60
6730.00,0.60
6729.00,0.60
6728.00,0.60
6727.00,0.60
6726.00,0.60
6725.00,0.60
6724.00,0.60
6723.00,0.60
6722.00,0.60
6721.00,0.60
6720.00,0.60
6719.00,0.60
6718.00,0.60
6717.00,0.60
6716.00,0.60
6715.00,0.60
6714.00,0.60
6713.00,0.61
6712.00,0.61
6711.00,0.61
6710.00,0.61
6709.00,0.61
6708.00,0.61
6707.00,0.61
6706.00,0.61
6705.00,0.61
6704.00,0.61
6703.00,0.61
6702.00,0.61
6701.00,0.61
6700.00,0.62
6699.00,0.62
6698.00,0.62
6697.00,0.62
6696.00,0.62
6695.00,0.62
6694.00,0.62
6693.00,0.62
6692.00,0.62
6691.00,0.62
6690.00,0.62
6689.00,0.62
6688.00,0.62
6687.00,0.63
6686.00,0.63
6685.00,0.63
6684.00,0.63
6683.00,0.63
6682.00,0.63
6681.00,0.63
6680.00,0.63
6679.00,0.63
6678.00,0.63
6677.00,0.63
6676.00,0.63
6675.00,0.63
6674.00,0.63
6673.00,0.64
6672.00,0.64
6671.00,0.64
6670.00,0.64
6669.00,0.64
6668.00,0.64
6667.00,0.64
6666.00,0.64
6665.00,0.64
6664.00,0.65
6663.00,0.65
6662.00,0.65
6661.00,0.65
6660.00,0.65
6659.00,0.65
6658.00,0.66
6657.00,0.66
6656.00,0.66
6655.00,0.66
6654.00,0.66
6653.00,0.66
6652.00,0.66
6651.00,0.66
6650.00,0.67
6649.00,0.67
6648.00,0.67
6647.00,0.67
6646.00,0.67
6645.00,0.67
6644.00,0.67
6643.00,0.67
6642.00,0.67
6641.00,0.67
6640.00,0.67
6639.00,0.68
6638.00,0.68
6637.00,0.68
6636.00,0.68
6635.00,0.68
6634.00,0.68
6633.00,0.68
6632.00,0.68
6631.00,0.68
6630.00,0.68
6629.00,0.68
6628.00,0.68
6627.00,0.68
6626.00,0.68
6625.00,0.68
6624.00,0.68
6623.00,0.68
6622.00,0.68
6621.00,0.68
6620.00,0.68
6619.00,0.69
6618.00,0.69
6617.00,0.69
6616.00,0.69
6615.00,0.69
6614.00,0.69
6613.00,0.69
6612.00,0.69
6611.00,0.69
6610.00,0.70
6609.00,0.70
6608.00,0.70
6607.00,0.70
6606.00,0.70
6605.00,0.70
6604.00,0.70
6603.00,0.71
6602.00,0.71
6601.00,0.71
6600.00,0.71
6599.00,0.71
6598.00,0.71
6597.00,0.71
6596.00,0.71
6595.00,0.71
6594.00,0.71
6593.00,0.71
6592.00,0.71
6591.00,0.71
6590.00,0.72
6589.00,0.72
6588.00,0.72
6587.00,0.72
6586.00,0.72
6585.00,0.72
6584.00,0.72
6583.00,0.72
6582.00,0.72
6581.00,0.72
6580.00,0.73
6579.00,0.73
6578.00,0.73
6577.00,0.73
6576.00,0.73
6575.00,0.73
6574.00,0.73
6573.00,0.73
6572.00,0.73
6571.00,0.73
6570.00,0.73
6569.00,0.74
6568.00,0.74
6567.00,0.74
6566.00,0.74
6565.00,0.74
6564.00,0.74
6563.00,0.74
6562.00,0.74
6561.00,0.74
6560.00,0.74
6559.00,0.74
6558.00,0.74
6557.00,0.74
6556.00,0.74
6555.00,0.75
6554.00,0.75
6553.00,0.75
6552.00,0.75
6551.00,0.75
6550.00,0.75
6549.00,0.75
6548.00,0.75
6547.00,0.75
6546.00,0.75
6545.00,0.76
6544.00,0.76
6543.00,0.76
6542.00,0.76
6541.00,0.76
6540.00,0.76
6539.00,0.76
6538.00,0.76
6537.00,0.76
6536.00,0.77
6535.00,0.77
6534.00,0.77
6533.00,0.77
6532.00,0.77
6531.00,0.77
6530.00,0.77
6529.00,0.77
6528.00,0.77
6527.00,0.78
6526.00,0.78
6525.00,0.78
6524.00,0.78
6523.00,0.78
6522.00,0.78
6521.00,0.78
6520.00,0.78
6519.00,0.78
6518.00,0.78
6517.00,0.78
6516.00,0.78
6515.00,0.78
6514.00,0.79
6513.00,0.79
6512.00,0.79
6511.00,0.79
6510.00,0.79
6509.00,0.79
6508.00,0.79
6507.00,0.79
6506.00,0.79
6505.00,0.79
6504.00,0.79
6503.00,0.80
6502.00,0.80
6501.00,0.80
6500.00,0.80
6499.00,0.80
6498.00,0.80
6497.00,0.80
6496.00,0.80
6495.00,0.80
6494.00,0.80
6493.00,0.80
6492.00,0.80
6491.00,0.80
6490.00,0.80
6489.00,0.80
6488.00,0.80
6487.00,0.80
6486.00,0.80
6485.00,0.80
6484.00,0.81
6483.00,0.81
6482.00,0.81
6481.00,0.81
6480.00,0.81
6479.00,0.81
6478.00,0.81
6477.00,0.81
6476.00,0.81
6475.00,0.81
6474.00,0.81
6473.00,0.82
6472.00,0.82
6471.00,0.82
6470.00,0.82
6469.00,0.82
6468.00,0.82
6467.00,0.82
6466.00,0.82
6465.00,0.82
6464.00,0.82
6463.00,0.82
6462.00,0.82
6461.00,0.83
6460.00,0.83
6459.00,0.83
6458.00,0.83
6457.00,0.83
6456.00,0.83
6455.00,0.83
6454.00,0.83
6453.00,0.83
6452.00,0.84
6451.00,0.84
6450.00,0.84
6449.00,0.84
6448.00,0.84
6447.00,0.84
6446.00,0.84
6445.00,0.84
6444.00,0.84
6443.00,0.84
6442.00,0.85
6441.00,0.85
6440.00,0.85
6439.00,0.85
6438.00,0.85
6437.00,0.85
6436.00,0.85
6435.00,0.85
6434.00,0.85
6433.00,0.85
6432.00,0.85
6431.00,0.86
6430.00,0.86
6429.00,0.86
6428.00,0.86
6427.00,0.86
6426.00,0.86
6425.00,0.86
6424.00,0.86
6423.00,0.86
6422.00,0.86
6421.00,0.86
6420.00,0.86
6419.00,0.86
6418.00,0.87
6417.00,0.87
6416.00,0.87
6415.00,0.87
6414.00,0.87
6413.00,0.87
6412.00,0.87
6411.00,0.87
6410.00,0.87
6409.00,0.87
6408.00,0.87
6407.00,0.87
6406.00,0.87
6405.00,0.88
6404.00,0.88
6403.00,0.88
6402.00,0.88
6401.00,0.88
6400.00,0.88
6399.00,0.88
6398.00,0.88
6397.00,0.89
6396.00,0.89
6395.00,0.89
6394.00,0.89
6393.00,0.89
6392.00,0.89
6391.00,0.89
6390.00,0.89
6389.00,0.89
6388.00,0.89
6387.00,0.89
6386.00,0.89
6385.00,0.89
6384.00,0.89
6383.00,0.89
6382.00,0.89
6381.00,0.89
6380.00,0.89
6379.00,0.89
6378.00,0.90
6377.00,0.90
6376.00,0.90
6375.00,0.90
6374.00,0.90
6373.00,0.90
6372.00,0.90
6371.00,0.90
6370.00,0.90
6369.00,0.91
6368.00,0.91
6367.00,0.91
6366.00,0.91
6365.00,0.91
6364.00,0.91
6363.00,0.91
6362.00,0.91
6361.00,0.91
6360.00,0.91
6359.00,0.91
6358.00,0.91
6357.00,0.92
6356.00,0.92
6355.00,0.92
6354.00,0.92
6353.00,0.92
6352.00,0.92
6351.00,0.92
6350.00,0.92
6349.00,0.92
6348.00,0.92
6347.00,0.92
6346.00,0.93
6345.00,0.93
6344.00,0.93
6343.00,0.93
6342.00,0.93
6341.00,0.93
6340.00,0.93
6339.00,0.93
6338.00,0.93
6337.00,0.94
6336.00,0.94
6335.00,0.94
6334.00,0.94
6333.00,0.94
6332.00,0.94
6331.00,0.94
6330.00,0.94
6329.00,0.94
6328.00,0.95
6327.00,0.95
6326.00,0.95
6325.00,0.95
6324.00,0.95
6323.00,0.95
6322.00,0.95
6321.00,0.95
6320.00,0.95
6319.00,0.95
6318.00,0.96
6317.00,0.96
6316.00,0.96
6315.00,0.96
6314.00,0.96
6313.00,0.96
6312.00,0.96
6311.00,0.96
6310.00,0.96
6309.00,0.96
6308.00,0.96
6307.00,0.96
6306.00,0.96
6305.00,0.97
6304.00,0.97
6303.00,0.97
6302.00,0.97
6301.00,0.97
6300.00,0.97
6299.00,0.97
6298.00,0.97
6297.00,0.97
6296.00,0.98
6295.00,0.98
6294.00,0.98
6293.00,0.98
6292.00,0.98
6291.00,0.98
6290.00,0.98
6289.00,0.99
6288.00,0.99
6287.00,0.99
6286.00,0.99
6285.00,0.99
6284.00,0.99
6283.00,1.00
6282.00,1.00
6281.00,1.00
6280.00,1.00
6279.00,1.00
6278.00,1.00
6277.00,1.00
6276.00,1.00
6275.00,1.00
6274.00,1.01
6273.00,1.01
6272.00,1.01
6271.00,1.01
6270.00,1.01
6269.00,1.01
6268.00,1.01
6267.00,1.01
6266.00,1.01
6265.00,1.01
6264.00,1.01
6263.00,1.02
6262.00,1.02
6261.00,1.02
6260.00,1.02
6259.00,1.02
6258.00,1.02
6257.00,1.02
6256.00,1.02
6255.00,1.03
6254.00,1.03
6253.00,1.03
6252.00,1.03
6251.00,1.03
6250.00,1.03
6249.00,1.03
6248.00,1.03
6247.00,1.03
6246.00,1.03
6245.00,1.03
6244.00,1.04
6243.00,1.04
6242.00,1.04
6241.00,1.04
6240.00,1.04
6239.00,1.04
6238.00,1.04
6237.00,1.04
6236.00,1.04
6235.00,1.04
6234.00,1.04
6233.00,1.04
6232.00,1.04
6231.00,1.04
6230.00,1.05
6229.00,1.05
6228.00,1.05
6227.00,1.05
6226.00,1.05
6225.00,1.05
6224.00,1.05
6223.00,1.05
6222.00,1.05
6221.00,1.05
6220.00,1.05
6219.00,1.06
6218.00,1.06
6217.00,1.06
6216.00,1.06
6215.00,1.06
6214.00,1.06
6213.00,1.07
6212.00,1.07
6211.00,1.07
6210.00,1.07
6209.00,1.07
6208.00,1.07
6207.00,1.08
6206.00,1.08
6205.00,1.08
6204.00,1.08
6203.00,1.08
6202.00,1.08
6201.00,1.08
6200.00,1.09
6199.00,1.09
6198.00,1.09
6197.00,1.09
6196.00,1.09
6195.00,1.09
6194.00,1.09
6193.00,1.10
6192.00,1.10
6191.00,1.10
6190.00,1.10
6189.00,1.10
6188.00,1.10
6187.00,1.10
6186.00,1.10
6185.00,1.10
6184.00,1.10
6183.00,1.10
6182.00,1.10
6181.00,1.11
6180.00,1.11
6179.00,1.11
6178.00,1.11
6177.00,1.11
6176.00,1.11
6175.00,1.11
6174.00,1.11
6173.00,1.11
6172.00,1.11
6171.00,1.11
6170.00,1.12
6169.00,1.12
6168.00,1.12
6167.00,1.12
6166.00,1.12
6165.00,1.12
6164.00,1.12
6163.00,1.12
6162.00,1.12
6161.00,1.13
6160.00,1.13
6159.00,1.13
6158.00,1.13
6157.00,1.13
6156.00,1.13
6155.00,1.13
6154.00,1.13
6153.00,1.13
6152.00,1.14
6151.00,1.14
6150.00,1.14
6149.00,1.14
6148.00,1.14
6147.00,1.14
6146.00,1.15
6145.00,1.15
6144.00,1.15
6143.00,1.15
6142.00,1.15
6141.00,1.15
6140.00,1.16
6139.00,1.16
6138.00,1.16
6137.00,1.16
6136.00,1.16
6135.00,1.16
6134.00,1.17
6133.00,1.17
6132.00,1.17
6131.00,1.17
6130.00,1.17
6129.00,1.17
6128.00,1.17
6127.00,1.17
6126.00,1.17
6125.00,1.17
6124.00,1.17
6123.00,1.18
6122.00,1.18
6121.00,1.18
6120.00,1.18
6119.00,1.18
6118.00,1.18
6117.00,1.18
6116.00,1.18
6115.00,1.18
6114.00,1.18
6113.00,1.18
6112.00,1.19
6111.00,1.19
6110.00,1.19
6109.00,1.19
6108.00,1.19
6107.00,1.19
6106.00,1.19
6105.00,1.20
6104.00,1.20
6103.00,1.20
6102.00,1.20
6101.00,1.20
6100.00,1.20
6099.00,1.20
6098.00,1.20
6097.00,1.20
6096.00,1.21
6095.00,1.21
6094.00,1.21
6093.00,1.21
6092.00,1.21
6091.00,1.21
6090.00,1.21
6089.00,1.21
6088.00,1.21
6087.00,1.21
6086.00,1.21
6085.00,1.21
6084.00,1.22
6083.00,1.22
6082.00,1.22
6081.00,1.22
6080.00,1.22
6079.00,1.22
6078.00,1.22
6077.00,1.22
6076.00,1.22
6075.00,1.23
6074.00,1.23
6073.00,1.23
6072.00,1.23
6071.00,1.23
6070.00,1.23
6069.00,1.23
6068.00,1.23
6067.00,1.24
6066.00,1.24
6065.00,1.24
6064.00,1.24
6063.00,1.24
6062.00,1.24
6061.00,1.24
6060.00,1.24
6059.00,1.24
6058.00,1.24
6057.00,1.24
6056.00,1.24
6055.00,1.24
6054.00,1.24
6053.00,1.24
6052.00,1.24
6051.00,1.24
6050.00,1.24
6049.00,1.24
6048.00,1.25
6047.00,1.25
6046.00,1.25
6045.00,1.25
6044.00,1.25
6043.00,1.25
6042.00,1.25
6041.00,1.25
6040.00,1.25
6039.00,1.25
6038.00,1.26
6037.00,1.26
6036.00,1.26
6035.00,1.26
6034.00,1.26
6033.00,1.26
6032.00,1.26
6031.00,1.26
6030.00,1.26
6029.00,1.26
6028.00,1.26
6027.00,1.26
6026.00,1.26
6025.00,1.26
6024.00,1.26
6023.00,1.26
6022.00,1.26
6021.00,1.26
6020.00,1.26
6019.00,1.26
6018.00,1.27
6017.00,1.27
6016.00,1.27
6015.00,1.27
6014.00,1.27
6013.00,1.27
6012.00,1.26
6011.00,1.26
6010.00,1.26
6009.00,1.26
6008.00,1.26
6007.00,1.26
6006.00,1.26
6005.00,1.26
6004.00,1.26
6003.00,1.26
6002.00,1.26
6001.00,1.26
6000.00,1.26
5999.00,1.26
5998.00,1.26
5997.00,1.25
5996.00,1.25
5995.00,1.25
5994.00,1.25
5993.00,1.25
5992.00,1.25
5991.00,1.25
5990.00,1.25
5989.00,1.25
5988.00,1.25
5987.00,1.25
5986.00,1.25
5985.00,1.24
5984.00,1.24
5983.00,1.24
5982.00,1.24
5981.00,1.24
5980.00,1.23
5979.00,1.23
5978.00,1.23
5977.00,1.23
5976.00,1.22
5975.00,1.22
5974.00,1.22
5973.00,1.22
5972.00,1.21
5971.00,1.21
5970.00,1.21
5969.00,1.20
5968.00,1.20
5967.00,1.19
5966.00,1.19
5965.00,1.19
5964.00,1.18
5963.00,1.18
5962.00,1.17
5961.00,1.17
5960.00,1.17
5959.00,1.16
5958.00,1.16
5957.00,1.16
5956.00,1.15
5955.00,1.15
5954.00,1.15
5953.00,1.14
5952.00,1.14
5951.00,1.14
5950.00,1.13
5949.00,1.13
5948.00,1.13
5947.00,1.13
5946.00,1.13
5945.00,1.13
5944.00,1.13
5943.00,1.12
5942.00,1.12
5941.00,1.12
5940.00,1.12
5939.00,1.12
5938.00,1.12
5937.00,1.12
5936.00,1.12
5935.00,1.12
5934.00,1.12
5933.00,1.12
5932.00,1.12
5931.00,1.12
5930.00,1.11
5929.00,1.11
5928.00,1.11
5927.00,1.11
5926.00,1.11
5925.00,1.11
5924.00,1.11
5923.00,1.11
5922.00,1.10
5921.00,1.10
5920.00,1.10
5919.00,1.10
5918.00,1.10
5917.00,1.09
5916.00,1.09
5915.00,1.09
5914.00,1.09
5913.00,1.09
5912.00,1.08
5911.00,1.08
5910.00,1.08
5909.00,1.08
5908.00,1.08
5907.00,1.08
5906.00,1.08
5905.00,1.08
5904.00,1.08
5903.00,1.08
5902.00,1.08
5901.00,1.08
5900.00,1.08
5899.00,1.08
5898.00,1.08
5897.00,1.08
5896.00,1.09
5895.00,1.09
5894.00,1.09
5893.00,1.09
5892.00,1.09
5891.00,1.10
5890.00,1.10
5889.00,1.10
5888.00,1.10
5887.00,1.10
5886.00,1.11
5885.00,1.11
5884.00,1.11
5883.00,1.11
5882.00,1.11
5881.00,1.12
5880.00,1.12
5879.00,1.12
5878.00,1.12
5877.00,1.12
5876.00,1.13
5875.00,1.13
5874.00,1.13
5873.00,1.13
5872.00,1.13
5871.00,1.13
5870.00,1.14
5869.00,1.14
5868.00,1.14
5867.00,1.14
5866.00,1.14
5865.00,1.14
5864.00,1.14
5863.00,1.15
5862.00,1.15
5861.00,1.15
5860.00,1.15
5859.00,1.15
5858.00,1.15
5857.00,1.15
5856.00,1.15
5855.00,1.15
5854.00,1.15
5853.00,1.15
5852.00,1.15
5851.00,1.15
5850.00,1.15
5849.00,1.15
5848.00,1.15
5847.00,1.15
5846.00,1.15
5845.00,1.15
5844.00,1.15
5843.00,1.15
5842.00,1.15
5841.00,1.15
5840.00,1.15
5839.00,1.15
5838.00,1.15
5837.00,1.15
5836.00,1.15
5835.00,1.15
5834.00,1.15
5833.00,1.15
5832.00,1.15
5831.00,1.15
5830.00,1.15
5829.00,1.15
5828.00,1.15
5827.00,1.15
5826.00,1.15
5825.00,1.15
5824.00,1.15
5823.00,1.15
5822.00,1.15
5821.00,1.15
5820.00,1.15
5819.00,1.15
5818.00,1.15
5817.00,1.15
5816.00,1.15
5815.00,1.15
5814.00,1.15
5813.00,1.15
5812.00,1.15
5811.00,1.15
5810.00,1.15
5809.00,1.15
5808.00,1.15
5807.00,1.15
5806.00,1.15
5805.00,1.15
5804.00,1.15
5803.00,1.14
5802.00,1.14
5801.00,1.14
5800.00,1.14
5799.00,1.14
5798.00,1.14
5797.00,1.14
5796.00,1.14
5795.00,1.13
5794.00,1.13
5793.00,1.13
5792.00,1.13
5791.00,1.13
5790.00,1.13
5789.00,1.12
5788.00,1.12
5787.00,1.12
5786.00,1.12
5785.00,1.12
5784.00,1.12
5783.00,1.12
5782.00,1.11
5781.00,1.11
5780.00,1.11
5779.00,1.11
5778.00,1.11
5777.00,1.11
5776.00,1.11
5775.00,1.11
5774.00,1.11
5773.00,1.11
5772.00,1.11
5771.00,1.11
5770.00,1.11
5769.00,1.11
5768.00,1.11
5767.00,1.12
5766.00,1.12
5765.00,1.12
5764.00,1.12
5763.00,1.12
5762.00,1.12
5761.00,1.12
5760.00,1.12
5759.00,1.13
5758.00,1.13
5757.00,1.13
5756.00,1.13
5755.00,1.13
5754.00,1.13
5753.00,1.14
5752.00,1.14
5751.00,1.14
5750.00,1.14
5749.00,1.14
5748.00,1.15
5747.00,1.15
5746.00,1.15
5745.00,1.15
5744.00,1.15
5743.00,1.15
5742.00,1.15
5741.00,1.16
5740.00,1.16
5739.00,1.16
5738.00,1.16
5737.00,1.16
5736.00,1.16
5735.00,1.16
5734.00,1.16
5733.00,1.16
5732.00,1.16
5731.00,1.16
5730.00,1.16
5729.00,1.17
5728.00,1.17
5727.00,1.17
5726.00,1.17
5725.00,1.16
5724.00,1.16
5723.00,1.16
5722.00,1.16
5721.00,1.16
5720.00,1.16
5719.00,1.16
5718.00,1.16
5717.00,1.16
5716.00,1.16
5715.00,1.16
5714.00,1.16
5713.00,1.16
5712.00,1.16
5711.00,1.16
5710.00,1.15
5709.00,1.15
5708.00,1.15
5707.00,1.15
5706.00,1.15
5705.00,1.15
5704.00,1.15
5703.00,1.15
5702.00,1.15
5701.00,1.15
5700.00,1.15
5699.00,1.15
5698.00,1.14
5697.00,1.14
5696.00,1.14
5695.00,1.14
5694.00,1.14
5693.00,1.14
5692.00,1.14
5691.00,1.14
5690.00,1.13
5689.00,1.13
5688.00,1.13
5687.00,1.13
5686.00,1.13
5685.00,1.13
5684.00,1.13
5683.00,1.13
5682.00,1.12
5681.00,1.12
5680.00,1.12
5679.00,1.12
5678.00,1.12
5677.00,1.12
5676.00,1.12
5675.00,1.12
5674.00,1.12
5673.00,1.12
5672.00,1.12
5671.00,1.12
5670.00,1.12
5669.00,1.12
5668.00,1.12
5667.00,1.12
5666.00,1.12
5665.00,1.12
5664.00,1.12
5663.00,1.12
5662.00,1.13
5661.00,1.13
5660.00,1.13
5659.00,1.13
5658.00,1.13
5657.00,1.13
5656.00,1.13
5655.00,1.13
5654.00,1.13
5653.00,1.13
5652.00,1.13
5651.00,1.13
5650.00,1.13
5649.00,1.13
5648.00,1.14
5647.00,1.14
5646.00,1.14
5645.00,1.14
5644.00,1.14
5643.00,1.14
5642.00,1.14
5641.00,1.14
5640.00,1.14
5639.00,1.14
5638.00,1.14
5637.00,1.15
5636.00,1.15
5635.00,1.15
5634.00,1.15
5633.00,1.15
5632.00,1.15
5631.00,1.15
5630.00,1.15
5629.00,1.15
5628.00,1.15
5627.00,1.15
5626.00,1.15
5625.00,1.15
5624.00,1.15
5623.00,1.16
5622.00,1.16
5621.00,1.16
5620.00,1.16
5619.00,1.16
5618.00,1.16
5617.00,1.16
5616.00,1.16
5615.00,1.16
5614.00,1.16
5613.00,1.17
5612.00,1.17
5611.00,1.17
5610.00,1.17
5609.00,1.17
5608.00,1.17
5607.00,1.17
5606.00,1.17
5605.00,1.18
5604.00,1.18
5603.00,1.18
5602.00,1.18
5601.00,1.18
5600.00,1.18
5599.00,1.18
5598.00,1.18
5597.00,1.18
5596.00,1.18
5595.00,1.18
5594.00,1.18
5593.00,1.19
5592.00,1.19
5591.00,1.19
5590.00,1.19
5589.00,1.19
5588.00,1.19
5587.00,1.19
5586.00,1.19
5585.00,1.19
5584.00,1.20
5583.00,1.20
5582.00,1.20
5581.00,1.20
5580.00,1.20
5579.00,1.20
5578.00,1.20
5577.00,1.20
5576.00,1.21
5575.00,1.21
5574.00,1.21
5573.00,1.21
5572.00,1.21
5571.00,1.21
5570.00,1.21
5569.00,1.21
5568.00,1.21
5567.00,1.21
5566.00,1.21
5565.00,1.22
5564.00,1.22
5563.00,1.22
5562.00,1.22
5561.00,1.22
5560.00,1.22
5559.00,1.22
5558.00,1.22
5557.00,1.22
5556.00,1.23
5555.00,1.23
5554.00,1.23
5553.00,1.23
5552.00,1.23
5551.00,1.23
5550.00,1.23
5549.00,1.23
5548.00,1.23
5547.00,1.23
5546.00,1.23
5545.00,1.24
5544.00,1.24
5543.00,1.24
5542.00,1.24
5541.00,1.24
5540.00,1.24
5539.00,1.24
5538.00,1.24
5537.00,1.24
5536.00,1.24
5535.00,1.24
5534.00,1.24
5533.00,1.25
5532.00,1.25
5531.00,1.25
5530.00,1.25
5529.00,1.25
5528.00,1.25
5527.00,1.25
5526.00,1.25
5525.00,1.25
5524.00,1.25
5523.00,1.25
5522.00,1.25
5521.00,1.25
5520.00,1.25
5519.00,1.25
5518.00,1.25
5517.00,1.25
5516.00,1.25
5515.00,1.25
5514.00,1.25
5513.00,1.25
5512.00,1.25
5511.00,1.25
5510.00,1.25
5509.00,1.25
5508.00,1.26
5507.00,1.26
5506.00,1.26
5505.00,1.26
5504.00,1.26
5503.00,1.26
5502.00,1.26
5501.00,1.26
5500.00,1.26
5499.00,1.26
5498.00,1.26
5497.00,1.26
5496.00,1.26
5495.00,1.26
5494.00,1.27
5493.00,1.27
5492.00,1.27
5491.00,1.27
5490.00,1.27
5489.00,1.27
5488.00,1.27
5487.00,1.27
5486.00,1.27
5485.00,1.27
5484.00,1.28
5483.00,1.28
5482.00,1.28
5481.00,1.28
5480.00,1.28
5479.00,1.28
5478.00,1.28
5477.00,1.28
5476.00,1.28
5475.00,1.28
5474.00,1.28
5473.00,1.28
5472.00,1.28
5471.00,1.28
5470.00,1.28
5469.00,1.28
5468.00,1.29
5467.00,1.29
5466.00,1.29
5465.00,1.29
5464.00,1.29
5463.00,1.29
5462.00,1.29
5461.00,1.29
5460.00,1.29
5459.00,1.29
5458.00,1.29
5457.00,1.29
5456.00,1.29
5455.00,1.29
5454.00,1.29
5453.00,1.29
5452.00,1.29
5451.00,1.29
5450.00,1.29
5449.00,1.29
5448.00,1.29
5447.00,1.29
5446.00,1.29
5445.00,1.29
5444.00,1.29
5443.00,1.29
5442.00,1.29
5441.00,1.29
5440.00,1.29
5439.00,1.29
5438.00,1.29
5437.00,1.29
5436.00,1.29
5435.00,1.29
5434.00,1.29
5433.00,1.29
5432.00,1.29
5431.00,1.29
5430.00,1.29
5429.00,1.29
5428.00,1.29
5427.00,1.29
5426.00,1.29
5425.00,1.29
5424.00,1.29
5423.00,1.29
5422.00,1.29
5421.00,1.29
5420.00,1.29
5419.00,1.29
5418.00,1.29
5417.00,1.29
5416.00,1.29
5415.00,1.29
5414.00,1.29
5413.00,1.29
5412.00,1.29
5411.00,1.29
5410.00,1.29
5409.00,1.29
5408.00,1.29
5407.00,1.28
5406.00,1.28
5405.00,1.28
5404.00,1.28
5403.00,1.28
5402.00,1.28
5401.00,1.28
5400.00,1.28
5399.00,1.27
5398.00,1.27
5397.00,1.27
5396.00,1.27
5395.00,1.26
5394.00,1.26
5393.00,1.26
5392.00,1.26
5391.00,1.25
5390.00,1.25
5389.00,1.25
5388.00,1.24
5387.00,1.24
5386.00,1.24
5385.00,1.24
5384.00,1.23
5383.00,1.23
5382.00,1.23
5381.00,1.22
5380.00,1.22
5379.00,1.22
5378.00,1.21
5377.00,1.21
5376.00,1.21
5375.00,1.20
5374.00,1.20
5373.00,1.19
5372.00,1.19
5371.00,1.18
5370.00,1.18
5369.00,1.17
5368.00,1.17
5367.00,1.16
5366.00,1.16
5365.00,1.15
5364.00,1.15
5363.00,1.14
5362.00,1.14
5361.00,1.13
5360.00,1.12
5359.00,1.12
5358.00,1.11
5357.00,1.10
5356.00,1.10
5355.00,1.09
5354.00,1.08
5353.00,1.07
5352.00,1.07
5351.00,1.06
5350.00,1.05
5349.00,1.04
5348.00,1.03
5347.00,1.02
5346.00,1.02
5345.00,1.01
5344.00,1.00
5343.00,0.99
5342.00,0.98
5341.00,0.97
5340.00,0.96
5339.00,0.96
5338.00,0.95
5337.00,0.94
5336.00,0.93
5335.00,0.92
5334.00,0.91
5333.00,0.91
5332.00,0.90
5331.00,0.89
5330.00,0.88
5329.00,0.88
5328.00,0.87
5327.00,0.86
5326.00,0.85
5325.00,0.85
5324.00,0.84
5323.00,0.83
5322.00,0.83
5321.00,0.82
5320.00,0.82
5319.00,0.81
5318.00,0.80
5317.00,0.80
5316.00,0.79
5315.00,0.78
5314.00,0.78
5313.00,0.77
5312.00,0.77
5311.00,0.76
5310.00,0.76
5309.00,0.75
5308.00,0.75
5307.00,0.74
5306.00,0.74
5305.00,0.73
5304.00,0.73
5303.00,0.72
5302.00,0.72
5301.00,0.72
5300.00,0.71
5299.00,0.71
5298.00,0.71
5297.00,0.70
5296.00,0.70
5295.00,0.70
5294.00,0.70
5293.00,0.69
5292.00,0.69
5291.00,0.69
5290.00,0.69
5289.00,0.69
5288.00,0.69
5287.00,0.68
5286.00,0.68
5285.00,0.68
5284.00,0.68
5283.00,0.68
5282.00,0.68
5281.00,0.68
5280.00,0.68
5279.00,0.68
5278.00,0.68
5277.00,0.68
5276.00,0.68
5275.00,0.68
5274.00,0.68
5273.00,0.68
5272.00,0.68
5271.00,0.67
5270.00,0.67
5269.00,0.67
5268.00,0.67
5267.00,0.67
5266.00,0.67
5265.00,0.67
5264.00,0.67
5263.00,0.67
5262.00,0.67
5261.00,0.67
5260.00,0.67
5259.00,0.67
5258.00,0.67
5257.00,0.67
5256.00,0.68
5255.00,0.68
5254.00,0.68
5253.00,0.68
5252.00,0.68
5251.00,0.68
5250.00,0.68
5249.00,0.68
5248.00,0.68
5247.00,0.68
5246.00,0.68
5245.00,0.68
5244.00,0.68
5243.00,0.68
5242.00,0.68
5241.00,0.68
5240.00,0.68
5239.00,0.68
5238.00,0.68
5237.00,0.68
5236.00,0.68
5235.00,0.68
5234.00,0.68
5233.00,0.68
5232.00,0.68
5231.00,0.68
5230.00,0.68
5229.00,0.68
5228.00,0.68
5227.00,0.68
5226.00,0.68
5225.00,0.68
5224.00,0.68
5223.00,0.68
5222.00,0.68
5221.00,0.68
5220.00,0.68
5219.00,0.68
5218.00,0.68
5217.00,0.68
5216.00,0.68
5215.00,0.68
5214.00,0.68
5213.00,0.68
5212.00,0.68
5211.00,0.68
5210.00,0.68
5209.00,0.68
5208.00,0.69
5207.00,0.69
5206.00,0.69
5205.00,0.69
5204.00,0.69
5203.00,0.69
5202.00,0.69
5201.00,0.69
5200.00,0.69
5199.00,0.69
5198.00,0.69
5197.00,0.69
5196.00,0.69
5195.00,0.69
5194.00,0.69
5193.00,0.69
5192.00,0.69
5191.00,0.69
5190.00,0.69
5189.00,0.69
5188.00,0.69
5187.00,0.69
5186.00,0.69
5185.00,0.69
5184.00,0.69
5183.00,0.70
5182.00,0.70
5181.00,0.70
5180.00,0.70
5179.00,0.70
5178.00,0.70
5177.00,0.70
5176.00,0.70
5175.00,0.70
5174.00,0.70
5173.00,0.70
5172.00,0.70
5171.00,0.70
5170.00,0.71
5169.00,0.71
5168.00,0.71
5167.00,0.71
5166.00,0.71
5165.00,0.71
5164.00,0.71
5163.00,0.71
5162.00,0.71
5161.00,0.71
5160.00,0.71
5159.00,0.71
5158.00,0.71
5157.00,0.71
5156.00,0.71
5155.00,0.71
5154.00,0.71
5153.00,0.71
5152.00,0.71
5151.00,0.71
5150.00,0.71
5149.00,0.71
5148.00,0.71
5147.00,0.71
5146.00,0.71
5145.00,0.71
5144.00,0.71
5143.00,0.71
5142.00,0.71
5141.00,0.71
5140.00,0.71
5139.00,0.71
5138.00,0.71
5137.00,0.71
5136.00,0.71
5135.00,0.71
5134.00,0.71
5133.00,0.71
5132.00,0.71
5131.00,0.71
5130.00,0.71
5129.00,0.71
5128.00,0.71
5127.00,0.71
5126.00,0.71
5125.00,0.71
5124.00,0.72
5123.00,0.72
5122.00,0.72
5121.00,0.72
5120.00,0.72
5119.00,0.72
5118.00,0.72
5117.00,0.72
5116.00,0.72
5115.00,0.72
5114.00,0.72
5113.00,0.72
5112.00,0.72
5111.00,0.72
5110.00,0.72
5109.00,0.72
5108.00,0.73
5107.00,0.73
5106.00,0.73
5105.00,0.73
5104.00,0.73
5103.00,0.73
5102.00,0.73
5101.00,0.73
5100.00,0.73
5099.00,0.73
5098.00,0.73
5097.00,0.73
5096.00,0.73
5095.00,0.73
5094.00,0.73
5093.00,0.73
5092.00,0.73
5091.00,0.73
5090.00,0.73
5089.00,0.73
5088.00,0.73
5087.00,0.73
5086.00,0.73
5085.00,0.73
5084.00,0.73
5083.00,0.73
5082.00,0.73
5081.00,0.73
5080.00,0.73
5079.00,0.73
5078.00,0.74
5077.00,0.74
5076.00,0.74
5075.00,0.74
5074.00,0.74
5073.00,0.74
5072.00,0.74
5071.00,0.74
5070.00,0.74
5069.00,0.74
5068.00,0.74
5067.00,0.74
5066.00,0.74
5065.00,0.74
5064.00,0.74
5063.00,0.74
5062.00,0.74
5061.00,0.74
5060.00,0.74
5059.00,0.74
5058.00,0.74
5057.00,0.74
5056.00,0.74
5055.00,0.74
5054.00,0.75
5053.00,0.75
5052.00,0.75
5051.00,0.75
5050.00,0.75
5049.00,0.75
5048.00,0.75
5047.00,0.75
5046.00,0.75
5045.00,0.75
5044.00,0.75
5043.00,0.75
5042.00,0.76
5041.00,0.76
5040.00,0.76
5039.00,0.76
5038.00,0.76
5037.00,0.76
5036.00,0.76
5035.00,0.76
5034.00,0.76
5033.00,0.76
5032.00,0.76
5031.00,0.76
5030.00,0.76
5029.00,0.76
5028.00,0.76
5027.00,0.77
5026.00,0.77
5025.00,0.77
5024.00,0.77
5023.00,0.77
5022.00,0.77
5021.00,0.77
5020.00,0.77
5019.00,0.77
5018.00,0.77
5017.00,0.77
5016.00,0.77
5015.00,0.77
5014.00,0.77
5013.00,0.77
5012.00,0.77
5011.00,0.77
5010.00,0.77
5009.00,0.77
5008.00,0.77
5007.00,0.77
5006.00,0.77
5005.00,0.77
5004.00,0.77
5003.00,0.77
5002.00,0.77
5001.00,0.78
5000.00,0.78
4999.00,0.78
4998.00,0.78
4997.00,0.78
4996.00,0.78
4995.00,0.78
4994.00,0.78
4993.00,0.78
4992.00,0.79
4991.00,0.79
4990.00,0.79
4989.00,0.79
4988.00,0.79
4987.00,0.79
4986.00,0.79
4985.00,0.79
4984.00,0.79
4983.00,0.79
4982.00,0.79
4981.00,0.79
4980.00,0.79
4979.00,0.79
4978.00,0.79
4977.00,0.80
4976.00,0.80
4975.00,0.80
4974.00,0.80
4973.00,0.80
4972.00,0.80
4971.00,0.80
4970.00,0.80
4969.00,0.80
4968.00,0.80
4967.00,0.80
4966.00,0.80
4965.00,0.80
4964.00,0.80
4963.00,0.80
4962.00,0.80
4961.00,0.80
4960.00,0.81
4959.00,0.81
4958.00,0.81
4957.00,0.81
4956.00,0.81
4955.00,0.81
4954.00,0.81
4953.00,0.81
4952.00,0.81
4951.00,0.81
4950.00,0.81
4949.00,0.81
4948.00,0.81
4947.00,0.81
4946.00,0.81
4945.00,0.82
4944.00,0.82
4943.00,0.82
4942.00,0.82
4941.00,0.82
4940.00,0.82
4939.00,0.82
4938.00,0.82
4937.00,0.82
4936.00,0.82
4935.00,0.82
4934.00,0.82
4933.00,0.82
4932.00,0.82
4931.00,0.82
4930.00,0.82
4929.00,0.82
4928.00,0.82
4927.00,0.82
4926.00,0.82
4925.00,0.83
4924.00,0.83
4923.00,0.83
4922.00,0.83
4921.00,0.83
4920.00,0.83
4919.00,0.83
4918.00,0.83
4917.00,0.83
4916.00,0.83
4915.00,0.83
4914.00,0.83
4913.00,0.83
4912.00,0.83
4911.00,0.84
4910.00,0.84
4909.00,0.84
4908.00,0.84
4907.00,0.84
4906.00,0.84
4905.00,0.84
4904.00,0.84
4903.00,0.84
4902.00,0.84
4901.00,0.84
4900.00,0.84
4899.00,0.84
4898.00,0.85
4897.00,0.85
4896.00,0.85
4895.00,0.85
4894.00,0.85
4893.00,0.85
4892.00,0.85
4891.00,0.85
4890.00,0.85
4889.00,0.85
4888.00,0.85
4887.00,0.85
4886.00,0.85
4885.00,0.85
4884.00,0.86
4883.00,0.86
4882.00,0.86
4881.00,0.86
4880.00,0.86
4879.00,0.86
4878.00,0.86
4877.00,0.86
4876.00,0.86
4875.00,0.87
4874.00,0.87
4873.00,0.87
4872.00,0.87
4871.00,0.87
4870.00,0.87
4869.00,0.87
4868.00,0.87
4867.00,0.87
4866.00,0.87
4865.00,0.87
4864.00,0.87
4863.00,0.87
4862.00,0.87
4861.00,0.87
4860.00,0.87
4859.00,0.87
4858.00,0.87
4857.00,0.87
4856.00,0.87
4855.00,0.87
4854.00,0.87
4853.00,0.87
4852.00,0.87
4851.00,0.88
4850.00,0.88
4849.00,0.88
4848.00,0.88
4847.00,0.88
4846.00,0.88
4845.00,0.88
4844.00,0.88
4843.00,0.88
4842.00,0.88
4841.00,0.88
4840.00,0.88
4839.00,0.88
4838.00,0.88
4837.00,0.88
4836.00,0.88
4835.00,0.89
4834.00,0.89
4833.00,0.89
4832.00,0.89
4831.00,0.89
4830.00,0.89
4829.00,0.89
4828.00,0.89
4827.00,0.89
4826.00,0.89
4825.00,0.89
4824.00,0.90
4823.00,0.90
4822.00,0.90
4821.00,0.90
4820.00,0.90
4819.00,0.90
4818.00,0.90
4817.00,0.90
4816.00,0.90
4815.00,0.91
4814.00,0.91
4813.00,0.91
4812.00,0.91
4811.00,0.91
4810.00,0.91
4809.00,0.92
4808.00,0.92
4807.00,0.92
4806.00,0.92
4805.00,0.92
4804.00,0.92
4803.00,0.92
4802.00,0.92
4801.00,0.93
4800.00,0.93
4799.00,0.93
4798.00,0.93
4797.00,0.93
4796.00,0.93
4795.00,0.93
4794.00,0.93
4793.00,0.93
4792.00,0.93
4791.00,0.93
4790.00,0.93
4789.00,0.93
4788.00,0.93
4787.00,0.93
4786.00,0.93
4785.00,0.93
4784.00,0.94
4783.00,0.94
4782.00,0.94
4781.00,0.94
4780.00,0.94
4779.00,0.94
4778.00,0.94
4777.00,0.94
4776.00,0.94
4775.00,0.94
4774.00,0.95
4773.00,0.95
4772.00,0.95
4771.00,0.95
4770.00,0.95
4769.00,0.95
4768.00,0.95
4767.00,0.96
4766.00,0.96
4765.00,0.96
4764.00,0.96
4763.00,0.96
4762.00,0.96
4761.00,0.97
4760.00,0.97
4759.00,0.97
4758.00,0.97
4757.00,0.97
4756.00,0.97
4755.00,0.97
4754.00,0.97
4753.00,0.97
4752.00,0.97
4751.00,0.97
4750.00,0.98
4749.00,0.98
4748.00,0.98
4747.00,0.98
4746.00,0.98
4745.00,0.98
4744.00,0.98
4743.00,0.98
4742.00,0.98
4741.00,0.98
4740.00,0.99
4739.00,0.99
4738.00,0.99
4737.00,0.99
4736.00,0.99
4735.00,0.99
4734.00,1.00
4733.00,1.00
4732.00,1.00
4731.00,1.00
4730.00,1.00
4729.00,1.00
4728.00,1.00
4727.00,1.01
4726.00,1.01
4725.00,1.01
4724.00,1.01
4723.00,1.01
4722.00,1.01
4721.00,1.02
4720.00,1.02
4719.00,1.02
4718.00,1.02
4717.00,1.02
4716.00,1.02
4715.00,1.03
4714.00,1.03
4713.00,1.03
4712.00,1.03
4711.00,1.03
4710.00,1.03
4709.00,1.03
4708.00,1.03
4707.00,1.04
4706.00,1.04
4705.00,1.04
4704.00,1.04
4703.00,1.04
4702.00,1.04
4701.00,1.04
4700.00,1.04
4699.00,1.04
4698.00,1.04
4697.00,1.04
4696.00,1.05
4695.00,1.05
4694.00,1.05
4693.00,1.05
4692.00,1.05
4691.00,1.05
4690.00,1.05
4689.00,1.05
4688.00,1.05
4687.00,1.06
4686.00,1.06
4685.00,1.06
4684.00,1.06
4683.00,1.06
4682.00,1.06
4681.00,1.06
4680.00,1.06
4679.00,1.07
4678.00,1.07
4677.00,1.07
4676.00,1.07
4675.00,1.07
4674.00,1.07
4673.00,1.07
4672.00,1.07
4671.00,1.08
4670.00,1.08
4669.00,1.08
4668.00,1.08
4667.00,1.08
4666.00,1.08
4665.00,1.08
4664.00,1.09
4663.00,1.09
4662.00,1.09
4661.00,1.09
4660.00,1.09
4659.00,1.09
4658.00,1.09
4657.00,1.09
4656.00,1.10
4655.00,1.10
4654.00,1.10
4653.00,1.10
4652.00,1.10
4651.00,1.10
4650.00,1.10
4649.00,1.11
4648.00,1.11
4647.00,1.11
4646.00,1.11
4645.00,1.11
4644.00,1.11
4643.00,1.11
4642.00,1.11
4641.00,1.11
4640.00,1.12
4639.00,1.12
4638.00,1.12
4637.00,1.12
4636.00,1.12
4635.00,1.12
4634.00,1.12
4633.00,1.12
4632.00,1.12
4631.00,1.12
4630.00,1.12
4629.00,1.12
4628.00,1.12
4627.00,1.12
4626.00,1.12
4625.00,1.12
4624.00,1.12
4623.00,1.12
4622.00,1.12
4621.00,1.13
4620.00,1.13
4619.00,1.13
4618.00,1.13
4617.00,1.13
4616.00,1.13
4615.00,1.13
4614.00,1.13
4613.00,1.13
4612.00,1.14
4611.00,1.14
4610.00,1.14
4609.00,1.14
4608.00,1.14
4607.00,1.14
4606.00,1.14
4605.00,1.14
4604.00,1.14
4603.00,1.14
4602.00,1.15
4601.00,1.15
4600.00,1.15
4599.00,1.15
4598.00,1.15
4597.00,1.15
4596.00,1.15
4595.00,1.15
4594.00,1.15
4593.00,1.15
4592.00,1.15
4591.00,1.15
4590.00,1.15
4589.00,1.15
4588.00,1.15
4587.00,1.15
4586.00,1.15
4585.00,1.15
4584.00,1.16
4583.00,1.16
4582.00,1.16
4581.00,1.16
4580.00,1.16
4579.00,1.16
4578.00,1.16
4577.00,1.16
4576.00,1.16
4575.00,1.16
4574.00,1.16
4573.00,1.17
4572.00,1.17
4571.00,1.17
4570.00,1.17
4569.00,1.17
4568.00,1.17
4567.00,1.17
4566.00,1.17
4565.00,1.17
4564.00,1.17
4563.00,1.17
4562.00,1.17
4561.00,1.17
4560.00,1.17
4559.00,1.18
4558.00,1.18
4557.00,1.18
4556.00,1.18
4555.00,1.18
4554.00,1.18
4553.00,1.18
4552.00,1.18
4551.00,1.18
4550.00,1.18
4549.00,1.18
4548.00,1.18
4547.00,1.18
4546.00,1.18
4545.00,1.19
4544.00,1.19
4543.00,1.19
4542.00,1.19
4541.00,1.19
4540.00,1.19
4539.00,1.19
4538.00,1.19
4537.00,1.19
4536.00,1.19
4535.00,1.19
4534.00,1.20
4533.00,1.20
4532.00,1.20
4531.00,1.20
4530.00,1.20
4529.00,1.20
4528.00,1.20
4527.00,1.20
4526.00,1.20
4525.00,1.20
4524.00,1.20
4523.00,1.20
4522.00,1.20
4521.00,1.20
4520.00,1.20
4519.00,1.20
4518.00,1.20
4517.00,1.20
4516.00,1.20
4515.00,1.20
4514.00,1.20
4513.00,1.20
4512.00,1.20
4511.00,1.20
4510.00,1.20
4509.00,1.20
4508.00,1.20
4507.00,1.20
4506.00,1.20
4505.00,1.20
4504.00,1.20
4503.00,1.20
4502.00,1.20
4501.00,1.20
4500.00,1.20
4499.00,1.20
4498.00,1.20
4497.00,1.20
4496.00,1.21
4495.00,1.21
4494.00,1.21
4493.00,1.21
4492.00,1.21
4491.00,1.21
4490.00,1.21
4489.00,1.21
4488.00,1.20
4487.00,1.20
4486.00,1.20
4485.00,1.20
4484.00,1.20
4483.00,1.20
4482.00,1.20
4481.00,1.20
4480.00,1.19
4479.00,1.19
4478.00,1.19
4477.00,1.19
4476.00,1.19
4475.00,1.19
4474.00,1.19
4473.00,1.18
4472.00,1.18
4471.00,1.18
4470.00,1.18
4469.00,1.18
4468.00,1.18
4467.00,1.18
4466.00,1.18
4465.00,1.18
4464.00,1.17
4463.00,1.17
4462.00,1.17
4461.00,1.17
4460.00,1.17
4459.00,1.17
4458.00,1.16
4457.00,1.16
4456.00,1.16
4455.00,1.16
4454.00,1.15
4453.00,1.15
4452.00,1.15
4451.00,1.14
4450.00,1.14
4449.00,1.14
4448.00,1.14
4447.00,1.13
4446.00,1.13
4445.00,1.13
4444.00,1.12
4443.00,1.12
4442.00,1.12
4441.00,1.11
4440.00,1.11
4439.00,1.11
4438.00,1.11
4437.00,1.10
4436.00,1.10
4435.00,1.10
4434.00,1.09
4433.00,1.09
4432.00,1.09
4431.00,1.08
4430.00,1.08
4429.00,1.08
4428.00,1.07
4427.00,1.07
4426.00,1.07
4425.00,1.07
4424.00,1.07
4423.00,1.06
4422.00,1.06
4421.00,1.06
4420.00,1.06
4419.00,1.06
4418.00,1.06
4417.00,1.06
4416.00,1.06
4415.00,1.06
4414.00,1.07
4413.00,1.07
4412.00,1.07
4411.00,1.07
4410.00,1.07
4409.00,1.07
4408.00,1.07
4407.00,1.07
4406.00,1.07
4405.00,1.07
4404.00,1.07
4403.00,1.07
4402.00,1.07
4401.00,1.07
4400.00,1.08
4399.00,1.08
4398.00,1.08
4397.00,1.08
4396.00,1.08
4395.00,1.08
4394.00,1.08
4393.00,1.08
4392.00,1.09
4391.00,1.09
4390.00,1.09
4389.00,1.09
4388.00,1.09
4387.00,1.09
4386.00,1.09
4385.00,1.09
4384.00,1.10
4383.00,1.10
4382.00,1.10
4381.00,1.10
4380.00,1.10
4379.00,1.10
4378.00,1.10
4377.00,1.10
4376.00,1.10
4375.00,1.10
4374.00,1.10
4373.00,1.10
4372.00,1.10
4371.00,1.10
4370.00,1.10
4369.00,1.09
4368.00,1.09
4367.00,1.09
4366.00,1.09
4365.00,1.09
4364.00,1.09
4363.00,1.09
4362.00,1.09
4361.00,1.09
4360.00,1.09
4359.00,1.09
4358.00,1.09
4357.00,1.09
4356.00,1.09
4355.00,1.09
4354.00,1.09
4353.00,1.09
4352.00,1.09
4351.00,1.08
4350.00,1.08
4349.00,1.08
4348.00,1.08
4347.00,1.08
4346.00,1.08
4345.00,1.08
4344.00,1.08
4343.00,1.08
4342.00,1.08
4341.00,1.08
4340.00,1.08
4339.00,1.08
4338.00,1.09
4337.00,1.09
4336.00,1.09
4335.00,1.09
4334.00,1.09
4333.00,1.09
4332.00,1.10
4331.00,1.10
4330.00,1.10
4329.00,1.10
4328.00,1.10
4327.00,1.11
4326.00,1.11
4325.00,1.11
4324.00,1.11
4323.00,1.11
4322.00,1.11
4321.00,1.12
4320.00,1.12
4319.00,1.12
4318.00,1.12
4317.00,1.12
4316.00,1.13
4315.00,1.13
4314.00,1.13
4313.00,1.13
4312.00,1.13
4311.00,1.14
4310.00,1.14
4309.00,1.14
4308.00,1.14
4307.00,1.14
4306.00,1.15
4305.00,1.15
4304.00,1.15
4303.00,1.15
4302.00,1.15
4301.00,1.15
4300.00,1.16
4299.00,1.16
4298.00,1.16
4297.00,1.16
4296.00,1.16
4295.00,1.16
4294.00,1.16
4293.00,1.16
4292.00,1.16
4291.00,1.16
4290.00,1.16
4289.00,1.16
4288.00,1.16
4287.00,1.16
4286.00,1.16
4285.00,1.16
4284.00,1.16
4283.00,1.16
4282.00,1.16
4281.00,1.16
4280.00,1.16
4279.00,1.16
4278.00,1.16
4277.00,1.16
4276.00,1.16
4275.00,1.16
4274.00,1.16
4273.00,1.16
4272.00,1.16
4271.00,1.16
4270.00,1.15
4269.00,1.15
4268.00,1.15
4267.00,1.15
4266.00,1.15
4265.00,1.15
4264.00,1.15
4263.00,1.15
4262.00,1.15
4261.00,1.15
4260.00,1.15
4259.00,1.15
4258.00,1.15
4257.00,1.15
4256.00,1.15
4255.00,1.15
4254.00,1.16
4253.00,1.16
4252.00,1.16
4251.00,1.16
4250.00,1.16
4249.00,1.16
4248.00,1.16
4247.00,1.17
4246.00,1.17
4245.00,1.17
4244.00,1.17
4243.00,1.17
4242.00,1.17
4241.00,1.17
4240.00,1.18
4239.00,1.18
4238.00,1.18
4237.00,1.18
4236.00,1.18
4235.00,1.18
4234.00,1.18
4233.00,1.18
4232.00,1.19
4231.00,1.19
4230.00,1.19
4229.00,1.19
4228.00,1.19
4227.00,1.19
4226.00,1.19
4225.00,1.19
4224.00,1.19
4223.00,1.19
4222.00,1.19
4221.00,1.19
4220.00,1.19
4219.00,1.19
4218.00,1.19
4217.00,1.19
4216.00,1.19
4215.00,1.19
4214.00,1.19
4213.00,1.18
4212.00,1.18
4211.00,1.18
4210.00,1.18
4209.00,1.18
4208.00,1.18
4207.00,1.18
4206.00,1.18
4205.00,1.18
4204.00,1.18
4203.00,1.18
4202.00,1.18
4201.00,1.18
4200.00,1.18
4199.00,1.18
4198.00,1.18
4197.00,1.18
4196.00,1.18
4195.00,1.18
4194.00,1.19
4193.00,1.19
4192.00,1.19
4191.00,1.19
4190.00,1.19
4189.00,1.19
4188.00,1.19
4187.00,1.19
4186.00,1.19
4185.00,1.19
4184.00,1.19
4183.00,1.19
4182.00,1.19
4181.00,1.19
4180.00,1.19
4179.00,1.19
4178.00,1.19
4177.00,1.19
4176.00,1.19
4175.00,1.19
4174.00,1.19
4173.00,1.19
4172.00,1.19
4171.00,1.19
4170.00,1.19
4169.00,1.20
4168.00,1.20
4167.00,1.20
4166.00,1.20
4165.00,1.20
4164.00,1.20
4163.00,1.20
4162.00,1.20
4161.00,1.20
4160.00,1.20
4159.00,1.20
4158.00,1.20
4157.00,1.20
4156.00,1.20
4155.00,1.20
4154.00,1.20
4153.00,1.20
4152.00,1.20
4151.00,1.20
4150.00,1.20
4149.00,1.20
4148.00,1.20
4147.00,1.20
4146.00,1.20
4145.00,1.20
4144.00,1.20
4143.00,1.20
4142.00,1.20
4141.00,1.20
4140.00,1.20
4139.00,1.20
4138.00,1.20
4137.00,1.20
4136.00,1.20
4135.00,1.20
4134.00,1.20
4133.00,1.20
4132.00,1.20
4131.00,1.20
4130.00,1.20
4129.00,1.20
4128.00,1.20
4127.00,1.20
4126.00,1.21
4125.00,1.21
4124.00,1.21
4123.00,1.21
4122.00,1.21
4121.00,1.21
4120.00,1.21
4119.00,1.21
4118.00,1.21
4117.00,1.22
4116.00,1.22
4115.00,1.22
4114.00,1.22
4113.00,1.22
4112.00,1.22
4111.00,1.22
4110.00,1.22
4109.00,1.23
4108.00,1.23
4107.00,1.23
4106.00,1.23
4105.00,1.23
4104.00,1.23
4103.00,1.23
4102.00,1.23
4101.00,1.23
4100.00,1.23
4099.00,1.23
4098.00,1.23
4097.00,1.23
4096.00,1.23
4095.00,1.23
4094.00,1.23
4093.00,1.23
4092.00,1.23
4091.00,1.23
4090.00,1.23
4089.00,1.23
4088.00,1.23
4087.00,1.23
4086.00,1.23
4085.00,1.23
4084.00,1.23
4083.00,1.23
4082.00,1.23
4081.00,1.23
4080.00,1.23
4079.00,1.23
4078.00,1.23
4077.00,1.24
4076.00,1.24
4075.00,1.24
4074.00,1.24
4073.00,1.24
4072.00,1.24
4071.00,1.24
4070.00,1.24
4069.00,1.24
4068.00,1.24
4067.00,1.25
4066.00,1.25
4065.00,1.25
4064.00,1.25
4063.00,1.25
4062.00,1.25
4061.00,1.25
4060.00,1.25
4059.00,1.25
4058.00,1.25
4057.00,1.25
4056.00,1.25
4055.00,1.25
4054.00,1.25
4053.00,1.25
4052.00,1.25
4051.00,1.25
4050.00,1.26
4049.00,1.26
4048.00,1.26
4047.00,1.26
4046.00,1.26
4045.00,1.26
4044.00,1.26
4043.00,1.26
4042.00,1.26
4041.00,1.26
4040.00,1.26
4039.00,1.27
4038.00,1.27
4037.00,1.27
4036.00,1.27
4035.00,1.26
4034.00,1.26
4033.00,1.26
4032.00,1.26
4031.00,1.26
4030.00,1.26
4029.00,1.26
4028.00,1.26
4027.00,1.26
4026.00,1.27
4025.00,1.27
4024.00,1.27
4023.00,1.27
4022.00,1.27
4021.00,1.27
4020.00,1.27
4019.00,1.27
4018.00,1.28
4017.00,1.28
4016.00,1.28
4015.00,1.28
4014.00,1.28
4013.00,1.28
4012.00,1.28
4011.00,1.28
4010.00,1.28
4009.00,1.28
4008.00,1.28
4007.00,1.28
4006.00,1.29
4005.00,1.29
4004.00,1.29
4003.00,1.29
4002.00,1.29
4001.00,1.29
4000.00,1.29
