创建为新数据集,样品 143 用户 Administrator 日期 星期六, 七月 21 2018
cm-1,%T
10000.00,1.15
9999.00,1.15
9998.00,1.15
9997.00,1.14
9996.00,1.14
9995.00,1.14
9994.00,1.14
9993.00,1.13
9992.00,1.13
9991.00,1.13
9990.00,1.13
9989.00,1.13
9988.00,1.13
9987.00,1.13
9986.00,1.13
9985.00,1.13
9984.00,1.13
9983.00,1.13
9982.00,1.13
9981.00,1.13
9980.00,1.13
9979.00,1.13
9978.00,1.13
9977.00,1.13
9976.00,1.14
9975.00,1.14
9974.00,1.14
9973.00,1.14
9972.00,1.14
9971.00,1.14
9970.00,1.14
9969.00,1.14
9968.00,1.14
9967.00,1.14
9966.00,1.13
9965.00,1.13
9964.00,1.13
9963.00,1.13
9962.00,1.12
9961.00,1.12
9960.00,1.12
9959.00,1.12
9958.00,1.12
9957.00,1.12
9956.00,1.12
9955.00,1.12
9954.00,1.12
9953.00,1.12
9952.00,1.12
9951.00,1.13
9950.00,1.13
9949.00,1.13
9948.00,1.13
9947.00,1.14
9946.00,1.14
9945.00,1.14
9944.00,1.15
9943.00,1.15
9942.00,1.15
9941.00,1.15
9940.00,1.15
9939.00,1.15
9938.00,1.15
9937.00,1.15
9936.00,1.15
9935.00,1.15
9934.00,1.15
9933.00,1.14
9932.00,1.14
9931.00,1.14
9930.00,1.14
9929.00,1.14
9928.00,1.14
9927.00,1.14
9926.00,1.14
9925.00,1.14
9924.00,1.14
9923.00,1.14
9922.00,1.13
9921.00,1.13
9920.00,1.13
9919.00,1.13
9918.00,1.13
9917.00,1.12
9916.00,1.12
9915.00,1.12
9914.00,1.12
9913.00,1.11
9912.00,1.11
9911.00,1.11
9910.00,1.11
9909.00,1.11
9908.00,1.10
9907.00,1.10
9906.00,1.10
9905.00,1.10
9904.00,1.10
9903.00,1.10
9902.00,1.10
9901.00,1.10
9900.00,1.10
9899.00,1.09
9898.00,1.09
9897.00,1.09
9896.00,1.09
9895.00,1.09
9894.00,1.09
9893.00,1.09
9892.00,1.09
9891.00,1.09
9890.00,1.09
9889.00,1.09
9888.00,1.09
9887.00,1.09
9886.00,1.09
9885.00,1.09
9884.00,1.09
9883.00,1.09
9882.00,1.09
9881.00,1.09
9880.00,1.09
9879.00,1.09
9878.00,1.09
9877.00,1.09
9876.00,1.09
9875.00,1.09
9874.00,1.09
9873.00,1.08
9872.00,1.08
9871.00,1.08
9870.00,1.08
9869.00,1.08
9868.00,1.07
9867.00,1.07
9866.00,1.07
9865.00,1.07
9864.00,1.07
9863.00,1.06
9862.00,1.06
9861.00,1.06
9860.00,1.06
9859.00,1.06
9858.00,1.06
9857.00,1.06
9856.00,1.06
9855.00,1.06
9854.00,1.06
9853.00,1.06
9852.00,1.06
9851.00,1.06
9850.00,1.06
9849.00,1.06
9848.00,1.07
9847.00,1.07
9846.00,1.07
9845.00,1.07
9844.00,1.07
9843.00,1.08
9842.00,1.08
9841.00,1.08
9840.00,1.08
9839.00,1.09
9838.00,1.09
9837.00,1.09
9836.00,1.09
9835.00,1.09
9834.00,1.10
9833.00,1.10
9832.00,1.10
9831.00,1.10
9830.00,1.10
9829.00,1.10
9828.00,1.11
9827.00,1.11
9826.00,1.11
9825.00,1.11
9824.00,1.11
9823.00,1.11
9822.00,1.11
9821.00,1.11
9820.00,1.11
9819.00,1.11
9818.00,1.11
9817.00,1.11
9816.00,1.11
9815.00,1.11
9814.00,1.10
9813.00,1.10
9812.00,1.10
9811.00,1.10
9810.00,1.09
9809.00,1.09
9808.00,1.09
9807.00,1.09
9806.00,1.09
9805.00,1.09
9804.00,1.09
9803.00,1.09
9802.00,1.09
9801.00,1.09
9800.00,1.09
9799.00,1.09
9798.00,1.09
9797.00,1.09
9796.00,1.09
9795.00,1.10
9794.00,1.10
9793.00,1.10
9792.00,1.10
9791.00,1.10
9790.00,1.10
9789.00,1.10
9788.00,1.10
9787.00,1.11
9786.00,1.11
9785.00,1.11
9784.00,1.11
9783.00,1.11
9782.00,1.11
9781.00,1.12
9780.00,1.12
9779.00,1.12
9778.00,1.12
9777.00,1.12
9776.00,1.12
9775.00,1.12
9774.00,1.12
9773.00,1.12
9772.00,1.12
9771.00,1.12
9770.00,1.12
9769.00,1.12
9768.00,1.12
9767.00,1.12
9766.00,1.12
9765.00,1.12
9764.00,1.12
9763.00,1.11
9762.00,1.11
9761.00,1.11
9760.00,1.11
9759.00,1.11
9758.00,1.11
9757.00,1.11
9756.00,1.11
9755.00,1.12
9754.00,1.12
9753.00,1.12
9752.00,1.12
9751.00,1.12
9750.00,1.12
9749.00,1.12
9748.00,1.12
9747.00,1.12
9746.00,1.13
9745.00,1.13
9744.00,1.13
9743.00,1.13
9742.00,1.13
9741.00,1.13
9740.00,1.13
9739.00,1.13
9738.00,1.13
9737.00,1.13
9736.00,1.12
9735.00,1.12
9734.00,1.12
9733.00,1.12
9732.00,1.12
9731.00,1.12
9730.00,1.12
9729.00,1.12
9728.00,1.13
9727.00,1.13
9726.00,1.13
9725.00,1.13
9724.00,1.13
9723.00,1.13
9722.00,1.13
9721.00,1.13
9720.00,1.13
9719.00,1.13
9718.00,1.13
9717.00,1.13
9716.00,1.13
9715.00,1.13
9714.00,1.13
9713.00,1.13
9712.00,1.13
9711.00,1.13
9710.00,1.13
9709.00,1.13
9708.00,1.13
9707.00,1.13
9706.00,1.13
9705.00,1.13
9704.00,1.13
9703.00,1.13
9702.00,1.13
9701.00,1.13
9700.00,1.13
9699.00,1.13
9698.00,1.13
9697.00,1.13
9696.00,1.13
9695.00,1.13
9694.00,1.13
9693.00,1.13
9692.00,1.14
9691.00,1.14
9690.00,1.14
9689.00,1.13
9688.00,1.13
9687.00,1.13
9686.00,1.13
9685.00,1.13
9684.00,1.13
9683.00,1.13
9682.00,1.13
9681.00,1.13
9680.00,1.13
9679.00,1.13
9678.00,1.13
9677.00,1.13
9676.00,1.13
9675.00,1.13
9674.00,1.13
9673.00,1.13
9672.00,1.13
9671.00,1.13
9670.00,1.13
9669.00,1.13
9668.00,1.13
9667.00,1.13
9666.00,1.13
9665.00,1.13
9664.00,1.13
9663.00,1.13
9662.00,1.13
9661.00,1.13
9660.00,1.13
9659.00,1.13
9658.00,1.13
9657.00,1.13
9656.00,1.13
9655.00,1.13
9654.00,1.12
9653.00,1.12
9652.00,1.12
9651.00,1.12
9650.00,1.12
9649.00,1.12
9648.00,1.12
9647.00,1.11
9646.00,1.11
9645.00,1.11
9644.00,1.11
9643.00,1.11
9642.00,1.11
9641.00,1.11
9640.00,1.12
9639.00,1.12
9638.00,1.12
9637.00,1.12
9636.00,1.12
9635.00,1.12
9634.00,1.12
9633.00,1.12
9632.00,1.12
9631.00,1.12
9630.00,1.12
9629.00,1.12
9628.00,1.12
9627.00,1.12
9626.00,1.12
9625.00,1.12
9624.00,1.12
9623.00,1.11
9622.00,1.11
9621.00,1.11
9620.00,1.11
9619.00,1.11
9618.00,1.11
9617.00,1.11
9616.00,1.11
9615.00,1.11
9614.00,1.11
9613.00,1.11
9612.00,1.11
9611.00,1.11
9610.00,1.12
9609.00,1.12
9608.00,1.12
9607.00,1.12
9606.00,1.13
9605.00,1.13
9604.00,1.13
9603.00,1.13
9602.00,1.13
9601.00,1.14
9600.00,1.14
9599.00,1.14
9598.00,1.14
9597.00,1.14
9596.00,1.14
9595.00,1.13
9594.00,1.13
9593.00,1.13
9592.00,1.13
9591.00,1.13
9590.00,1.12
9589.00,1.12
9588.00,1.12
9587.00,1.11
9586.00,1.11
9585.00,1.11
9584.00,1.10
9583.00,1.10
9582.00,1.10
9581.00,1.10
9580.00,1.09
9579.00,1.09
9578.00,1.09
9577.00,1.09
9576.00,1.09
9575.00,1.09
9574.00,1.09
9573.00,1.09
9572.00,1.09
9571.00,1.09
9570.00,1.09
9569.00,1.10
9568.00,1.10
9567.00,1.10
9566.00,1.10
9565.00,1.10
9564.00,1.10
9563.00,1.10
9562.00,1.10
9561.00,1.10
9560.00,1.10
9559.00,1.10
9558.00,1.10
9557.00,1.10
9556.00,1.10
9555.00,1.10
9554.00,1.10
9553.00,1.10
9552.00,1.10
9551.00,1.10
9550.00,1.10
9549.00,1.10
9548.00,1.10
9547.00,1.10
9546.00,1.10
9545.00,1.10
9544.00,1.10
9543.00,1.10
9542.00,1.10
9541.00,1.10
9540.00,1.10
9539.00,1.10
9538.00,1.10
9537.00,1.10
9536.00,1.10
9535.00,1.10
9534.00,1.10
9533.00,1.10
9532.00,1.10
9531.00,1.10
9530.00,1.10
9529.00,1.10
9528.00,1.10
9527.00,1.10
9526.00,1.10
9525.00,1.10
9524.00,1.11
9523.00,1.11
9522.00,1.11
9521.00,1.11
9520.00,1.11
9519.00,1.11
9518.00,1.11
9517.00,1.11
9516.00,1.11
9515.00,1.11
9514.00,1.11
9513.00,1.11
9512.00,1.11
9511.00,1.11
9510.00,1.11
9509.00,1.11
9508.00,1.11
9507.00,1.10
9506.00,1.10
9505.00,1.10
9504.00,1.10
9503.00,1.10
9502.00,1.10
9501.00,1.10
9500.00,1.10
9499.00,1.10
9498.00,1.10
9497.00,1.11
9496.00,1.11
9495.00,1.11
9494.00,1.11
9493.00,1.11
9492.00,1.11
9491.00,1.11
9490.00,1.11
9489.00,1.12
9488.00,1.12
9487.00,1.12
9486.00,1.12
9485.00,1.12
9484.00,1.12
9483.00,1.11
9482.00,1.11
9481.00,1.11
9480.00,1.11
9479.00,1.11
9478.00,1.11
9477.00,1.11
9476.00,1.11
9475.00,1.11
9474.00,1.11
9473.00,1.11
9472.00,1.11
9471.00,1.11
9470.00,1.11
9469.00,1.11
9468.00,1.11
9467.00,1.11
9466.00,1.11
9465.00,1.12
9464.00,1.12
9463.00,1.12
9462.00,1.12
9461.00,1.12
9460.00,1.13
9459.00,1.13
9458.00,1.13
9457.00,1.13
9456.00,1.13
9455.00,1.13
9454.00,1.13
9453.00,1.14
9452.00,1.14
9451.00,1.14
9450.00,1.14
9449.00,1.14
9448.00,1.14
9447.00,1.14
9446.00,1.14
9445.00,1.13
9444.00,1.13
9443.00,1.13
9442.00,1.13
9441.00,1.13
9440.00,1.13
9439.00,1.13
9438.00,1.12
9437.00,1.12
9436.00,1.12
9435.00,1.12
9434.00,1.12
9433.00,1.12
9432.00,1.11
9431.00,1.11
9430.00,1.11
9429.00,1.11
9428.00,1.11
9427.00,1.11
9426.00,1.11
9425.00,1.11
9424.00,1.11
9423.00,1.11
9422.00,1.11
9421.00,1.11
9420.00,1.11
9419.00,1.11
9418.00,1.11
9417.00,1.11
9416.00,1.11
9415.00,1.11
9414.00,1.11
9413.00,1.11
9412.00,1.11
9411.00,1.11
9410.00,1.11
9409.00,1.11
9408.00,1.11
9407.00,1.11
9406.00,1.11
9405.00,1.11
9404.00,1.11
9403.00,1.11
9402.00,1.11
9401.00,1.11
9400.00,1.11
9399.00,1.11
9398.00,1.11
9397.00,1.11
9396.00,1.11
9395.00,1.11
9394.00,1.11
9393.00,1.11
9392.00,1.11
9391.00,1.11
9390.00,1.11
9389.00,1.11
9388.00,1.11
9387.00,1.10
9386.00,1.10
9385.00,1.10
9384.00,1.10
9383.00,1.10
9382.00,1.10
9381.00,1.10
9380.00,1.10
9379.00,1.10
9378.00,1.10
9377.00,1.10
9376.00,1.10
9375.00,1.10
9374.00,1.10
9373.00,1.11
9372.00,1.11
9371.00,1.11
9370.00,1.11
9369.00,1.11
9368.00,1.11
9367.00,1.11
9366.00,1.12
9365.00,1.12
9364.00,1.12
9363.00,1.12
9362.00,1.12
9361.00,1.12
9360.00,1.13
9359.00,1.13
9358.00,1.13
9357.00,1.13
9356.00,1.13
9355.00,1.13
9354.00,1.13
9353.00,1.13
9352.00,1.13
9351.00,1.13
9350.00,1.14
9349.00,1.14
9348.00,1.13
9347.00,1.13
9346.00,1.13
9345.00,1.13
9344.00,1.13
9343.00,1.13
9342.00,1.13
9341.00,1.13
9340.00,1.13
9339.00,1.13
9338.00,1.13
9337.00,1.13
9336.00,1.13
9335.00,1.12
9334.00,1.12
9333.00,1.12
9332.00,1.12
9331.00,1.12
9330.00,1.12
9329.00,1.12
9328.00,1.12
9327.00,1.12
9326.00,1.12
9325.00,1.12
9324.00,1.12
9323.00,1.12
9322.00,1.12
9321.00,1.12
9320.00,1.12
9319.00,1.12
9318.00,1.12
9317.00,1.12
9316.00,1.12
9315.00,1.12
9314.00,1.12
9313.00,1.12
9312.00,1.12
9311.00,1.12
9310.00,1.12
9309.00,1.12
9308.00,1.12
9307.00,1.12
9306.00,1.12
9305.00,1.12
9304.00,1.12
9303.00,1.12
9302.00,1.12
9301.00,1.12
9300.00,1.12
9299.00,1.12
9298.00,1.11
9297.00,1.11
9296.00,1.11
9295.00,1.11
9294.00,1.11
9293.00,1.11
9292.00,1.11
9291.00,1.12
9290.00,1.12
9289.00,1.12
9288.00,1.12
9287.00,1.12
9286.00,1.12
9285.00,1.12
9284.00,1.12
9283.00,1.12
9282.00,1.12
9281.00,1.12
9280.00,1.12
9279.00,1.12
9278.00,1.12
9277.00,1.11
9276.00,1.11
9275.00,1.11
9274.00,1.11
9273.00,1.11
9272.00,1.11
9271.00,1.11
9270.00,1.11
9269.00,1.11
9268.00,1.11
9267.00,1.12
9266.00,1.12
9265.00,1.12
9264.00,1.12
9263.00,1.12
9262.00,1.12
9261.00,1.12
9260.00,1.12
9259.00,1.13
9258.00,1.13
9257.00,1.13
9256.00,1.13
9255.00,1.13
9254.00,1.13
9253.00,1.13
9252.00,1.13
9251.00,1.13
9250.00,1.13
9249.00,1.13
9248.00,1.13
9247.00,1.13
9246.00,1.12
9245.00,1.12
9244.00,1.12
9243.00,1.12
9242.00,1.12
9241.00,1.12
9240.00,1.12
9239.00,1.12
9238.00,1.12
9237.00,1.11
9236.00,1.11
9235.00,1.11
9234.00,1.11
9233.00,1.11
9232.00,1.11
9231.00,1.11
9230.00,1.11
9229.00,1.10
9228.00,1.10
9227.00,1.10
9226.00,1.10
9225.00,1.10
9224.00,1.10
9223.00,1.10
9222.00,1.10
9221.00,1.10
9220.00,1.11
9219.00,1.11
9218.00,1.11
9217.00,1.11
9216.00,1.11
9215.00,1.12
9214.00,1.12
9213.00,1.12
9212.00,1.12
9211.00,1.12
9210.00,1.13
9209.00,1.13
9208.00,1.13
9207.00,1.13
9206.00,1.13
9205.00,1.14
9204.00,1.14
9203.00,1.14
9202.00,1.14
9201.00,1.14
9200.00,1.14
9199.00,1.14
9198.00,1.14
9197.00,1.14
9196.00,1.14
9195.00,1.14
9194.00,1.14
9193.00,1.13
9192.00,1.13
9191.00,1.13
9190.00,1.13
9189.00,1.13
9188.00,1.13
9187.00,1.13
9186.00,1.13
9185.00,1.13
9184.00,1.14
9183.00,1.14
9182.00,1.14
9181.00,1.14
9180.00,1.14
9179.00,1.14
9178.00,1.14
9177.00,1.13
9176.00,1.13
9175.00,1.13
9174.00,1.13
9173.00,1.13
9172.00,1.13
9171.00,1.13
9170.00,1.12
9169.00,1.12
9168.00,1.12
9167.00,1.12
9166.00,1.12
9165.00,1.12
9164.00,1.12
9163.00,1.12
9162.00,1.12
9161.00,1.12
9160.00,1.12
9159.00,1.13
9158.00,1.13
9157.00,1.13
9156.00,1.13
9155.00,1.14
9154.00,1.14
9153.00,1.14
9152.00,1.14
9151.00,1.15
9150.00,1.15
9149.00,1.15
9148.00,1.15
9147.00,1.15
9146.00,1.15
9145.00,1.15
9144.00,1.15
9143.00,1.14
9142.00,1.14
9141.00,1.14
9140.00,1.14
9139.00,1.14
9138.00,1.14
9137.00,1.14
9136.00,1.13
9135.00,1.13
9134.00,1.13
9133.00,1.13
9132.00,1.13
9131.00,1.13
9130.00,1.13
9129.00,1.13
9128.00,1.13
9127.00,1.13
9126.00,1.13
9125.00,1.13
9124.00,1.13
9123.00,1.13
9122.00,1.13
9121.00,1.13
9120.00,1.13
9119.00,1.13
9118.00,1.13
9117.00,1.13
9116.00,1.12
9115.00,1.12
9114.00,1.12
9113.00,1.12
9112.00,1.12
9111.00,1.12
9110.00,1.12
9109.00,1.12
9108.00,1.12
9107.00,1.12
9106.00,1.12
9105.00,1.12
9104.00,1.12
9103.00,1.12
9102.00,1.12
9101.00,1.12
9100.00,1.12
9099.00,1.12
9098.00,1.11
9097.00,1.11
9096.00,1.11
9095.00,1.11
9094.00,1.11
9093.00,1.11
9092.00,1.11
9091.00,1.10
9090.00,1.10
9089.00,1.10
9088.00,1.10
9087.00,1.10
9086.00,1.10
9085.00,1.10
9084.00,1.10
9083.00,1.10
9082.00,1.10
9081.00,1.10
9080.00,1.10
9079.00,1.10
9078.00,1.10
9077.00,1.10
9076.00,1.10
9075.00,1.10
9074.00,1.10
9073.00,1.10
9072.00,1.10
9071.00,1.11
9070.00,1.11
9069.00,1.11
9068.00,1.11
9067.00,1.11
9066.00,1.12
9065.00,1.12
9064.00,1.12
9063.00,1.12
9062.00,1.12
9061.00,1.12
9060.00,1.12
9059.00,1.12
9058.00,1.12
9057.00,1.12
9056.00,1.12
9055.00,1.12
9054.00,1.12
9053.00,1.12
9052.00,1.12
9051.00,1.11
9050.00,1.11
9049.00,1.11
9048.00,1.11
9047.00,1.11
9046.00,1.11
9045.00,1.11
9044.00,1.11
9043.00,1.11
9042.00,1.11
9041.00,1.11
9040.00,1.12
9039.00,1.12
9038.00,1.12
9037.00,1.12
9036.00,1.12
9035.00,1.12
9034.00,1.12
9033.00,1.12
9032.00,1.12
9031.00,1.12
9030.00,1.12
9029.00,1.12
9028.00,1.12
9027.00,1.12
9026.00,1.12
9025.00,1.12
9024.00,1.12
9023.00,1.12
9022.00,1.12
9021.00,1.12
9020.00,1.12
9019.00,1.12
9018.00,1.13
9017.00,1.13
9016.00,1.13
9015.00,1.13
9014.00,1.13
9013.00,1.13
9012.00,1.13
9011.00,1.13
9010.00,1.12
9009.00,1.12
9008.00,1.12
9007.00,1.12
9006.00,1.12
9005.00,1.12
9004.00,1.12
9003.00,1.12
9002.00,1.12
9001.00,1.12
9000.00,1.12
8999.00,1.12
8998.00,1.12
8997.00,1.12
8996.00,1.12
8995.00,1.12
8994.00,1.12
8993.00,1.12
8992.00,1.12
8991.00,1.12
8990.00,1.12
8989.00,1.12
8988.00,1.12
8987.00,1.12
8986.00,1.13
8985.00,1.13
8984.00,1.13
8983.00,1.13
8982.00,1.13
8981.00,1.13
8980.00,1.13
8979.00,1.13
8978.00,1.13
8977.00,1.13
8976.00,1.13
8975.00,1.13
8974.00,1.14
8973.00,1.14
8972.00,1.13
8971.00,1.13
8970.00,1.13
8969.00,1.13
8968.00,1.13
8967.00,1.13
8966.00,1.13
8965.00,1.13
8964.00,1.13
8963.00,1.13
8962.00,1.13
8961.00,1.13
8960.00,1.13
8959.00,1.13
8958.00,1.13
8957.00,1.13
8956.00,1.13
8955.00,1.13
8954.00,1.13
8953.00,1.13
8952.00,1.13
8951.00,1.13
8950.00,1.13
8949.00,1.13
8948.00,1.13
8947.00,1.13
8946.00,1.13
8945.00,1.14
8944.00,1.14
8943.00,1.14
8942.00,1.14
8941.00,1.14
8940.00,1.14
8939.00,1.14
8938.00,1.14
8937.00,1.14
8936.00,1.14
8935.00,1.14
8934.00,1.14
8933.00,1.14
8932.00,1.14
8931.00,1.14
8930.00,1.14
8929.00,1.14
8928.00,1.14
8927.00,1.14
8926.00,1.14
8925.00,1.14
8924.00,1.14
8923.00,1.14
8922.00,1.14
8921.00,1.14
8920.00,1.14
8919.00,1.14
8918.00,1.14
8917.00,1.14
8916.00,1.14
8915.00,1.14
8914.00,1.14
8913.00,1.14
8912.00,1.14
8911.00,1.14
8910.00,1.14
8909.00,1.14
8908.00,1.14
8907.00,1.14
8906.00,1.14
8905.00,1.14
8904.00,1.14
8903.00,1.14
8902.00,1.14
8901.00,1.14
8900.00,1.14
8899.00,1.14
8898.00,1.14
8897.00,1.14
8896.00,1.14
8895.00,1.13
8894.00,1.13
8893.00,1.13
8892.00,1.13
8891.00,1.13
8890.00,1.13
8889.00,1.13
8888.00,1.13
8887.00,1.13
8886.00,1.13
8885.00,1.13
8884.00,1.13
8883.00,1.13
8882.00,1.13
8881.00,1.13
8880.00,1.13
8879.00,1.13
8878.00,1.13
8877.00,1.13
8876.00,1.13
8875.00,1.13
8874.00,1.13
8873.00,1.13
8872.00,1.13
8871.00,1.13
8870.00,1.13
8869.00,1.13
8868.00,1.13
8867.00,1.13
8866.00,1.13
8865.00,1.13
8864.00,1.13
8863.00,1.13
8862.00,1.13
8861.00,1.13
8860.00,1.13
8859.00,1.13
8858.00,1.13
8857.00,1.13
8856.00,1.13
8855.00,1.13
8854.00,1.13
8853.00,1.13
8852.00,1.13
8851.00,1.13
8850.00,1.13
8849.00,1.13
8848.00,1.13
8847.00,1.13
8846.00,1.13
8845.00,1.13
8844.00,1.13
8843.00,1.13
8842.00,1.13
8841.00,1.13
8840.00,1.13
8839.00,1.13
8838.00,1.13
8837.00,1.13
8836.00,1.13
8835.00,1.14
8834.00,1.14
8833.00,1.14
8832.00,1.14
8831.00,1.14
8830.00,1.14
8829.00,1.14
8828.00,1.13
8827.00,1.13
8826.00,1.13
8825.00,1.13
8824.00,1.13
8823.00,1.13
8822.00,1.13
8821.00,1.13
8820.00,1.12
8819.00,1.12
8818.00,1.12
8817.00,1.12
8816.00,1.12
8815.00,1.12
8814.00,1.11
8813.00,1.11
8812.00,1.11
8811.00,1.11
8810.00,1.11
8809.00,1.11
8808.00,1.11
8807.00,1.11
8806.00,1.11
8805.00,1.11
8804.00,1.11
8803.00,1.11
8802.00,1.11
8801.00,1.11
8800.00,1.11
8799.00,1.11
8798.00,1.11
8797.00,1.11
8796.00,1.11
8795.00,1.11
8794.00,1.11
8793.00,1.11
8792.00,1.11
8791.00,1.11
8790.00,1.10
8789.00,1.10
8788.00,1.10
8787.00,1.10
8786.00,1.10
8785.00,1.10
8784.00,1.10
8783.00,1.10
8782.00,1.10
8781.00,1.10
8780.00,1.10
8779.00,1.10
8778.00,1.10
8777.00,1.10
8776.00,1.10
8775.00,1.10
8774.00,1.10
8773.00,1.10
8772.00,1.10
8771.00,1.10
8770.00,1.10
8769.00,1.10
8768.00,1.10
8767.00,1.10
8766.00,1.10
8765.00,1.10
8764.00,1.10
8763.00,1.10
8762.00,1.10
8761.00,1.09
8760.00,1.09
8759.00,1.09
8758.00,1.09
8757.00,1.09
8756.00,1.09
8755.00,1.09
8754.00,1.09
8753.00,1.09
8752.00,1.09
8751.00,1.09
8750.00,1.09
8749.00,1.09
8748.00,1.08
8747.00,1.08
8746.00,1.09
8745.00,1.09
8744.00,1.09
8743.00,1.09
8742.00,1.09
8741.00,1.09
8740.00,1.09
8739.00,1.09
8738.00,1.09
8737.00,1.10
8736.00,1.10
8735.00,1.10
8734.00,1.10
8733.00,1.10
8732.00,1.10
8731.00,1.10
8730.00,1.10
8729.00,1.10
8728.00,1.10
8727.00,1.10
8726.00,1.10
8725.00,1.10
8724.00,1.10
8723.00,1.10
8722.00,1.10
8721.00,1.10
8720.00,1.10
8719.00,1.09
8718.00,1.09
8717.00,1.09
8716.00,1.09
8715.00,1.09
8714.00,1.09
8713.00,1.09
8712.00,1.09
8711.00,1.09
8710.00,1.09
8709.00,1.09
8708.00,1.09
8707.00,1.09
8706.00,1.09
8705.00,1.09
8704.00,1.09
8703.00,1.09
8702.00,1.09
8701.00,1.09
8700.00,1.09
8699.00,1.09
8698.00,1.09
8697.00,1.09
8696.00,1.09
8695.00,1.09
8694.00,1.09
8693.00,1.09
8692.00,1.08
8691.00,1.08
8690.00,1.08
8689.00,1.08
8688.00,1.08
8687.00,1.08
8686.00,1.07
8685.00,1.07
8684.00,1.07
8683.00,1.07
8682.00,1.07
8681.00,1.07
8680.00,1.07
8679.00,1.07
8678.00,1.07
8677.00,1.07
8676.00,1.07
8675.00,1.07
8674.00,1.07
8673.00,1.08
8672.00,1.08
8671.00,1.08
8670.00,1.08
8669.00,1.08
8668.00,1.08
8667.00,1.08
8666.00,1.09
8665.00,1.09
8664.00,1.09
8663.00,1.09
8662.00,1.09
8661.00,1.09
8660.00,1.09
8659.00,1.09
8658.00,1.09
8657.00,1.09
8656.00,1.09
8655.00,1.09
8654.00,1.09
8653.00,1.09
8652.00,1.09
8651.00,1.09
8650.00,1.09
8649.00,1.09
8648.00,1.09
8647.00,1.09
8646.00,1.09
8645.00,1.09
8644.00,1.09
8643.00,1.08
8642.00,1.08
8641.00,1.08
8640.00,1.08
8639.00,1.08
8638.00,1.08
8637.00,1.08
8636.00,1.08
8635.00,1.07
8634.00,1.07
8633.00,1.07
8632.00,1.07
8631.00,1.07
8630.00,1.07
8629.00,1.07
8628.00,1.07
8627.00,1.06
8626.00,1.06
8625.00,1.06
8624.00,1.06
8623.00,1.06
8622.00,1.06
8621.00,1.06
8620.00,1.06
8619.00,1.06
8618.00,1.06
8617.00,1.06
8616.00,1.06
8615.00,1.06
8614.00,1.06
8613.00,1.06
8612.00,1.06
8611.00,1.06
8610.00,1.06
8609.00,1.06
8608.00,1.06
8607.00,1.06
8606.00,1.06
8605.00,1.06
8604.00,1.06
8603.00,1.06
8602.00,1.06
8601.00,1.06
8600.00,1.06
8599.00,1.06
8598.00,1.06
8597.00,1.06
8596.00,1.06
8595.00,1.06
8594.00,1.06
8593.00,1.06
8592.00,1.06
8591.00,1.07
8590.00,1.07
8589.00,1.07
8588.00,1.07
8587.00,1.06
8586.00,1.06
8585.00,1.06
8584.00,1.06
8583.00,1.06
8582.00,1.06
8581.00,1.06
8580.00,1.06
8579.00,1.05
8578.00,1.05
8577.00,1.05
8576.00,1.05
8575.00,1.05
8574.00,1.05
8573.00,1.05
8572.00,1.04
8571.00,1.04
8570.00,1.04
8569.00,1.04
8568.00,1.04
8567.00,1.04
8566.00,1.04
8565.00,1.04
8564.00,1.04
8563.00,1.04
8562.00,1.05
8561.00,1.05
8560.00,1.05
8559.00,1.05
8558.00,1.05
8557.00,1.05
8556.00,1.05
8555.00,1.04
8554.00,1.04
8553.00,1.04
8552.00,1.04
8551.00,1.04
8550.00,1.04
8549.00,1.04
8548.00,1.04
8547.00,1.04
8546.00,1.04
8545.00,1.03
8544.00,1.03
8543.00,1.03
8542.00,1.03
8541.00,1.03
8540.00,1.03
8539.00,1.04
8538.00,1.04
8537.00,1.04
8536.00,1.04
8535.00,1.04
8534.00,1.04
8533.00,1.04
8532.00,1.04
8531.00,1.04
8530.00,1.04
8529.00,1.04
8528.00,1.04
8527.00,1.04
8526.00,1.03
8525.00,1.03
8524.00,1.03
8523.00,1.03
8522.00,1.03
8521.00,1.03
8520.00,1.03
8519.00,1.03
8518.00,1.03
8517.00,1.03
8516.00,1.03
8515.00,1.03
8514.00,1.03
8513.00,1.03
8512.00,1.03
8511.00,1.03
8510.00,1.04
8509.00,1.04
8508.00,1.04
8507.00,1.04
8506.00,1.04
8505.00,1.04
8504.00,1.04
8503.00,1.04
8502.00,1.04
8501.00,1.04
8500.00,1.04
8499.00,1.04
8498.00,1.04
8497.00,1.04
8496.00,1.03
8495.00,1.03
8494.00,1.03
8493.00,1.03
8492.00,1.03
8491.00,1.02
8490.00,1.02
8489.00,1.02
8488.00,1.02
8487.00,1.01
8486.00,1.01
8485.00,1.01
8484.00,1.01
8483.00,1.00
8482.00,1.00
8481.00,1.00
8480.00,1.00
8479.00,1.00
8478.00,1.00
8477.00,1.00
8476.00,1.00
8475.00,0.99
8474.00,0.99
8473.00,0.99
8472.00,0.99
8471.00,0.99
8470.00,0.99
8469.00,0.99
8468.00,0.99
8467.00,0.99
8466.00,0.99
8465.00,0.99
8464.00,0.99
8463.00,0.98
8462.00,0.98
8461.00,0.98
8460.00,0.98
8459.00,0.98
8458.00,0.98
8457.00,0.98
8456.00,0.97
8455.00,0.97
8454.00,0.97
8453.00,0.97
8452.00,0.97
8451.00,0.97
8450.00,0.97
8449.00,0.97
8448.00,0.97
8447.00,0.98
8446.00,0.98
8445.00,0.98
8444.00,0.98
8443.00,0.98
8442.00,0.98
8441.00,0.98
8440.00,0.98
8439.00,0.98
8438.00,0.98
8437.00,0.98
8436.00,0.98
8435.00,0.99
8434.00,0.99
8433.00,0.99
8432.00,0.99
8431.00,0.99
8430.00,0.99
8429.00,0.99
8428.00,1.00
8427.00,1.00
8426.00,1.00
8425.00,1.00
8424.00,1.00
8423.00,1.00
8422.00,1.00
8421.00,1.00
8420.00,1.00
8419.00,1.00
8418.00,1.00
8417.00,1.00
8416.00,1.00
8415.00,1.00
8414.00,1.00
8413.00,1.00
8412.00,1.00
8411.00,1.00
8410.00,1.00
8409.00,1.00
8408.00,1.00
8407.00,1.00
8406.00,1.00
8405.00,1.00
8404.00,1.00
8403.00,1.00
8402.00,1.00
8401.00,1.00
8400.00,1.00
8399.00,1.00
8398.00,1.00
8397.00,1.00
8396.00,1.00
8395.00,1.00
8394.00,1.00
8393.00,1.00
8392.00,1.00
8391.00,1.00
8390.00,1.00
8389.00,1.00
8388.00,1.00
8387.00,1.00
8386.00,1.00
8385.00,1.01
8384.00,1.01
8383.00,1.01
8382.00,1.01
8381.00,1.01
8380.00,1.01
8379.00,1.01
8378.00,1.01
8377.00,1.01
8376.00,1.02
8375.00,1.02
8374.00,1.02
8373.00,1.02
8372.00,1.02
8371.00,1.02
8370.00,1.02
8369.00,1.03
8368.00,1.03
8367.00,1.03
8366.00,1.03
8365.00,1.03
8364.00,1.03
8363.00,1.04
8362.00,1.04
8361.00,1.04
8360.00,1.04
8359.00,1.04
8358.00,1.04
8357.00,1.04
8356.00,1.04
8355.00,1.04
8354.00,1.04
8353.00,1.04
8352.00,1.04
8351.00,1.04
8350.00,1.04
8349.00,1.04
8348.00,1.04
8347.00,1.04
8346.00,1.04
8345.00,1.04
8344.00,1.03
8343.00,1.03
8342.00,1.03
8341.00,1.03
8340.00,1.03
8339.00,1.03
8338.00,1.03
8337.00,1.03
8336.00,1.03
8335.00,1.03
8334.00,1.03
8333.00,1.03
8332.00,1.03
8331.00,1.03
8330.00,1.03
8329.00,1.03
8328.00,1.04
8327.00,1.04
8326.00,1.04
8325.00,1.04
8324.00,1.04
8323.00,1.04
8322.00,1.04
8321.00,1.04
8320.00,1.04
8319.00,1.03
8318.00,1.03
8317.00,1.03
8316.00,1.03
8315.00,1.03
8314.00,1.03
8313.00,1.03
8312.00,1.03
8311.00,1.03
8310.00,1.03
8309.00,1.03
8308.00,1.03
8307.00,1.03
8306.00,1.03
8305.00,1.03
8304.00,1.03
8303.00,1.03
8302.00,1.03
8301.00,1.03
8300.00,1.03
8299.00,1.03
8298.00,1.04
8297.00,1.04
8296.00,1.04
8295.00,1.04
8294.00,1.04
8293.00,1.04
8292.00,1.04
8291.00,1.04
8290.00,1.04
8289.00,1.04
8288.00,1.04
8287.00,1.04
8286.00,1.04
8285.00,1.04
8284.00,1.04
8283.00,1.04
8282.00,1.04
8281.00,1.04
8280.00,1.04
8279.00,1.04
8278.00,1.04
8277.00,1.03
8276.00,1.03
8275.00,1.03
8274.00,1.03
8273.00,1.03
8272.00,1.03
8271.00,1.04
8270.00,1.04
8269.00,1.04
8268.00,1.04
8267.00,1.04
8266.00,1.04
8265.00,1.04
8264.00,1.04
8263.00,1.04
8262.00,1.04
8261.00,1.04
8260.00,1.04
8259.00,1.04
8258.00,1.04
8257.00,1.04
8256.00,1.04
8255.00,1.04
8254.00,1.04
8253.00,1.04
8252.00,1.04
8251.00,1.04
8250.00,1.04
8249.00,1.04
8248.00,1.04
8247.00,1.04
8246.00,1.04
8245.00,1.04
8244.00,1.04
8243.00,1.04
8242.00,1.04
8241.00,1.04
8240.00,1.04
8239.00,1.04
8238.00,1.04
8237.00,1.04
8236.00,1.04
8235.00,1.04
8234.00,1.04
8233.00,1.04
8232.00,1.04
8231.00,1.04
8230.00,1.04
8229.00,1.05
8228.00,1.05
8227.00,1.05
8226.00,1.05
8225.00,1.05
8224.00,1.05
8223.00,1.05
8222.00,1.05
8221.00,1.05
8220.00,1.05
8219.00,1.05
8218.00,1.05
8217.00,1.05
8216.00,1.05
8215.00,1.05
8214.00,1.05
8213.00,1.05
8212.00,1.05
8211.00,1.06
8210.00,1.06
8209.00,1.06
8208.00,1.06
8207.00,1.06
8206.00,1.06
8205.00,1.06
8204.00,1.06
8203.00,1.06
8202.00,1.06
8201.00,1.07
8200.00,1.07
8199.00,1.07
8198.00,1.07
8197.00,1.07
8196.00,1.07
8195.00,1.07
8194.00,1.07
8193.00,1.07
8192.00,1.07
8191.00,1.07
8190.00,1.07
8189.00,1.07
8188.00,1.07
8187.00,1.07
8186.00,1.07
8185.00,1.06
8184.00,1.06
8183.00,1.06
8182.00,1.06
8181.00,1.06
8180.00,1.06
8179.00,1.06
8178.00,1.06
8177.00,1.06
8176.00,1.06
8175.00,1.06
8174.00,1.06
8173.00,1.06
8172.00,1.06
8171.00,1.06
8170.00,1.06
8169.00,1.06
8168.00,1.06
8167.00,1.06
8166.00,1.06
8165.00,1.06
8164.00,1.06
8163.00,1.06
8162.00,1.06
8161.00,1.06
8160.00,1.06
8159.00,1.07
8158.00,1.07
8157.00,1.07
8156.00,1.07
8155.00,1.07
8154.00,1.07
8153.00,1.07
8152.00,1.07
8151.00,1.07
8150.00,1.07
8149.00,1.07
8148.00,1.07
8147.00,1.07
8146.00,1.07
8145.00,1.07
8144.00,1.07
8143.00,1.07
8142.00,1.08
8141.00,1.08
8140.00,1.08
8139.00,1.08
8138.00,1.08
8137.00,1.08
8136.00,1.08
8135.00,1.08
8134.00,1.08
8133.00,1.08
8132.00,1.08
8131.00,1.09
8130.00,1.09
8129.00,1.09
8128.00,1.09
8127.00,1.09
8126.00,1.09
8125.00,1.09
8124.00,1.09
8123.00,1.09
8122.00,1.10
8121.00,1.10
8120.00,1.10
8119.00,1.10
8118.00,1.10
8117.00,1.10
8116.00,1.10
8115.00,1.10
8114.00,1.10
8113.00,1.10
8112.00,1.10
8111.00,1.10
8110.00,1.10
8109.00,1.10
8108.00,1.09
8107.00,1.09
8106.00,1.09
8105.00,1.09
8104.00,1.09
8103.00,1.09
8102.00,1.09
8101.00,1.09
8100.00,1.09
8099.00,1.09
8098.00,1.09
8097.00,1.09
8096.00,1.09
8095.00,1.09
8094.00,1.09
8093.00,1.09
8092.00,1.09
8091.00,1.09
8090.00,1.09
8089.00,1.09
8088.00,1.09
8087.00,1.09
8086.00,1.09
8085.00,1.09
8084.00,1.09
8083.00,1.09
8082.00,1.09
8081.00,1.10
8080.00,1.10
8079.00,1.10
8078.00,1.10
8077.00,1.10
8076.00,1.10
8075.00,1.10
8074.00,1.11
8073.00,1.11
8072.00,1.11
8071.00,1.11
8070.00,1.11
8069.00,1.11
8068.00,1.11
8067.00,1.11
8066.00,1.11
8065.00,1.11
8064.00,1.11
8063.00,1.11
8062.00,1.11
8061.00,1.11
8060.00,1.11
8059.00,1.11
8058.00,1.11
8057.00,1.11
8056.00,1.11
8055.00,1.11
8054.00,1.10
8053.00,1.10
8052.00,1.10
8051.00,1.10
8050.00,1.10
8049.00,1.10
8048.00,1.10
8047.00,1.10
8046.00,1.10
8045.00,1.10
8044.00,1.10
8043.00,1.10
8042.00,1.10
8041.00,1.10
8040.00,1.10
8039.00,1.10
8038.00,1.10
8037.00,1.10
8036.00,1.10
8035.00,1.10
8034.00,1.10
8033.00,1.10
8032.00,1.10
8031.00,1.10
8030.00,1.10
8029.00,1.10
8028.00,1.10
8027.00,1.10
8026.00,1.10
8025.00,1.10
8024.00,1.10
8023.00,1.10
8022.00,1.10
8021.00,1.10
8020.00,1.10
8019.00,1.10
8018.00,1.10
8017.00,1.10
8016.00,1.10
8015.00,1.10
8014.00,1.10
8013.00,1.10
8012.00,1.10
8011.00,1.10
8010.00,1.10
8009.00,1.10
8008.00,1.10
8007.00,1.10
8006.00,1.10
8005.00,1.10
8004.00,1.10
8003.00,1.10
8002.00,1.10
8001.00,1.10
8000.00,1.10
7999.00,1.10
7998.00,1.10
7997.00,1.10
7996.00,1.10
7995.00,1.10
7994.00,1.10
7993.00,1.10
7992.00,1.10
7991.00,1.10
7990.00,1.10
7989.00,1.10
7988.00,1.10
7987.00,1.10
7986.00,1.10
7985.00,1.10
7984.00,1.10
7983.00,1.10
7982.00,1.10
7981.00,1.10
7980.00,1.10
7979.00,1.10
7978.00,1.10
7977.00,1.10
7976.00,1.11
7975.00,1.11
7974.00,1.11
7973.00,1.11
7972.00,1.11
7971.00,1.11
7970.00,1.11
7969.00,1.12
7968.00,1.12
7967.00,1.12
7966.00,1.12
7965.00,1.12
7964.00,1.12
7963.00,1.12
7962.00,1.12
7961.00,1.12
7960.00,1.12
7959.00,1.12
7958.00,1.12
7957.00,1.12
7956.00,1.12
7955.00,1.12
7954.00,1.12
7953.00,1.12
7952.00,1.12
7951.00,1.12
7950.00,1.12
7949.00,1.12
7948.00,1.12
7947.00,1.12
7946.00,1.12
7945.00,1.12
7944.00,1.12
7943.00,1.12
7942.00,1.12
7941.00,1.12
7940.00,1.12
7939.00,1.12
7938.00,1.12
7937.00,1.12
7936.00,1.12
7935.00,1.12
7934.00,1.12
7933.00,1.12
7932.00,1.12
7931.00,1.12
7930.00,1.12
7929.00,1.12
7928.00,1.12
7927.00,1.12
7926.00,1.12
7925.00,1.12
7924.00,1.12
7923.00,1.12
7922.00,1.12
7921.00,1.12
7920.00,1.12
7919.00,1.12
7918.00,1.12
7917.00,1.12
7916.00,1.12
7915.00,1.12
7914.00,1.12
7913.00,1.12
7912.00,1.12
7911.00,1.12
7910.00,1.12
7909.00,1.12
7908.00,1.12
7907.00,1.12
7906.00,1.12
7905.00,1.12
7904.00,1.12
7903.00,1.12
7902.00,1.12
7901.00,1.12
7900.00,1.12
7899.00,1.12
7898.00,1.12
7897.00,1.12
7896.00,1.12
7895.00,1.12
7894.00,1.12
7893.00,1.12
7892.00,1.13
7891.00,1.13
7890.00,1.13
7889.00,1.13
7888.00,1.13
7887.00,1.13
7886.00,1.13
7885.00,1.13
7884.00,1.13
7883.00,1.13
7882.00,1.13
7881.00,1.13
7880.00,1.13
7879.00,1.13
7878.00,1.13
7877.00,1.13
7876.00,1.13
7875.00,1.13
7874.00,1.14
7873.00,1.14
7872.00,1.14
7871.00,1.14
7870.00,1.14
7869.00,1.14
7868.00,1.14
7867.00,1.14
7866.00,1.14
7865.00,1.14
7864.00,1.14
7863.00,1.14
7862.00,1.14
7861.00,1.14
7860.00,1.14
7859.00,1.14
7858.00,1.14
7857.00,1.14
7856.00,1.14
7855.00,1.14
7854.00,1.14
7853.00,1.14
7852.00,1.13
7851.00,1.13
7850.00,1.13
7849.00,1.13
7848.00,1.13
7847.00,1.13
7846.00,1.13
7845.00,1.13
7844.00,1.13
7843.00,1.13
7842.00,1.13
7841.00,1.13
7840.00,1.12
7839.00,1.12
7838.00,1.12
7837.00,1.12
7836.00,1.12
7835.00,1.12
7834.00,1.12
7833.00,1.12
7832.00,1.12
7831.00,1.13
7830.00,1.13
7829.00,1.13
7828.00,1.13
7827.00,1.13
7826.00,1.13
7825.00,1.13
7824.00,1.13
7823.00,1.13
7822.00,1.13
7821.00,1.13
7820.00,1.13
7819.00,1.13
7818.00,1.13
7817.00,1.13
7816.00,1.13
7815.00,1.13
7814.00,1.13
7813.00,1.13
7812.00,1.13
7811.00,1.13
7810.00,1.13
7809.00,1.13
7808.00,1.13
7807.00,1.13
7806.00,1.13
7805.00,1.14
7804.00,1.14
7803.00,1.14
7802.00,1.14
7801.00,1.14
7800.00,1.14
7799.00,1.14
7798.00,1.14
7797.00,1.14
7796.00,1.14
7795.00,1.14
7794.00,1.14
7793.00,1.14
7792.00,1.14
7791.00,1.14
7790.00,1.14
7789.00,1.14
7788.00,1.14
7787.00,1.14
7786.00,1.14
7785.00,1.14
7784.00,1.14
7783.00,1.14
7782.00,1.14
7781.00,1.14
7780.00,1.14
7779.00,1.14
7778.00,1.14
7777.00,1.14
7776.00,1.14
7775.00,1.14
7774.00,1.14
7773.00,1.14
7772.00,1.14
7771.00,1.14
7770.00,1.14
7769.00,1.14
7768.00,1.14
7767.00,1.14
7766.00,1.14
7765.00,1.14
7764.00,1.14
7763.00,1.14
7762.00,1.14
7761.00,1.14
7760.00,1.14
7759.00,1.14
7758.00,1.14
7757.00,1.14
7756.00,1.14
7755.00,1.14
7754.00,1.14
7753.00,1.14
7752.00,1.14
7751.00,1.14
7750.00,1.14
7749.00,1.14
7748.00,1.14
7747.00,1.14
7746.00,1.14
7745.00,1.14
7744.00,1.14
7743.00,1.14
7742.00,1.14
7741.00,1.14
7740.00,1.14
7739.00,1.14
7738.00,1.14
7737.00,1.14
7736.00,1.14
7735.00,1.14
7734.00,1.14
7733.00,1.14
7732.00,1.14
7731.00,1.14
7730.00,1.14
7729.00,1.14
7728.00,1.14
7727.00,1.14
7726.00,1.14
7725.00,1.14
7724.00,1.14
7723.00,1.14
7722.00,1.14
7721.00,1.14
7720.00,1.14
7719.00,1.14
7718.00,1.14
7717.00,1.14
7716.00,1.14
7715.00,1.14
7714.00,1.14
7713.00,1.14
7712.00,1.14
7711.00,1.14
7710.00,1.14
7709.00,1.14
7708.00,1.14
7707.00,1.14
7706.00,1.14
7705.00,1.14
7704.00,1.14
7703.00,1.14
7702.00,1.14
7701.00,1.14
7700.00,1.14
7699.00,1.14
7698.00,1.14
7697.00,1.14
7696.00,1.14
7695.00,1.14
7694.00,1.14
7693.00,1.14
7692.00,1.14
7691.00,1.15
7690.00,1.15
7689.00,1.15
7688.00,1.15
7687.00,1.15
7686.00,1.15
7685.00,1.15
7684.00,1.15
7683.00,1.15
7682.00,1.15
7681.00,1.15
7680.00,1.15
7679.00,1.15
7678.00,1.15
7677.00,1.14
7676.00,1.14
7675.00,1.14
7674.00,1.14
7673.00,1.14
7672.00,1.14
7671.00,1.14
7670.00,1.14
7669.00,1.14
7668.00,1.14
7667.00,1.14
7666.00,1.14
7665.00,1.14
7664.00,1.14
7663.00,1.14
7662.00,1.14
7661.00,1.14
7660.00,1.14
7659.00,1.14
7658.00,1.14
7657.00,1.14
7656.00,1.14
7655.00,1.14
7654.00,1.14
7653.00,1.14
7652.00,1.14
7651.00,1.14
7650.00,1.14
7649.00,1.14
7648.00,1.14
7647.00,1.14
7646.00,1.14
7645.00,1.14
7644.00,1.14
7643.00,1.14
7642.00,1.14
7641.00,1.14
7640.00,1.14
7639.00,1.14
7638.00,1.14
7637.00,1.14
7636.00,1.14
7635.00,1.14
7634.00,1.14
7633.00,1.14
7632.00,1.14
7631.00,1.14
7630.00,1.14
7629.00,1.14
7628.00,1.14
7627.00,1.14
7626.00,1.14
7625.00,1.14
7624.00,1.15
7623.00,1.15
7622.00,1.15
7621.00,1.15
7620.00,1.15
7619.00,1.15
7618.00,1.15
7617.00,1.15
7616.00,1.15
7615.00,1.15
7614.00,1.15
7613.00,1.15
7612.00,1.15
7611.00,1.15
7610.00,1.15
7609.00,1.15
7608.00,1.15
7607.00,1.15
7606.00,1.14
7605.00,1.14
7604.00,1.14
7603.00,1.14
7602.00,1.14
7601.00,1.14
7600.00,1.14
7599.00,1.14
7598.00,1.14
7597.00,1.14
7596.00,1.14
7595.00,1.14
7594.00,1.14
7593.00,1.14
7592.00,1.13
7591.00,1.13
7590.00,1.13
7589.00,1.13
7588.00,1.13
7587.00,1.13
7586.00,1.13
7585.00,1.13
7584.00,1.13
7583.00,1.13
7582.00,1.13
7581.00,1.13
7580.00,1.13
7579.00,1.13
7578.00,1.13
7577.00,1.13
7576.00,1.13
7575.00,1.13
7574.00,1.13
7573.00,1.13
7572.00,1.13
7571.00,1.13
7570.00,1.13
7569.00,1.13
7568.00,1.13
7567.00,1.14
7566.00,1.14
7565.00,1.14
7564.00,1.14
7563.00,1.14
7562.00,1.14
7561.00,1.14
7560.00,1.14
7559.00,1.14
7558.00,1.14
7557.00,1.14
7556.00,1.14
7555.00,1.14
7554.00,1.14
7553.00,1.14
7552.00,1.14
7551.00,1.14
7550.00,1.14
7549.00,1.14
7548.00,1.14
7547.00,1.14
7546.00,1.14
7545.00,1.14
7544.00,1.14
7543.00,1.14
7542.00,1.14
7541.00,1.14
7540.00,1.14
7539.00,1.14
7538.00,1.14
7537.00,1.14
7536.00,1.14
7535.00,1.14
7534.00,1.14
7533.00,1.14
7532.00,1.14
7531.00,1.13
7530.00,1.13
7529.00,1.13
7528.00,1.13
7527.00,1.13
7526.00,1.13
7525.00,1.13
7524.00,1.13
7523.00,1.13
7522.00,1.13
7521.00,1.13
7520.00,1.13
7519.00,1.13
7518.00,1.13
7517.00,1.13
7516.00,1.13
7515.00,1.13
7514.00,1.13
7513.00,1.13
7512.00,1.13
7511.00,1.13
7510.00,1.13
7509.00,1.13
7508.00,1.12
7507.00,1.12
7506.00,1.12
7505.00,1.12
7504.00,1.12
7503.00,1.12
7502.00,1.12
7501.00,1.11
7500.00,1.11
7499.00,1.11
7498.00,1.11
7497.00,1.11
7496.00,1.11
7495.00,1.11
7494.00,1.11
7493.00,1.11
7492.00,1.11
7491.00,1.11
7490.00,1.11
7489.00,1.11
7488.00,1.11
7487.00,1.11
7486.00,1.11
7485.00,1.11
7484.00,1.11
7483.00,1.11
7482.00,1.11
7481.00,1.11
7480.00,1.11
7479.00,1.11
7478.00,1.11
7477.00,1.11
7476.00,1.11
7475.00,1.11
7474.00,1.11
7473.00,1.11
7472.00,1.11
7471.00,1.11
7470.00,1.11
7469.00,1.11
7468.00,1.11
7467.00,1.11
7466.00,1.10
7465.00,1.10
7464.00,1.10
7463.00,1.10
7462.00,1.10
7461.00,1.10
7460.00,1.10
7459.00,1.10
7458.00,1.10
7457.00,1.10
7456.00,1.10
7455.00,1.10
7454.00,1.10
7453.00,1.10
7452.00,1.10
7451.00,1.10
7450.00,1.10
7449.00,1.10
7448.00,1.10
7447.00,1.10
7446.00,1.10
7445.00,1.10
7444.00,1.10
7443.00,1.10
7442.00,1.10
7441.00,1.10
7440.00,1.10
7439.00,1.10
7438.00,1.10
7437.00,1.10
7436.00,1.10
7435.00,1.10
7434.00,1.10
7433.00,1.10
7432.00,1.10
7431.00,1.10
7430.00,1.10
7429.00,1.10
7428.00,1.10
7427.00,1.09
7426.00,1.09
7425.00,1.09
7424.00,1.09
7423.00,1.09
7422.00,1.09
7421.00,1.09
7420.00,1.09
7419.00,1.09
7418.00,1.09
7417.00,1.08
7416.00,1.08
7415.00,1.08
7414.00,1.08
7413.00,1.08
7412.00,1.08
7411.00,1.07
7410.00,1.07
7409.00,1.07
7408.00,1.07
7407.00,1.07
7406.00,1.07
7405.00,1.07
7404.00,1.07
7403.00,1.06
7402.00,1.06
7401.00,1.06
7400.00,1.06
7399.00,1.06
7398.00,1.06
7397.00,1.06
7396.00,1.06
7395.00,1.06
7394.00,1.06
7393.00,1.05
7392.00,1.05
7391.00,1.05
7390.00,1.05
7389.00,1.05
7388.00,1.05
7387.00,1.05
7386.00,1.05
7385.00,1.05
7384.00,1.05
7383.00,1.05
7382.00,1.05
7381.00,1.05
7380.00,1.05
7379.00,1.04
7378.00,1.04
7377.00,1.04
7376.00,1.04
7375.00,1.04
7374.00,1.04
7373.00,1.04
7372.00,1.04
7371.00,1.04
7370.00,1.04
7369.00,1.04
7368.00,1.04
7367.00,1.04
7366.00,1.04
7365.00,1.04
7364.00,1.04
7363.00,1.04
7362.00,1.04
7361.00,1.04
7360.00,1.04
7359.00,1.04
7358.00,1.04
7357.00,1.04
7356.00,1.04
7355.00,1.04
7354.00,1.04
7353.00,1.04
7352.00,1.04
7351.00,1.04
7350.00,1.04
7349.00,1.04
7348.00,1.04
7347.00,1.03
7346.00,1.03
7345.00,1.03
7344.00,1.03
7343.00,1.03
7342.00,1.03
7341.00,1.03
7340.00,1.03
7339.00,1.03
7338.00,1.03
7337.00,1.03
7336.00,1.03
7335.00,1.03
7334.00,1.03
7333.00,1.03
7332.00,1.03
7331.00,1.04
7330.00,1.04
7329.00,1.04
7328.00,1.04
7327.00,1.04
7326.00,1.04
7325.00,1.04
7324.00,1.04
7323.00,1.03
7322.00,1.03
7321.00,1.03
7320.00,1.03
7319.00,1.03
7318.00,1.03
7317.00,1.03
7316.00,1.02
7315.00,1.02
7314.00,1.02
7313.00,1.02
7312.00,1.02
7311.00,1.02
7310.00,1.02
7309.00,1.01
7308.00,1.01
7307.00,1.01
7306.00,1.01
7305.00,1.01
7304.00,1.01
7303.00,1.01
7302.00,1.01
7301.00,1.01
7300.00,1.01
7299.00,1.01
7298.00,1.01
7297.00,1.01
7296.00,1.00
7295.00,1.00
7294.00,1.00
7293.00,1.00
7292.00,1.00
7291.00,1.00
7290.00,1.00
7289.00,1.00
7288.00,1.00
7287.00,1.00
7286.00,1.00
7285.00,1.00
7284.00,1.00
7283.00,1.00
7282.00,1.00
7281.00,1.00
7280.00,0.99
7279.00,0.99
7278.00,0.99
7277.00,0.99
7276.00,0.99
7275.00,0.99
7274.00,0.99
7273.00,0.99
7272.00,0.98
7271.00,0.98
7270.00,0.98
7269.00,0.98
7268.00,0.98
7267.00,0.98
7266.00,0.98
7265.00,0.98
7264.00,0.98
7263.00,0.98
7262.00,0.98
7261.00,0.98
7260.00,0.97
7259.00,0.97
7258.00,0.97
7257.00,0.97
7256.00,0.97
7255.00,0.97
7254.00,0.97
7253.00,0.96
7252.00,0.96
7251.00,0.96
7250.00,0.96
7249.00,0.96
7248.00,0.95
7247.00,0.95
7246.00,0.95
7245.00,0.95
7244.00,0.94
7243.00,0.94
7242.00,0.94
7241.00,0.94
7240.00,0.93
7239.00,0.93
7238.00,0.93
7237.00,0.93
7236.00,0.93
7235.00,0.92
7234.00,0.92
7233.00,0.92
7232.00,0.92
7231.00,0.92
7230.00,0.91
7229.00,0.91
7228.00,0.91
7227.00,0.91
7226.00,0.91
7225.00,0.90
7224.00,0.90
7223.00,0.90
7222.00,0.90
7221.00,0.89
7220.00,0.89
7219.00,0.89
7218.00,0.89
7217.00,0.88
7216.00,0.88
7215.00,0.88
7214.00,0.88
7213.00,0.87
7212.00,0.87
7211.00,0.87
7210.00,0.86
7209.00,0.86
7208.00,0.86
7207.00,0.86
7206.00,0.85
7205.00,0.85
7204.00,0.85
7203.00,0.85
7202.00,0.84
7201.00,0.84
7200.00,0.84
7199.00,0.84
7198.00,0.84
7197.00,0.83
7196.00,0.83
7195.00,0.83
7194.00,0.83
7193.00,0.82
7192.00,0.82
7191.00,0.82
7190.00,0.82
7189.00,0.81
7188.00,0.81
7187.00,0.81
7186.00,0.80
7185.00,0.80
7184.00,0.80
7183.00,0.80
7182.00,0.79
7181.00,0.79
7180.00,0.79
7179.00,0.79
7178.00,0.78
7177.00,0.78
7176.00,0.78
7175.00,0.78
7174.00,0.78
7173.00,0.77
7172.00,0.77
7171.00,0.77
7170.00,0.77
7169.00,0.76
7168.00,0.76
7167.00,0.76
7166.00,0.76
7165.00,0.75
7164.00,0.75
7163.00,0.75
7162.00,0.75
7161.00,0.75
7160.00,0.74
7159.00,0.74
7158.00,0.74
7157.00,0.74
7156.00,0.73
7155.00,0.73
7154.00,0.73
7153.00,0.73
7152.00,0.73
7151.00,0.72
7150.00,0.72
7149.00,0.72
7148.00,0.72
7147.00,0.72
7146.00,0.72
7145.00,0.71
7144.00,0.71
7143.00,0.71
7142.00,0.71
7141.00,0.71
7140.00,0.71
7139.00,0.71
7138.00,0.70
7137.00,0.70
7136.00,0.70
7135.00,0.70
7134.00,0.70
7133.00,0.70
7132.00,0.69
7131.00,0.69
7130.00,0.69
7129.00,0.69
7128.00,0.69
7127.00,0.68
7126.00,0.68
7125.00,0.68
7124.00,0.68
7123.00,0.67
7122.00,0.67
7121.00,0.67
7120.00,0.67
7119.00,0.66
7118.00,0.66
7117.00,0.66
7116.00,0.66
7115.00,0.65
7114.00,0.65
7113.00,0.65
7112.00,0.65
7111.00,0.65
7110.00,0.64
7109.00,0.64
7108.00,0.64
7107.00,0.64
7106.00,0.64
7105.00,0.63
7104.00,0.63
7103.00,0.63
7102.00,0.63
7101.00,0.62
7100.00,0.62
7099.00,0.62
7098.00,0.62
7097.00,0.62
7096.00,0.61
7095.00,0.61
7094.00,0.61
7093.00,0.61
7092.00,0.61
7091.00,0.61
7090.00,0.61
7089.00,0.61
7088.00,0.61
7087.00,0.60
7086.00,0.60
7085.00,0.60
7084.00,0.60
7083.00,0.60
7082.00,0.60
7081.00,0.60
7080.00,0.60
7079.00,0.60
7078.00,0.60
7077.00,0.60
7076.00,0.59
7075.00,0.59
7074.00,0.59
7073.00,0.59
7072.00,0.59
7071.00,0.59
7070.00,0.58
7069.00,0.58
7068.00,0.58
7067.00,0.58
7066.00,0.58
7065.00,0.58
7064.00,0.58
7063.00,0.57
7062.00,0.57
7061.00,0.57
7060.00,0.57
7059.00,0.57
7058.00,0.57
7057.00,0.57
7056.00,0.57
7055.00,0.56
7054.00,0.56
7053.00,0.56
7052.00,0.56
7051.00,0.56
7050.00,0.56
7049.00,0.56
7048.00,0.56
7047.00,0.56
7046.00,0.56
7045.00,0.56
7044.00,0.56
7043.00,0.55
7042.00,0.55
7041.00,0.55
7040.00,0.55
7039.00,0.55
7038.00,0.55
7037.00,0.55
7036.00,0.55
7035.00,0.55
7034.00,0.55
7033.00,0.55
7032.00,0.55
7031.00,0.55
7030.00,0.55
7029.00,0.55
7028.00,0.55
7027.00,0.55
7026.00,0.55
7025.00,0.54
7024.00,0.54
7023.00,0.54
7022.00,0.54
7021.00,0.54
7020.00,0.54
7019.00,0.54
7018.00,0.54
7017.00,0.54
7016.00,0.54
7015.00,0.54
7014.00,0.54
7013.00,0.54
7012.00,0.54
7011.00,0.53
7010.00,0.53
7009.00,0.53
7008.00,0.53
7007.00,0.53
7006.00,0.53
7005.00,0.53
7004.00,0.52
7003.00,0.52
7002.00,0.52
7001.00,0.52
7000.00,0.52
6999.00,0.52
6998.00,0.52
6997.00,0.52
6996.00,0.52
6995.00,0.52
6994.00,0.52
6993.00,0.52
6992.00,0.52
6991.00,0.51
6990.00,0.51
6989.00,0.51
6988.00,0.51
6987.00,0.51
6986.00,0.52
6985.00,0.52
6984.00,0.52
6983.00,0.52
6982.00,0.51
6981.00,0.51
6980.00,0.51
6979.00,0.51
6978.00,0.51
6977.00,0.51
6976.00,0.51
6975.00,0.51
6974.00,0.51
6973.00,0.51
6972.00,0.51
6971.00,0.51
6970.00,0.51
6969.00,0.51
6968.00,0.51
6967.00,0.51
6966.00,0.51
6965.00,0.51
6964.00,0.51
6963.00,0.50
6962.00,0.50
6961.00,0.50
6960.00,0.50
6959.00,0.50
6958.00,0.50
6957.00,0.50
6956.00,0.50
6955.00,0.50
6954.00,0.50
6953.00,0.50
6952.00,0.50
6951.00,0.50
6950.00,0.50
6949.00,0.50
6948.00,0.50
6947.00,0.50
6946.00,0.50
6945.00,0.50
6944.00,0.50
6943.00,0.50
6942.00,0.50
6941.00,0.50
6940.00,0.50
6939.00,0.50
6938.00,0.50
6937.00,0.50
6936.00,0.50
6935.00,0.50
6934.00,0.50
6933.00,0.50
6932.00,0.50
6931.00,0.50
6930.00,0.50
6929.00,0.50
6928.00,0.50
6927.00,0.50
6926.00,0.50
6925.00,0.50
6924.00,0.50
6923.00,0.50
6922.00,0.50
6921.00,0.50
6920.00,0.50
6919.00,0.50
6918.00,0.50
6917.00,0.50
6916.00,0.50
6915.00,0.50
6914.00,0.50
6913.00,0.50
6912.00,0.50
6911.00,0.50
6910.00,0.51
6909.00,0.51
6908.00,0.51
6907.00,0.51
6906.00,0.51
6905.00,0.50
6904.00,0.50
6903.00,0.50
6902.00,0.50
6901.00,0.50
6900.00,0.50
6899.00,0.50
6898.00,0.50
6897.00,0.50
6896.00,0.50
6895.00,0.50
6894.00,0.50
6893.00,0.50
6892.00,0.50
6891.00,0.50
6890.00,0.50
6889.00,0.50
6888.00,0.50
6887.00,0.50
6886.00,0.50
6885.00,0.50
6884.00,0.50
6883.00,0.50
6882.00,0.50
6881.00,0.50
6880.00,0.50
6879.00,0.50
6878.00,0.50
6877.00,0.50
6876.00,0.50
6875.00,0.50
6874.00,0.50
6873.00,0.49
6872.00,0.49
6871.00,0.49
6870.00,0.49
6869.00,0.49
6868.00,0.49
6867.00,0.49
6866.00,0.49
6865.00,0.49
6864.00,0.49
6863.00,0.49
6862.00,0.49
6861.00,0.49
6860.00,0.49
6859.00,0.49
6858.00,0.49
6857.00,0.49
6856.00,0.49
6855.00,0.49
6854.00,0.49
6853.00,0.49
6852.00,0.49
6851.00,0.49
6850.00,0.49
6849.00,0.49
6848.00,0.49
6847.00,0.49
6846.00,0.49
6845.00,0.49
6844.00,0.49
6843.00,0.49
6842.00,0.49
6841.00,0.49
6840.00,0.49
6839.00,0.49
6838.00,0.49
6837.00,0.49
6836.00,0.49
6835.00,0.49
6834.00,0.49
6833.00,0.49
6832.00,0.49
6831.00,0.49
6830.00,0.49
6829.00,0.49
6828.00,0.49
6827.00,0.49
6826.00,0.49
6825.00,0.49
6824.00,0.50
6823.00,0.50
6822.00,0.50
6821.00,0.50
6820.00,0.50
6819.00,0.50
6818.00,0.50
6817.00,0.50
6816.00,0.50
6815.00,0.50
6814.00,0.50
6813.00,0.50
6812.00,0.50
6811.00,0.50
6810.00,0.50
6809.00,0.50
6808.00,0.50
6807.00,0.50
6806.00,0.50
6805.00,0.50
6804.00,0.50
6803.00,0.50
6802.00,0.50
6801.00,0.50
6800.00,0.50
6799.00,0.50
6798.00,0.50
6797.00,0.51
6796.00,0.51
6795.00,0.51
6794.00,0.51
6793.00,0.51
6792.00,0.51
6791.00,0.51
6790.00,0.51
6789.00,0.51
6788.00,0.51
6787.00,0.51
6786.00,0.51
6785.00,0.51
6784.00,0.52
6783.00,0.52
6782.00,0.52
6781.00,0.52
6780.00,0.52
6779.00,0.52
6778.00,0.52
6777.00,0.52
6776.00,0.52
6775.00,0.52
6774.00,0.52
6773.00,0.52
6772.00,0.52
6771.00,0.52
6770.00,0.52
6769.00,0.53
6768.00,0.53
6767.00,0.53
6766.00,0.53
6765.00,0.53
6764.00,0.53
6763.00,0.53
6762.00,0.53
6761.00,0.53
6760.00,0.53
6759.00,0.53
6758.00,0.53
6757.00,0.53
6756.00,0.53
6755.00,0.53
6754.00,0.53
6753.00,0.53
6752.00,0.53
6751.00,0.53
6750.00,0.53
6749.00,0.53
6748.00,0.53
6747.00,0.53
6746.00,0.53
6745.00,0.53
6744.00,0.53
6743.00,0.53
6742.00,0.53
6741.00,0.53
6740.00,0.53
6739.00,0.53
6738.00,0.53
6737.00,0.53
6736.00,0.53
6735.00,0.54
6734.00,0.54
6733.00,0.54
6732.00,0.54
6731.00,0.54
6730.00,0.54
6729.00,0.54
6728.00,0.54
6727.00,0.54
6726.00,0.54
6725.00,0.54
6724.00,0.54
6723.00,0.54
6722.00,0.54
6721.00,0.54
6720.00,0.54
6719.00,0.54
6718.00,0.54
6717.00,0.54
6716.00,0.54
6715.00,0.54
6714.00,0.54
6713.00,0.54
6712.00,0.54
6711.00,0.54
6710.00,0.54
6709.00,0.54
6708.00,0.54
6707.00,0.54
6706.00,0.54
6705.00,0.54
6704.00,0.54
6703.00,0.55
6702.00,0.55
6701.00,0.55
6700.00,0.55
6699.00,0.55
6698.00,0.55
6697.00,0.55
6696.00,0.56
6695.00,0.56
6694.00,0.56
6693.00,0.56
6692.00,0.56
6691.00,0.56
6690.00,0.56
6689.00,0.57
6688.00,0.57
6687.00,0.57
6686.00,0.57
6685.00,0.57
6684.00,0.57
6683.00,0.57
6682.00,0.57
6681.00,0.57
6680.00,0.58
6679.00,0.58
6678.00,0.58
6677.00,0.58
6676.00,0.58
6675.00,0.58
6674.00,0.58
6673.00,0.58
6672.00,0.58
6671.00,0.58
6670.00,0.58
6669.00,0.58
6668.00,0.58
6667.00,0.58
6666.00,0.58
6665.00,0.58
6664.00,0.59
6663.00,0.59
6662.00,0.59
6661.00,0.59
6660.00,0.59
6659.00,0.59
6658.00,0.59
6657.00,0.59
6656.00,0.59
6655.00,0.59
6654.00,0.59
6653.00,0.59
6652.00,0.59
6651.00,0.59
6650.00,0.59
6649.00,0.59
6648.00,0.59
6647.00,0.59
6646.00,0.59
6645.00,0.60
6644.00,0.60
6643.00,0.60
6642.00,0.60
6641.00,0.60
6640.00,0.60
6639.00,0.60
6638.00,0.60
6637.00,0.60
6636.00,0.60
6635.00,0.60
6634.00,0.60
6633.00,0.60
6632.00,0.60
6631.00,0.60
6630.00,0.60
6629.00,0.60
6628.00,0.60
6627.00,0.60
6626.00,0.60
6625.00,0.61
6624.00,0.61
6623.00,0.61
6622.00,0.61
6621.00,0.61
6620.00,0.61
6619.00,0.61
6618.00,0.61
6617.00,0.61
6616.00,0.62
6615.00,0.62
6614.00,0.62
6613.00,0.62
6612.00,0.62
6611.00,0.62
6610.00,0.62
6609.00,0.62
6608.00,0.62
6607.00,0.62
6606.00,0.62
6605.00,0.62
6604.00,0.62
6603.00,0.62
6602.00,0.63
6601.00,0.63
6600.00,0.63
6599.00,0.63
6598.00,0.63
6597.00,0.63
6596.00,0.63
6595.00,0.63
6594.00,0.63
6593.00,0.63
6592.00,0.63
6591.00,0.64
6590.00,0.64
6589.00,0.64
6588.00,0.64
6587.00,0.64
6586.00,0.64
6585.00,0.64
6584.00,0.64
6583.00,0.64
6582.00,0.64
6581.00,0.64
6580.00,0.64
6579.00,0.64
6578.00,0.64
6577.00,0.64
6576.00,0.64
6575.00,0.64
6574.00,0.64
6573.00,0.65
6572.00,0.65
6571.00,0.65
6570.00,0.65
6569.00,0.65
6568.00,0.65
6567.00,0.65
6566.00,0.65
6565.00,0.66
6564.00,0.66
6563.00,0.66
6562.00,0.66
6561.00,0.66
6560.00,0.66
6559.00,0.66
6558.00,0.66
6557.00,0.66
6556.00,0.66
6555.00,0.66
6554.00,0.66
6553.00,0.66
6552.00,0.66
6551.00,0.67
6550.00,0.67
6549.00,0.67
6548.00,0.67
6547.00,0.67
6546.00,0.67
6545.00,0.67
6544.00,0.67
6543.00,0.67
6542.00,0.67
6541.00,0.67
6540.00,0.67
6539.00,0.67
6538.00,0.67
6537.00,0.67
6536.00,0.67
6535.00,0.67
6534.00,0.67
6533.00,0.67
6532.00,0.67
6531.00,0.67
6530.00,0.67
6529.00,0.67
6528.00,0.67
6527.00,0.68
6526.00,0.68
6525.00,0.68
6524.00,0.68
6523.00,0.68
6522.00,0.68
6521.00,0.68
6520.00,0.68
6519.00,0.68
6518.00,0.68
6517.00,0.68
6516.00,0.68
6515.00,0.68
6514.00,0.68
6513.00,0.68
6512.00,0.68
6511.00,0.68
6510.00,0.68
6509.00,0.68
6508.00,0.69
6507.00,0.69
6506.00,0.69
6505.00,0.69
6504.00,0.69
6503.00,0.69
6502.00,0.69
6501.00,0.69
6500.00,0.69
6499.00,0.69
6498.00,0.69
6497.00,0.69
6496.00,0.69
6495.00,0.69
6494.00,0.69
6493.00,0.69
6492.00,0.69
6491.00,0.70
6490.00,0.70
6489.00,0.70
6488.00,0.70
6487.00,0.70
6486.00,0.70
6485.00,0.70
6484.00,0.70
6483.00,0.70
6482.00,0.70
6481.00,0.70
6480.00,0.70
6479.00,0.70
6478.00,0.71
6477.00,0.71
6476.00,0.71
6475.00,0.71
6474.00,0.71
6473.00,0.71
6472.00,0.71
6471.00,0.71
6470.00,0.71
6469.00,0.71
6468.00,0.71
6467.00,0.71
6466.00,0.71
6465.00,0.71
6464.00,0.71
6463.00,0.71
6462.00,0.71
6461.00,0.71
6460.00,0.72
6459.00,0.72
6458.00,0.72
6457.00,0.72
6456.00,0.72
6455.00,0.72
6454.00,0.72
6453.00,0.72
6452.00,0.72
6451.00,0.72
6450.00,0.72
6449.00,0.72
6448.00,0.72
6447.00,0.72
6446.00,0.72
6445.00,0.72
6444.00,0.71
6443.00,0.71
6442.00,0.71
6441.00,0.72
6440.00,0.72
6439.00,0.72
6438.00,0.72
6437.00,0.72
6436.00,0.72
6435.00,0.72
6434.00,0.72
6433.00,0.72
6432.00,0.72
6431.00,0.72
6430.00,0.72
6429.00,0.72
6428.00,0.72
6427.00,0.72
6426.00,0.72
6425.00,0.72
6424.00,0.72
6423.00,0.73
6422.00,0.73
6421.00,0.73
6420.00,0.73
6419.00,0.73
6418.00,0.73
6417.00,0.73
6416.00,0.73
6415.00,0.73
6414.00,0.73
6413.00,0.73
6412.00,0.73
6411.00,0.73
6410.00,0.73
6409.00,0.73
6408.00,0.73
6407.00,0.73
6406.00,0.73
6405.00,0.73
6404.00,0.73
6403.00,0.73
6402.00,0.73
6401.00,0.73
6400.00,0.73
6399.00,0.73
6398.00,0.73
6397.00,0.73
6396.00,0.73
6395.00,0.73
6394.00,0.73
6393.00,0.73
6392.00,0.74
6391.00,0.74
6390.00,0.74
6389.00,0.74
6388.00,0.74
6387.00,0.74
6386.00,0.74
6385.00,0.74
6384.00,0.74
6383.00,0.74
6382.00,0.74
6381.00,0.74
6380.00,0.74
6379.00,0.74
6378.00,0.74
6377.00,0.74
6376.00,0.74
6375.00,0.74
6374.00,0.75
6373.00,0.75
6372.00,0.75
6371.00,0.75
6370.00,0.75
6369.00,0.75
6368.00,0.75
6367.00,0.75
6366.00,0.75
6365.00,0.75
6364.00,0.75
6363.00,0.75
6362.00,0.75
6361.00,0.75
6360.00,0.75
6359.00,0.75
6358.00,0.75
6357.00,0.75
6356.00,0.75
6355.00,0.75
6354.00,0.75
6353.00,0.75
6352.00,0.76
6351.00,0.76
6350.00,0.76
6349.00,0.76
6348.00,0.76
6347.00,0.76
6346.00,0.76
6345.00,0.76
6344.00,0.76
6343.00,0.76
6342.00,0.77
6341.00,0.77
6340.00,0.77
6339.00,0.77
6338.00,0.77
6337.00,0.77
6336.00,0.77
6335.00,0.77
6334.00,0.77
6333.00,0.77
6332.00,0.77
6331.00,0.77
6330.00,0.77
6329.00,0.77
6328.00,0.77
6327.00,0.78
6326.00,0.78
6325.00,0.78
6324.00,0.78
6323.00,0.78
6322.00,0.78
6321.00,0.78
6320.00,0.78
6319.00,0.78
6318.00,0.78
6317.00,0.78
6316.00,0.78
6315.00,0.79
6314.00,0.79
6313.00,0.79
6312.00,0.79
6311.00,0.79
6310.00,0.79
6309.00,0.79
6308.00,0.79
6307.00,0.79
6306.00,0.79
6305.00,0.79
6304.00,0.80
6303.00,0.80
6302.00,0.80
6301.00,0.80
6300.00,0.80
6299.00,0.80
6298.00,0.80
6297.00,0.80
6296.00,0.80
6295.00,0.80
6294.00,0.80
6293.00,0.80
6292.00,0.80
6291.00,0.80
6290.00,0.80
6289.00,0.80
6288.00,0.80
6287.00,0.80
6286.00,0.80
6285.00,0.81
6284.00,0.81
6283.00,0.81
6282.00,0.81
6281.00,0.81
6280.00,0.81
6279.00,0.81
6278.00,0.81
6277.00,0.81
6276.00,0.81
6275.00,0.81
6274.00,0.82
6273.00,0.82
6272.00,0.82
6271.00,0.82
6270.00,0.82
6269.00,0.82
6268.00,0.82
6267.00,0.82
6266.00,0.82
6265.00,0.82
6264.00,0.82
6263.00,0.82
6262.00,0.83
6261.00,0.83
6260.00,0.83
6259.00,0.83
6258.00,0.83
6257.00,0.83
6256.00,0.83
6255.00,0.83
6254.00,0.83
6253.00,0.83
6252.00,0.83
6251.00,0.83
6250.00,0.83
6249.00,0.83
6248.00,0.83
6247.00,0.83
6246.00,0.83
6245.00,0.84
6244.00,0.84
6243.00,0.84
6242.00,0.84
6241.00,0.84
6240.00,0.84
6239.00,0.84
6238.00,0.84
6237.00,0.84
6236.00,0.85
6235.00,0.85
6234.00,0.85
6233.00,0.85
6232.00,0.85
6231.00,0.85
6230.00,0.85
6229.00,0.85
6228.00,0.86
6227.00,0.86
6226.00,0.86
6225.00,0.86
6224.00,0.86
6223.00,0.86
6222.00,0.86
6221.00,0.86
6220.00,0.86
6219.00,0.87
6218.00,0.87
6217.00,0.87
6216.00,0.87
6215.00,0.87
6214.00,0.87
6213.00,0.87
6212.00,0.88
6211.00,0.88
6210.00,0.88
6209.00,0.88
6208.00,0.88
6207.00,0.88
6206.00,0.88
6205.00,0.88
6204.00,0.88
6203.00,0.88
6202.00,0.89
6201.00,0.89
6200.00,0.89
6199.00,0.89
6198.00,0.89
6197.00,0.89
6196.00,0.89
6195.00,0.89
6194.00,0.89
6193.00,0.89
6192.00,0.89
6191.00,0.89
6190.00,0.89
6189.00,0.90
6188.00,0.90
6187.00,0.90
6186.00,0.90
6185.00,0.90
6184.00,0.90
6183.00,0.90
6182.00,0.91
6181.00,0.91
6180.00,0.91
6179.00,0.91
6178.00,0.91
6177.00,0.92
6176.00,0.92
6175.00,0.92
6174.00,0.92
6173.00,0.92
6172.00,0.92
6171.00,0.93
6170.00,0.93
6169.00,0.93
6168.00,0.93
6167.00,0.93
6166.00,0.93
6165.00,0.93
6164.00,0.94
6163.00,0.94
6162.00,0.94
6161.00,0.94
6160.00,0.94
6159.00,0.94
6158.00,0.94
6157.00,0.94
6156.00,0.94
6155.00,0.94
6154.00,0.94
6153.00,0.94
6152.00,0.94
6151.00,0.94
6150.00,0.94
6149.00,0.95
6148.00,0.95
6147.00,0.95
6146.00,0.95
6145.00,0.95
6144.00,0.95
6143.00,0.95
6142.00,0.95
6141.00,0.95
6140.00,0.95
6139.00,0.96
6138.00,0.96
6137.00,0.96
6136.00,0.96
6135.00,0.96
6134.00,0.96
6133.00,0.96
6132.00,0.96
6131.00,0.97
6130.00,0.97
6129.00,0.97
6128.00,0.97
6127.00,0.97
6126.00,0.97
6125.00,0.97
6124.00,0.97
6123.00,0.97
6122.00,0.97
6121.00,0.97
6120.00,0.98
6119.00,0.98
6118.00,0.98
6117.00,0.98
6116.00,0.98
6115.00,0.98
6114.00,0.98
6113.00,0.98
6112.00,0.99
6111.00,0.99
6110.00,0.99
6109.00,0.99
6108.00,0.99
6107.00,0.99
6106.00,0.99
6105.00,0.99
6104.00,1.00
6103.00,1.00
6102.00,1.00
6101.00,1.00
6100.00,1.00
6099.00,1.00
6098.00,1.00
6097.00,1.00
6096.00,1.01
6095.00,1.01
6094.00,1.01
6093.00,1.01
6092.00,1.01
6091.00,1.01
6090.00,1.01
6089.00,1.01
6088.00,1.01
6087.00,1.01
6086.00,1.02
6085.00,1.02
6084.00,1.02
6083.00,1.02
6082.00,1.02
6081.00,1.02
6080.00,1.02
6079.00,1.02
6078.00,1.02
6077.00,1.02
6076.00,1.02
6075.00,1.03
6074.00,1.03
6073.00,1.03
6072.00,1.03
6071.00,1.03
6070.00,1.03
6069.00,1.03
6068.00,1.03
6067.00,1.04
6066.00,1.04
6065.00,1.04
6064.00,1.04
6063.00,1.04
6062.00,1.04
6061.00,1.04
6060.00,1.04
6059.00,1.04
6058.00,1.04
6057.00,1.05
6056.00,1.05
6055.00,1.05
6054.00,1.05
6053.00,1.05
6052.00,1.05
6051.00,1.05
6050.00,1.05
6049.00,1.05
6048.00,1.05
6047.00,1.05
6046.00,1.05
6045.00,1.06
6044.00,1.06
6043.00,1.06
6042.00,1.06
6041.00,1.06
6040.00,1.06
6039.00,1.06
6038.00,1.06
6037.00,1.06
6036.00,1.06
6035.00,1.06
6034.00,1.06
6033.00,1.06
6032.00,1.06
6031.00,1.06
6030.00,1.06
6029.00,1.06
6028.00,1.06
6027.00,1.06
6026.00,1.06
6025.00,1.06
6024.00,1.06
6023.00,1.06
6022.00,1.06
6021.00,1.07
6020.00,1.07
6019.00,1.07
6018.00,1.07
6017.00,1.07
6016.00,1.07
6015.00,1.07
6014.00,1.07
6013.00,1.07
6012.00,1.07
6011.00,1.07
6010.00,1.07
6009.00,1.07
6008.00,1.07
6007.00,1.07
6006.00,1.07
6005.00,1.06
6004.00,1.06
6003.00,1.06
6002.00,1.06
6001.00,1.06
6000.00,1.06
5999.00,1.06
5998.00,1.06
5997.00,1.06
5996.00,1.06
5995.00,1.05
5994.00,1.05
5993.00,1.05
5992.00,1.05
5991.00,1.05
5990.00,1.05
5989.00,1.05
5988.00,1.05
5987.00,1.04
5986.00,1.04
5985.00,1.04
5984.00,1.04
5983.00,1.04
5982.00,1.03
5981.00,1.03
5980.00,1.03
5979.00,1.03
5978.00,1.02
5977.00,1.02
5976.00,1.02
5975.00,1.01
5974.00,1.01
5973.00,1.01
5972.00,1.00
5971.00,1.00
5970.00,0.99
5969.00,0.99
5968.00,0.98
5967.00,0.98
5966.00,0.97
5965.00,0.97
5964.00,0.96
5963.00,0.95
5962.00,0.95
5961.00,0.94
5960.00,0.94
5959.00,0.93
5958.00,0.92
5957.00,0.92
5956.00,0.91
5955.00,0.91
5954.00,0.90
5953.00,0.89
5952.00,0.89
5951.00,0.88
5950.00,0.88
5949.00,0.87
5948.00,0.87
5947.00,0.86
5946.00,0.86
5945.00,0.86
5944.00,0.85
5943.00,0.85
5942.00,0.85
5941.00,0.85
5940.00,0.84
5939.00,0.84
5938.00,0.84
5937.00,0.84
5936.00,0.84
5935.00,0.84
5934.00,0.84
5933.00,0.84
5932.00,0.84
5931.00,0.84
5930.00,0.83
5929.00,0.83
5928.00,0.83
5927.00,0.83
5926.00,0.83
5925.00,0.83
5924.00,0.83
5923.00,0.83
5922.00,0.82
5921.00,0.82
5920.00,0.82
5919.00,0.82
5918.00,0.82
5917.00,0.81
5916.00,0.81
5915.00,0.81
5914.00,0.81
5913.00,0.81
5912.00,0.80
5911.00,0.80
5910.00,0.80
5909.00,0.80
5908.00,0.80
5907.00,0.80
5906.00,0.80
5905.00,0.80
5904.00,0.80
5903.00,0.80
5902.00,0.80
5901.00,0.80
5900.00,0.80
5899.00,0.80
5898.00,0.80
5897.00,0.80
5896.00,0.80
5895.00,0.80
5894.00,0.80
5893.00,0.80
5892.00,0.81
5891.00,0.81
5890.00,0.81
5889.00,0.81
5888.00,0.81
5887.00,0.82
5886.00,0.82
5885.00,0.82
5884.00,0.82
5883.00,0.83
5882.00,0.83
5881.00,0.83
5880.00,0.83
5879.00,0.83
5878.00,0.84
5877.00,0.84
5876.00,0.84
5875.00,0.84
5874.00,0.84
5873.00,0.84
5872.00,0.85
5871.00,0.85
5870.00,0.85
5869.00,0.85
5868.00,0.85
5867.00,0.85
5866.00,0.85
5865.00,0.86
5864.00,0.86
5863.00,0.86
5862.00,0.86
5861.00,0.86
5860.00,0.86
5859.00,0.86
5858.00,0.87
5857.00,0.87
5856.00,0.87
5855.00,0.87
5854.00,0.87
5853.00,0.87
5852.00,0.87
5851.00,0.87
5850.00,0.87
5849.00,0.88
5848.00,0.88
5847.00,0.88
5846.00,0.88
5845.00,0.88
5844.00,0.88
5843.00,0.88
5842.00,0.88
5841.00,0.88
5840.00,0.88
5839.00,0.88
5838.00,0.88
5837.00,0.88
5836.00,0.88
5835.00,0.88
5834.00,0.88
5833.00,0.87
5832.00,0.87
5831.00,0.87
5830.00,0.87
5829.00,0.87
5828.00,0.87
5827.00,0.87
5826.00,0.87
5825.00,0.87
5824.00,0.87
5823.00,0.87
5822.00,0.87
5821.00,0.87
5820.00,0.87
5819.00,0.87
5818.00,0.87
5817.00,0.88
5816.00,0.88
5815.00,0.88
5814.00,0.88
5813.00,0.88
5812.00,0.88
5811.00,0.88
5810.00,0.88
5809.00,0.88
5808.00,0.88
5807.00,0.88
5806.00,0.88
5805.00,0.88
5804.00,0.88
5803.00,0.88
5802.00,0.88
5801.00,0.88
5800.00,0.87
5799.00,0.87
5798.00,0.87
5797.00,0.87
5796.00,0.87
5795.00,0.87
5794.00,0.86
5793.00,0.86
5792.00,0.86
5791.00,0.86
5790.00,0.86
5789.00,0.85
5788.00,0.85
5787.00,0.85
5786.00,0.85
5785.00,0.85
5784.00,0.85
5783.00,0.84
5782.00,0.84
5781.00,0.84
5780.00,0.84
5779.00,0.84
5778.00,0.84
5777.00,0.84
5776.00,0.84
5775.00,0.84
5774.00,0.84
5773.00,0.84
5772.00,0.84
5771.00,0.84
5770.00,0.84
5769.00,0.84
5768.00,0.84
5767.00,0.84
5766.00,0.84
5765.00,0.84
5764.00,0.84
5763.00,0.85
5762.00,0.85
5761.00,0.85
5760.00,0.85
5759.00,0.85
5758.00,0.86
5757.00,0.86
5756.00,0.86
5755.00,0.86
5754.00,0.87
5753.00,0.87
5752.00,0.87
5751.00,0.88
5750.00,0.88
5749.00,0.88
5748.00,0.88
5747.00,0.89
5746.00,0.89
5745.00,0.89
5744.00,0.90
5743.00,0.90
5742.00,0.90
5741.00,0.90
5740.00,0.91
5739.00,0.91
5738.00,0.91
5737.00,0.91
5736.00,0.91
5735.00,0.92
5734.00,0.92
5733.00,0.92
5732.00,0.92
5731.00,0.92
5730.00,0.92
5729.00,0.92
5728.00,0.92
5727.00,0.93
5726.00,0.93
5725.00,0.93
5724.00,0.93
5723.00,0.93
5722.00,0.93
5721.00,0.93
5720.00,0.93
5719.00,0.93
5718.00,0.93
5717.00,0.93
5716.00,0.93
5715.00,0.93
5714.00,0.93
5713.00,0.93
5712.00,0.93
5711.00,0.93
5710.00,0.93
5709.00,0.93
5708.00,0.93
5707.00,0.93
5706.00,0.93
5705.00,0.93
5704.00,0.93
5703.00,0.93
5702.00,0.93
5701.00,0.93
5700.00,0.93
5699.00,0.93
5698.00,0.93
5697.00,0.92
5696.00,0.92
5695.00,0.92
5694.00,0.92
5693.00,0.92
5692.00,0.92
5691.00,0.92
5690.00,0.92
5689.00,0.91
5688.00,0.91
5687.00,0.91
5686.00,0.91
5685.00,0.91
5684.00,0.91
5683.00,0.91
5682.00,0.91
5681.00,0.90
5680.00,0.90
5679.00,0.90
5678.00,0.90
5677.00,0.90
5676.00,0.90
5675.00,0.90
5674.00,0.90
5673.00,0.90
5672.00,0.90
5671.00,0.90
5670.00,0.90
5669.00,0.90
5668.00,0.90
5667.00,0.90
5666.00,0.91
5665.00,0.91
5664.00,0.91
5663.00,0.91
5662.00,0.91
5661.00,0.91
5660.00,0.91
5659.00,0.92
5658.00,0.92
5657.00,0.92
5656.00,0.92
5655.00,0.92
5654.00,0.92
5653.00,0.93
5652.00,0.93
5651.00,0.93
5650.00,0.93
5649.00,0.93
5648.00,0.93
5647.00,0.94
5646.00,0.94
5645.00,0.94
5644.00,0.94
5643.00,0.94
5642.00,0.94
5641.00,0.94
5640.00,0.94
5639.00,0.94
5638.00,0.95
5637.00,0.95
5636.00,0.95
5635.00,0.95
5634.00,0.95
5633.00,0.95
5632.00,0.95
5631.00,0.95
5630.00,0.96
5629.00,0.96
5628.00,0.96
5627.00,0.96
5626.00,0.96
5625.00,0.96
5624.00,0.96
5623.00,0.97
5622.00,0.97
5621.00,0.97
5620.00,0.97
5619.00,0.97
5618.00,0.97
5617.00,0.97
5616.00,0.98
5615.00,0.98
5614.00,0.98
5613.00,0.98
5612.00,0.98
5611.00,0.98
5610.00,0.98
5609.00,0.99
5608.00,0.99
5607.00,0.99
5606.00,0.99
5605.00,0.99
5604.00,0.99
5603.00,1.00
5602.00,1.00
5601.00,1.00
5600.00,1.00
5599.00,1.00
5598.00,1.00
5597.00,1.01
5596.00,1.01
5595.00,1.01
5594.00,1.01
5593.00,1.01
5592.00,1.01
5591.00,1.01
5590.00,1.01
5589.00,1.01
5588.00,1.02
5587.00,1.02
5586.00,1.02
5585.00,1.02
5584.00,1.02
5583.00,1.02
5582.00,1.02
5581.00,1.02
5580.00,1.02
5579.00,1.03
5578.00,1.03
5577.00,1.03
5576.00,1.03
5575.00,1.03
5574.00,1.03
5573.00,1.03
5572.00,1.04
5571.00,1.04
5570.00,1.04
5569.00,1.04
5568.00,1.04
5567.00,1.04
5566.00,1.04
5565.00,1.05
5564.00,1.05
5563.00,1.05
5562.00,1.05
5561.00,1.05
5560.00,1.05
5559.00,1.05
5558.00,1.05
5557.00,1.05
5556.00,1.05
5555.00,1.06
5554.00,1.06
5553.00,1.06
5552.00,1.06
5551.00,1.06
5550.00,1.06
5549.00,1.06
5548.00,1.06
5547.00,1.06
5546.00,1.06
5545.00,1.06
5544.00,1.06
5543.00,1.07
5542.00,1.07
5541.00,1.07
5540.00,1.07
5539.00,1.07
5538.00,1.07
5537.00,1.07
5536.00,1.07
5535.00,1.07
5534.00,1.08
5533.00,1.08
5532.00,1.08
5531.00,1.08
5530.00,1.08
5529.00,1.08
5528.00,1.08
5527.00,1.08
5526.00,1.08
5525.00,1.08
5524.00,1.08
5523.00,1.08
5522.00,1.08
5521.00,1.09
5520.00,1.09
5519.00,1.09
5518.00,1.09
5517.00,1.09
5516.00,1.09
5515.00,1.09
5514.00,1.09
5513.00,1.09
5512.00,1.09
5511.00,1.09
5510.00,1.09
5509.00,1.09
5508.00,1.09
5507.00,1.09
5506.00,1.09
5505.00,1.09
5504.00,1.09
5503.00,1.09
5502.00,1.09
5501.00,1.10
5500.00,1.10
5499.00,1.10
5498.00,1.10
5497.00,1.10
5496.00,1.10
5495.00,1.10
5494.00,1.10
5493.00,1.10
5492.00,1.10
5491.00,1.10
5490.00,1.10
5489.00,1.11
5488.00,1.11
5487.00,1.11
5486.00,1.11
5485.00,1.11
5484.00,1.11
5483.00,1.11
5482.00,1.11
5481.00,1.11
5480.00,1.11
5479.00,1.11
5478.00,1.11
5477.00,1.12
5476.00,1.12
5475.00,1.12
5474.00,1.12
5473.00,1.12
5472.00,1.12
5471.00,1.12
5470.00,1.12
5469.00,1.13
5468.00,1.13
5467.00,1.13
5466.00,1.13
5465.00,1.13
5464.00,1.13
5463.00,1.13
5462.00,1.13
5461.00,1.13
5460.00,1.13
5459.00,1.13
5458.00,1.14
5457.00,1.14
5456.00,1.14
5455.00,1.14
5454.00,1.14
5453.00,1.14
5452.00,1.14
5451.00,1.14
5450.00,1.14
5449.00,1.14
5448.00,1.14
5447.00,1.14
5446.00,1.14
5445.00,1.14
5444.00,1.14
5443.00,1.14
5442.00,1.14
5441.00,1.14
5440.00,1.14
5439.00,1.15
5438.00,1.15
5437.00,1.15
5436.00,1.15
5435.00,1.15
5434.00,1.15
5433.00,1.15
5432.00,1.15
5431.00,1.15
5430.00,1.15
5429.00,1.15
5428.00,1.15
5427.00,1.15
5426.00,1.15
5425.00,1.15
5424.00,1.15
5423.00,1.15
5422.00,1.15
5421.00,1.15
5420.00,1.15
5419.00,1.15
5418.00,1.15
5417.00,1.15
5416.00,1.15
5415.00,1.15
5414.00,1.15
5413.00,1.15
5412.00,1.15
5411.00,1.15
5410.00,1.15
5409.00,1.15
5408.00,1.15
5407.00,1.15
5406.00,1.15
5405.00,1.15
5404.00,1.15
5403.00,1.15
5402.00,1.15
5401.00,1.15
5400.00,1.15
5399.00,1.15
5398.00,1.15
5397.00,1.15
5396.00,1.15
5395.00,1.15
5394.00,1.15
5393.00,1.14
5392.00,1.14
5391.00,1.14
5390.00,1.14
5389.00,1.14
5388.00,1.14
5387.00,1.14
5386.00,1.13
5385.00,1.13
5384.00,1.13
5383.00,1.13
5382.00,1.13
5381.00,1.12
5380.00,1.12
5379.00,1.12
5378.00,1.11
5377.00,1.11
5376.00,1.11
5375.00,1.11
5374.00,1.10
5373.00,1.10
5372.00,1.10
5371.00,1.09
5370.00,1.09
5369.00,1.09
5368.00,1.08
5367.00,1.08
5366.00,1.07
5365.00,1.07
5364.00,1.06
5363.00,1.06
5362.00,1.06
5361.00,1.05
5360.00,1.04
5359.00,1.04
5358.00,1.03
5357.00,1.03
5356.00,1.02
5355.00,1.02
5354.00,1.01
5353.00,1.00
5352.00,1.00
5351.00,0.99
5350.00,0.98
5349.00,0.98
5348.00,0.97
5347.00,0.96
5346.00,0.96
5345.00,0.95
5344.00,0.94
5343.00,0.93
5342.00,0.93
5341.00,0.92
5340.00,0.91
5339.00,0.90
5338.00,0.90
5337.00,0.89
5336.00,0.88
5335.00,0.87
5334.00,0.86
5333.00,0.86
5332.00,0.85
5331.00,0.84
5330.00,0.83
5329.00,0.82
5328.00,0.82
5327.00,0.81
5326.00,0.80
5325.00,0.79
5324.00,0.78
5323.00,0.77
5322.00,0.77
5321.00,0.76
5320.00,0.75
5319.00,0.74
5318.00,0.73
5317.00,0.73
5316.00,0.72
5315.00,0.71
5314.00,0.70
5313.00,0.70
5312.00,0.69
5311.00,0.68
5310.00,0.68
5309.00,0.67
5308.00,0.66
5307.00,0.66
5306.00,0.65
5305.00,0.65
5304.00,0.64
5303.00,0.64
5302.00,0.64
5301.00,0.63
5300.00,0.63
5299.00,0.63
5298.00,0.62
5297.00,0.62
5296.00,0.62
5295.00,0.62
5294.00,0.61
5293.00,0.61
5292.00,0.61
5291.00,0.61
5290.00,0.61
5289.00,0.61
5288.00,0.60
5287.00,0.60
5286.00,0.60
5285.00,0.60
5284.00,0.60
5283.00,0.60
5282.00,0.60
5281.00,0.60
5280.00,0.60
5279.00,0.59
5278.00,0.59
5277.00,0.59
5276.00,0.59
5275.00,0.59
5274.00,0.59
5273.00,0.59
5272.00,0.59
5271.00,0.59
5270.00,0.59
5269.00,0.59
5268.00,0.59
5267.00,0.59
5266.00,0.59
5265.00,0.59
5264.00,0.59
5263.00,0.59
5262.00,0.59
5261.00,0.59
5260.00,0.59
5259.00,0.59
5258.00,0.59
5257.00,0.58
5256.00,0.58
5255.00,0.58
5254.00,0.58
5253.00,0.58
5252.00,0.58
5251.00,0.58
5250.00,0.58
5249.00,0.58
5248.00,0.58
5247.00,0.58
5246.00,0.58
5245.00,0.58
5244.00,0.58
5243.00,0.58
5242.00,0.58
5241.00,0.58
5240.00,0.58
5239.00,0.58
5238.00,0.58
5237.00,0.58
5236.00,0.58
5235.00,0.58
5234.00,0.58
5233.00,0.58
5232.00,0.58
5231.00,0.59
5230.00,0.59
5229.00,0.59
5228.00,0.59
5227.00,0.59
5226.00,0.59
5225.00,0.59
5224.00,0.59
5223.00,0.59
5222.00,0.59
5221.00,0.59
5220.00,0.59
5219.00,0.59
5218.00,0.59
5217.00,0.59
5216.00,0.59
5215.00,0.59
5214.00,0.59
5213.00,0.59
5212.00,0.59
5211.00,0.59
5210.00,0.59
5209.00,0.59
5208.00,0.59
5207.00,0.59
5206.00,0.59
5205.00,0.59
5204.00,0.59
5203.00,0.59
5202.00,0.59
5201.00,0.59
5200.00,0.59
5199.00,0.59
5198.00,0.59
5197.00,0.59
5196.00,0.59
5195.00,0.59
5194.00,0.59
5193.00,0.59
5192.00,0.59
5191.00,0.60
5190.00,0.60
5189.00,0.60
5188.00,0.60
5187.00,0.60
5186.00,0.60
5185.00,0.60
5184.00,0.60
5183.00,0.60
5182.00,0.60
5181.00,0.60
5180.00,0.60
5179.00,0.60
5178.00,0.60
5177.00,0.60
5176.00,0.60
5175.00,0.60
5174.00,0.60
5173.00,0.60
5172.00,0.60
5171.00,0.60
5170.00,0.60
5169.00,0.60
5168.00,0.60
5167.00,0.61
5166.00,0.61
5165.00,0.61
5164.00,0.61
5163.00,0.61
5162.00,0.61
5161.00,0.61
5160.00,0.61
5159.00,0.61
5158.00,0.61
5157.00,0.61
5156.00,0.61
5155.00,0.61
5154.00,0.61
5153.00,0.61
5152.00,0.61
5151.00,0.61
5150.00,0.61
5149.00,0.61
5148.00,0.61
5147.00,0.61
5146.00,0.61
5145.00,0.61
5144.00,0.61
5143.00,0.61
5142.00,0.61
5141.00,0.61
5140.00,0.61
5139.00,0.61
5138.00,0.61
5137.00,0.61
5136.00,0.61
5135.00,0.61
5134.00,0.61
5133.00,0.61
5132.00,0.61
5131.00,0.61
5130.00,0.61
5129.00,0.61
5128.00,0.62
5127.00,0.62
5126.00,0.62
5125.00,0.62
5124.00,0.62
5123.00,0.62
5122.00,0.62
5121.00,0.62
5120.00,0.62
5119.00,0.62
5118.00,0.62
5117.00,0.62
5116.00,0.62
5115.00,0.62
5114.00,0.62
5113.00,0.62
5112.00,0.62
5111.00,0.62
5110.00,0.62
5109.00,0.63
5108.00,0.63
5107.00,0.63
5106.00,0.63
5105.00,0.63
5104.00,0.63
5103.00,0.63
5102.00,0.63
5101.00,0.63
5100.00,0.63
5099.00,0.63
5098.00,0.63
5097.00,0.63
5096.00,0.63
5095.00,0.63
5094.00,0.63
5093.00,0.63
5092.00,0.64
5091.00,0.64
5090.00,0.64
5089.00,0.64
5088.00,0.64
5087.00,0.64
5086.00,0.64
5085.00,0.64
5084.00,0.64
5083.00,0.64
5082.00,0.64
5081.00,0.64
5080.00,0.64
5079.00,0.64
5078.00,0.64
5077.00,0.64
5076.00,0.64
5075.00,0.64
5074.00,0.64
5073.00,0.64
5072.00,0.64
5071.00,0.64
5070.00,0.64
5069.00,0.64
5068.00,0.64
5067.00,0.64
5066.00,0.64
5065.00,0.64
5064.00,0.64
5063.00,0.64
5062.00,0.65
5061.00,0.65
5060.00,0.65
5059.00,0.65
5058.00,0.65
5057.00,0.65
5056.00,0.65
5055.00,0.65
5054.00,0.65
5053.00,0.65
5052.00,0.65
5051.00,0.65
5050.00,0.65
5049.00,0.65
5048.00,0.65
5047.00,0.65
5046.00,0.65
5045.00,0.65
5044.00,0.65
5043.00,0.65
5042.00,0.65
5041.00,0.65
5040.00,0.65
5039.00,0.66
5038.00,0.66
5037.00,0.66
5036.00,0.66
5035.00,0.66
5034.00,0.66
5033.00,0.66
5032.00,0.66
5031.00,0.66
5030.00,0.66
5029.00,0.66
5028.00,0.66
5027.00,0.66
5026.00,0.66
5025.00,0.66
5024.00,0.66
5023.00,0.67
5022.00,0.67
5021.00,0.67
5020.00,0.67
5019.00,0.67
5018.00,0.67
5017.00,0.67
5016.00,0.67
5015.00,0.67
5014.00,0.67
5013.00,0.67
5012.00,0.67
5011.00,0.67
5010.00,0.67
5009.00,0.67
5008.00,0.67
5007.00,0.68
5006.00,0.68
5005.00,0.68
5004.00,0.68
5003.00,0.68
5002.00,0.68
5001.00,0.68
5000.00,0.68
4999.00,0.68
4998.00,0.68
4997.00,0.68
4996.00,0.68
4995.00,0.68
4994.00,0.68
4993.00,0.68
4992.00,0.68
4991.00,0.68
4990.00,0.68
4989.00,0.68
4988.00,0.68
4987.00,0.69
4986.00,0.69
4985.00,0.69
4984.00,0.69
4983.00,0.69
4982.00,0.69
4981.00,0.69
4980.00,0.69
4979.00,0.69
4978.00,0.69
4977.00,0.69
4976.00,0.69
4975.00,0.69
4974.00,0.69
4973.00,0.69
4972.00,0.70
4971.00,0.70
4970.00,0.70
4969.00,0.70
4968.00,0.70
4967.00,0.70
4966.00,0.70
4965.00,0.70
4964.00,0.70
4963.00,0.70
4962.00,0.70
4961.00,0.70
4960.00,0.71
4959.00,0.71
4958.00,0.71
4957.00,0.71
4956.00,0.71
4955.00,0.71
4954.00,0.71
4953.00,0.71
4952.00,0.71
4951.00,0.71
4950.00,0.71
4949.00,0.71
4948.00,0.71
4947.00,0.72
4946.00,0.72
4945.00,0.72
4944.00,0.72
4943.00,0.72
4942.00,0.72
4941.00,0.72
4940.00,0.72
4939.00,0.72
4938.00,0.72
4937.00,0.72
4936.00,0.72
4935.00,0.72
4934.00,0.72
4933.00,0.72
4932.00,0.72
4931.00,0.72
4930.00,0.72
4929.00,0.72
4928.00,0.72
4927.00,0.72
4926.00,0.72
4925.00,0.72
4924.00,0.72
4923.00,0.73
4922.00,0.73
4921.00,0.73
4920.00,0.73
4919.00,0.73
4918.00,0.73
4917.00,0.73
4916.00,0.73
4915.00,0.73
4914.00,0.73
4913.00,0.73
4912.00,0.73
4911.00,0.73
4910.00,0.73
4909.00,0.73
4908.00,0.73
4907.00,0.73
4906.00,0.73
4905.00,0.73
4904.00,0.73
4903.00,0.73
4902.00,0.73
4901.00,0.73
4900.00,0.73
4899.00,0.73
4898.00,0.73
4897.00,0.73
4896.00,0.73
4895.00,0.73
4894.00,0.73
4893.00,0.74
4892.00,0.74
4891.00,0.74
4890.00,0.74
4889.00,0.74
4888.00,0.74
4887.00,0.74
4886.00,0.74
4885.00,0.74
4884.00,0.74
4883.00,0.74
4882.00,0.74
4881.00,0.74
4880.00,0.74
4879.00,0.74
4878.00,0.74
4877.00,0.74
4876.00,0.75
4875.00,0.75
4874.00,0.75
4873.00,0.75
4872.00,0.75
4871.00,0.75
4870.00,0.75
4869.00,0.75
4868.00,0.75
4867.00,0.75
4866.00,0.75
4865.00,0.75
4864.00,0.75
4863.00,0.75
4862.00,0.76
4861.00,0.76
4860.00,0.76
4859.00,0.76
4858.00,0.76
4857.00,0.76
4856.00,0.76
4855.00,0.76
4854.00,0.76
4853.00,0.76
4852.00,0.76
4851.00,0.75
4850.00,0.75
4849.00,0.75
4848.00,0.75
4847.00,0.75
4846.00,0.75
4845.00,0.75
4844.00,0.75
4843.00,0.76
4842.00,0.76
4841.00,0.76
4840.00,0.76
4839.00,0.76
4838.00,0.76
4837.00,0.76
4836.00,0.76
4835.00,0.76
4834.00,0.76
4833.00,0.77
4832.00,0.77
4831.00,0.77
4830.00,0.77
4829.00,0.77
4828.00,0.77
4827.00,0.77
4826.00,0.77
4825.00,0.77
4824.00,0.77
4823.00,0.77
4822.00,0.77
4821.00,0.77
4820.00,0.77
4819.00,0.77
4818.00,0.78
4817.00,0.78
4816.00,0.78
4815.00,0.78
4814.00,0.78
4813.00,0.78
4812.00,0.78
4811.00,0.78
4810.00,0.78
4809.00,0.78
4808.00,0.78
4807.00,0.78
4806.00,0.78
4805.00,0.78
4804.00,0.78
4803.00,0.78
4802.00,0.79
4801.00,0.79
4800.00,0.79
4799.00,0.79
4798.00,0.79
4797.00,0.79
4796.00,0.79
4795.00,0.79
4794.00,0.79
4793.00,0.79
4792.00,0.80
4791.00,0.80
4790.00,0.80
4789.00,0.80
4788.00,0.80
4787.00,0.80
4786.00,0.80
4785.00,0.80
4784.00,0.80
4783.00,0.80
4782.00,0.80
4781.00,0.80
4780.00,0.81
4779.00,0.81
4778.00,0.81
4777.00,0.81
4776.00,0.81
4775.00,0.81
4774.00,0.81
4773.00,0.81
4772.00,0.82
4771.00,0.82
4770.00,0.82
4769.00,0.82
4768.00,0.82
4767.00,0.82
4766.00,0.82
4765.00,0.82
4764.00,0.83
4763.00,0.83
4762.00,0.83
4761.00,0.83
4760.00,0.83
4759.00,0.83
4758.00,0.83
4757.00,0.83
4756.00,0.83
4755.00,0.83
4754.00,0.83
4753.00,0.83
4752.00,0.84
4751.00,0.84
4750.00,0.84
4749.00,0.84
4748.00,0.84
4747.00,0.84
4746.00,0.84
4745.00,0.84
4744.00,0.84
4743.00,0.84
4742.00,0.84
4741.00,0.84
4740.00,0.84
4739.00,0.84
4738.00,0.84
4737.00,0.84
4736.00,0.84
4735.00,0.84
4734.00,0.84
4733.00,0.84
4732.00,0.85
4731.00,0.85
4730.00,0.85
4729.00,0.85
4728.00,0.85
4727.00,0.85
4726.00,0.86
4725.00,0.86
4724.00,0.86
4723.00,0.86
4722.00,0.86
4721.00,0.86
4720.00,0.86
4719.00,0.87
4718.00,0.87
4717.00,0.87
4716.00,0.87
4715.00,0.87
4714.00,0.87
4713.00,0.87
4712.00,0.87
4711.00,0.87
4710.00,0.87
4709.00,0.87
4708.00,0.87
4707.00,0.88
4706.00,0.88
4705.00,0.88
4704.00,0.88
4703.00,0.88
4702.00,0.88
4701.00,0.88
4700.00,0.88
4699.00,0.89
4698.00,0.89
4697.00,0.89
4696.00,0.89
4695.00,0.89
4694.00,0.89
4693.00,0.90
4692.00,0.90
4691.00,0.90
4690.00,0.90
4689.00,0.90
4688.00,0.90
4687.00,0.90
4686.00,0.91
4685.00,0.91
4684.00,0.91
4683.00,0.91
4682.00,0.91
4681.00,0.91
4680.00,0.91
4679.00,0.91
4678.00,0.91
4677.00,0.91
4676.00,0.91
4675.00,0.91
4674.00,0.91
4673.00,0.91
4672.00,0.92
4671.00,0.92
4670.00,0.92
4669.00,0.92
4668.00,0.92
4667.00,0.92
4666.00,0.93
4665.00,0.93
4664.00,0.93
4663.00,0.93
4662.00,0.93
4661.00,0.94
4660.00,0.94
4659.00,0.94
4658.00,0.94
4657.00,0.94
4656.00,0.94
4655.00,0.94
4654.00,0.94
4653.00,0.95
4652.00,0.95
4651.00,0.95
4650.00,0.95
4649.00,0.95
4648.00,0.95
4647.00,0.95
4646.00,0.95
4645.00,0.96
4644.00,0.96
4643.00,0.96
4642.00,0.96
4641.00,0.96
4640.00,0.96
4639.00,0.96
4638.00,0.96
4637.00,0.96
4636.00,0.96
4635.00,0.96
4634.00,0.96
4633.00,0.96
4632.00,0.96
4631.00,0.96
4630.00,0.96
4629.00,0.96
4628.00,0.96
4627.00,0.96
4626.00,0.96
4625.00,0.96
4624.00,0.96
4623.00,0.96
4622.00,0.96
4621.00,0.96
4620.00,0.96
4619.00,0.96
4618.00,0.96
4617.00,0.97
4616.00,0.97
4615.00,0.97
4614.00,0.97
4613.00,0.97
4612.00,0.97
4611.00,0.97
4610.00,0.97
4609.00,0.97
4608.00,0.97
4607.00,0.97
4606.00,0.97
4605.00,0.97
4604.00,0.97
4603.00,0.97
4602.00,0.98
4601.00,0.98
4600.00,0.98
4599.00,0.98
4598.00,0.98
4597.00,0.98
4596.00,0.98
4595.00,0.98
4594.00,0.98
4593.00,0.99
4592.00,0.99
4591.00,0.99
4590.00,0.99
4589.00,0.99
4588.00,0.99
4587.00,0.99
4586.00,0.99
4585.00,1.00
4584.00,1.00
4583.00,1.00
4582.00,1.00
4581.00,1.00
4580.00,1.00
4579.00,1.00
4578.00,1.00
4577.00,1.00
4576.00,1.01
4575.00,1.01
4574.00,1.01
4573.00,1.01
4572.00,1.01
4571.00,1.01
4570.00,1.01
4569.00,1.01
4568.00,1.01
4567.00,1.01
4566.00,1.01
4565.00,1.01
4564.00,1.01
4563.00,1.01
4562.00,1.01
4561.00,1.01
4560.00,1.01
4559.00,1.01
4558.00,1.01
4557.00,1.01
4556.00,1.01
4555.00,1.01
4554.00,1.01
4553.00,1.02
4552.00,1.02
4551.00,1.02
4550.00,1.02
4549.00,1.02
4548.00,1.02
4547.00,1.02
4546.00,1.02
4545.00,1.02
4544.00,1.02
4543.00,1.02
4542.00,1.02
4541.00,1.02
4540.00,1.02
4539.00,1.02
4538.00,1.02
4537.00,1.02
4536.00,1.02
4535.00,1.02
4534.00,1.02
4533.00,1.02
4532.00,1.02
4531.00,1.02
4530.00,1.03
4529.00,1.03
4528.00,1.03
4527.00,1.03
4526.00,1.03
4525.00,1.03
4524.00,1.03
4523.00,1.03
4522.00,1.03
4521.00,1.03
4520.00,1.03
4519.00,1.03
4518.00,1.03
4517.00,1.03
4516.00,1.03
4515.00,1.03
4514.00,1.03
4513.00,1.03
4512.00,1.03
4511.00,1.03
4510.00,1.03
4509.00,1.03
4508.00,1.03
4507.00,1.03
4506.00,1.03
4505.00,1.03
4504.00,1.03
4503.00,1.03
4502.00,1.03
4501.00,1.03
4500.00,1.03
4499.00,1.03
4498.00,1.03
4497.00,1.03
4496.00,1.03
4495.00,1.03
4494.00,1.03
4493.00,1.03
4492.00,1.03
4491.00,1.03
4490.00,1.03
4489.00,1.03
4488.00,1.02
4487.00,1.02
4486.00,1.02
4485.00,1.02
4484.00,1.02
4483.00,1.02
4482.00,1.02
4481.00,1.02
4480.00,1.01
4479.00,1.01
4478.00,1.01
4477.00,1.01
4476.00,1.01
4475.00,1.01
4474.00,1.00
4473.00,1.00
4472.00,1.00
4471.00,1.00
4470.00,1.00
4469.00,1.00
4468.00,0.99
4467.00,0.99
4466.00,0.99
4465.00,0.99
4464.00,0.99
4463.00,0.98
4462.00,0.98
4461.00,0.98
4460.00,0.98
4459.00,0.98
4458.00,0.97
4457.00,0.97
4456.00,0.97
4455.00,0.97
4454.00,0.96
4453.00,0.96
4452.00,0.96
4451.00,0.96
4450.00,0.96
4449.00,0.95
4448.00,0.95
4447.00,0.95
4446.00,0.95
4445.00,0.94
4444.00,0.94
4443.00,0.94
4442.00,0.94
4441.00,0.94
4440.00,0.93
4439.00,0.93
4438.00,0.93
4437.00,0.93
4436.00,0.93
4435.00,0.93
4434.00,0.92
4433.00,0.92
4432.00,0.92
4431.00,0.92
4430.00,0.92
4429.00,0.92
4428.00,0.92
4427.00,0.92
4426.00,0.92
4425.00,0.92
4424.00,0.91
4423.00,0.91
4422.00,0.91
4421.00,0.91
4420.00,0.91
4419.00,0.91
4418.00,0.91
4417.00,0.91
4416.00,0.91
4415.00,0.91
4414.00,0.91
4413.00,0.91
4412.00,0.91
4411.00,0.91
4410.00,0.91
4409.00,0.91
4408.00,0.91
4407.00,0.91
4406.00,0.91
4405.00,0.91
4404.00,0.91
4403.00,0.91
4402.00,0.91
4401.00,0.91
4400.00,0.91
4399.00,0.91
4398.00,0.92
4397.00,0.92
4396.00,0.92
4395.00,0.92
4394.00,0.92
4393.00,0.92
4392.00,0.92
4391.00,0.92
4390.00,0.92
4389.00,0.92
4388.00,0.92
4387.00,0.92
4386.00,0.92
4385.00,0.92
4384.00,0.92
4383.00,0.92
4382.00,0.92
4381.00,0.92
4380.00,0.92
4379.00,0.93
4378.00,0.93
4377.00,0.93
4376.00,0.93
4375.00,0.93
4374.00,0.93
4373.00,0.93
4372.00,0.93
4371.00,0.94
4370.00,0.94
4369.00,0.94
4368.00,0.94
4367.00,0.94
4366.00,0.94
4365.00,0.94
4364.00,0.94
4363.00,0.94
4362.00,0.94
4361.00,0.94
4360.00,0.94
4359.00,0.94
4358.00,0.94
4357.00,0.94
4356.00,0.94
4355.00,0.94
4354.00,0.94
4353.00,0.94
4352.00,0.94
4351.00,0.94
4350.00,0.94
4349.00,0.94
4348.00,0.94
4347.00,0.94
4346.00,0.94
4345.00,0.94
4344.00,0.94
4343.00,0.94
4342.00,0.94
4341.00,0.94
4340.00,0.94
4339.00,0.94
4338.00,0.94
4337.00,0.94
4336.00,0.94
4335.00,0.94
4334.00,0.94
4333.00,0.94
4332.00,0.94
4331.00,0.94
4330.00,0.94
4329.00,0.95
4328.00,0.95
4327.00,0.95
4326.00,0.95
4325.00,0.95
4324.00,0.95
4323.00,0.95
4322.00,0.96
4321.00,0.96
4320.00,0.96
4319.00,0.96
4318.00,0.96
4317.00,0.96
4316.00,0.97
4315.00,0.97
4314.00,0.97
4313.00,0.97
4312.00,0.97
4311.00,0.97
4310.00,0.97
4309.00,0.97
4308.00,0.97
4307.00,0.97
4306.00,0.97
4305.00,0.97
4304.00,0.97
4303.00,0.97
4302.00,0.97
4301.00,0.97
4300.00,0.97
4299.00,0.97
4298.00,0.97
4297.00,0.97
4296.00,0.97
4295.00,0.97
4294.00,0.97
4293.00,0.98
4292.00,0.98
4291.00,0.98
4290.00,0.98
4289.00,0.98
4288.00,0.98
4287.00,0.98
4286.00,0.99
4285.00,0.99
4284.00,0.99
4283.00,0.99
4282.00,0.99
4281.00,0.99
4280.00,0.99
4279.00,1.00
4278.00,1.00
4277.00,1.00
4276.00,1.00
4275.00,1.00
4274.00,1.00
4273.00,1.00
4272.00,1.00
4271.00,1.00
4270.00,1.00
4269.00,1.00
4268.00,1.00
4267.00,1.00
4266.00,1.00
4265.00,1.00
4264.00,1.00
4263.00,0.99
4262.00,0.99
4261.00,0.99
4260.00,0.99
4259.00,0.99
4258.00,0.99
4257.00,0.99
4256.00,0.99
4255.00,1.00
4254.00,1.00
4253.00,1.00
4252.00,1.00
4251.00,1.00
4250.00,1.00
4249.00,1.00
4248.00,1.00
4247.00,1.00
4246.00,1.00
4245.00,1.00
4244.00,1.00
4243.00,1.00
4242.00,1.00
4241.00,1.00
4240.00,1.00
4239.00,1.00
4238.00,1.00
4237.00,1.00
4236.00,1.01
4235.00,1.01
4234.00,1.01
4233.00,1.01
4232.00,1.01
4231.00,1.01
4230.00,1.02
4229.00,1.02
4228.00,1.02
4227.00,1.02
4226.00,1.02
4225.00,1.03
4224.00,1.03
4223.00,1.03
4222.00,1.03
4221.00,1.03
4220.00,1.03
4219.00,1.03
4218.00,1.03
4217.00,1.04
4216.00,1.04
4215.00,1.04
4214.00,1.04
4213.00,1.04
4212.00,1.04
4211.00,1.04
4210.00,1.04
4209.00,1.04
4208.00,1.04
4207.00,1.03
4206.00,1.03
4205.00,1.03
4204.00,1.03
4203.00,1.03
4202.00,1.03
4201.00,1.03
4200.00,1.03
4199.00,1.03
4198.00,1.03
4197.00,1.03
4196.00,1.03
4195.00,1.02
4194.00,1.02
4193.00,1.03
4192.00,1.03
4191.00,1.03
4190.00,1.03
4189.00,1.03
4188.00,1.03
4187.00,1.03
4186.00,1.03
4185.00,1.03
4184.00,1.04
4183.00,1.04
4182.00,1.04
4181.00,1.04
4180.00,1.04
4179.00,1.04
4178.00,1.04
4177.00,1.05
4176.00,1.05
4175.00,1.05
4174.00,1.05
4173.00,1.05
4172.00,1.05
4171.00,1.05
4170.00,1.05
4169.00,1.05
4168.00,1.05
4167.00,1.05
4166.00,1.05
4165.00,1.05
4164.00,1.05
4163.00,1.05
4162.00,1.05
4161.00,1.05
4160.00,1.05
4159.00,1.05
4158.00,1.05
4157.00,1.05
4156.00,1.05
4155.00,1.05
4154.00,1.05
4153.00,1.05
4152.00,1.05
4151.00,1.04
4150.00,1.04
4149.00,1.04
4148.00,1.04
4147.00,1.04
4146.00,1.04
4145.00,1.04
4144.00,1.04
4143.00,1.04
4142.00,1.05
4141.00,1.05
4140.00,1.05
4139.00,1.05
4138.00,1.05
4137.00,1.05
4136.00,1.05
4135.00,1.05
4134.00,1.05
4133.00,1.05
4132.00,1.05
4131.00,1.06
4130.00,1.06
4129.00,1.06
4128.00,1.06
4127.00,1.06
4126.00,1.06
4125.00,1.06
4124.00,1.06
4123.00,1.06
4122.00,1.06
4121.00,1.07
4120.00,1.07
4119.00,1.07
4118.00,1.07
4117.00,1.07
4116.00,1.07
4115.00,1.07
4114.00,1.08
4113.00,1.08
4112.00,1.08
4111.00,1.08
4110.00,1.08
4109.00,1.08
4108.00,1.08
4107.00,1.08
4106.00,1.08
4105.00,1.09
4104.00,1.09
4103.00,1.09
4102.00,1.09
4101.00,1.09
4100.00,1.09
4099.00,1.09
4098.00,1.09
4097.00,1.09
4096.00,1.08
4095.00,1.08
4094.00,1.08
4093.00,1.08
4092.00,1.08
4091.00,1.09
4090.00,1.09
4089.00,1.09
4088.00,1.09
4087.00,1.09
4086.00,1.09
4085.00,1.09
4084.00,1.09
4083.00,1.09
4082.00,1.09
4081.00,1.09
4080.00,1.09
4079.00,1.09
4078.00,1.10
4077.00,1.10
4076.00,1.10
4075.00,1.10
4074.00,1.10
4073.00,1.10
4072.00,1.10
4071.00,1.10
4070.00,1.10
4069.00,1.10
4068.00,1.10
4067.00,1.10
4066.00,1.10
4065.00,1.10
4064.00,1.10
4063.00,1.10
4062.00,1.10
4061.00,1.10
4060.00,1.10
4059.00,1.10
4058.00,1.10
4057.00,1.10
4056.00,1.11
4055.00,1.11
4054.00,1.11
4053.00,1.11
4052.00,1.11
4051.00,1.11
4050.00,1.11
4049.00,1.11
4048.00,1.11
4047.00,1.11
4046.00,1.11
4045.00,1.11
4044.00,1.11
4043.00,1.11
4042.00,1.11
4041.00,1.11
4040.00,1.11
4039.00,1.11
4038.00,1.11
4037.00,1.11
4036.00,1.11
4035.00,1.11
4034.00,1.11
4033.00,1.11
4032.00,1.11
4031.00,1.11
4030.00,1.11
4029.00,1.11
4028.00,1.11
4027.00,1.11
4026.00,1.11
4025.00,1.11
4024.00,1.11
4023.00,1.11
4022.00,1.11
4021.00,1.11
4020.00,1.11
4019.00,1.11
4018.00,1.11
4017.00,1.12
4016.00,1.12
4015.00,1.12
4014.00,1.12
4013.00,1.12
4012.00,1.12
4011.00,1.13
4010.00,1.13
4009.00,1.13
4008.00,1.13
4007.00,1.13
4006.00,1.14
4005.00,1.14
4004.00,1.14
4003.00,1.14
4002.00,1.15
4001.00,1.15
4000.00,1.15
