创建为新数据集,样品 149 用户 Administrator 日期 星期六, 七月 21 2018
cm-1,%T
10000.00,1.17
9999.00,1.17
9998.00,1.17
9997.00,1.17
9996.00,1.17
9995.00,1.17
9994.00,1.17
9993.00,1.17
9992.00,1.17
9991.00,1.17
9990.00,1.17
9989.00,1.16
9988.00,1.16
9987.00,1.16
9986.00,1.16
9985.00,1.15
9984.00,1.15
9983.00,1.15
9982.00,1.14
9981.00,1.14
9980.00,1.14
9979.00,1.14
9978.00,1.13
9977.00,1.13
9976.00,1.13
9975.00,1.13
9974.00,1.13
9973.00,1.13
9972.00,1.13
9971.00,1.13
9970.00,1.14
9969.00,1.14
9968.00,1.14
9967.00,1.14
9966.00,1.15
9965.00,1.15
9964.00,1.15
9963.00,1.16
9962.00,1.16
9961.00,1.16
9960.00,1.16
9959.00,1.16
9958.00,1.17
9957.00,1.17
9956.00,1.16
9955.00,1.16
9954.00,1.16
9953.00,1.16
9952.00,1.16
9951.00,1.16
9950.00,1.15
9949.00,1.15
9948.00,1.15
9947.00,1.15
9946.00,1.15
9945.00,1.14
9944.00,1.14
9943.00,1.15
9942.00,1.15
9941.00,1.15
9940.00,1.15
9939.00,1.15
9938.00,1.15
9937.00,1.16
9936.00,1.16
9935.00,1.16
9934.00,1.16
9933.00,1.16
9932.00,1.16
9931.00,1.16
9930.00,1.16
9929.00,1.16
9928.00,1.16
9927.00,1.16
9926.00,1.16
9925.00,1.16
9924.00,1.15
9923.00,1.15
9922.00,1.15
9921.00,1.14
9920.00,1.14
9919.00,1.13
9918.00,1.13
9917.00,1.13
9916.00,1.13
9915.00,1.12
9914.00,1.12
9913.00,1.12
9912.00,1.12
9911.00,1.12
9910.00,1.12
9909.00,1.12
9908.00,1.12
9907.00,1.13
9906.00,1.13
9905.00,1.13
9904.00,1.13
9903.00,1.14
9902.00,1.14
9901.00,1.14
9900.00,1.14
9899.00,1.15
9898.00,1.15
9897.00,1.15
9896.00,1.15
9895.00,1.15
9894.00,1.15
9893.00,1.16
9892.00,1.16
9891.00,1.16
9890.00,1.16
9889.00,1.16
9888.00,1.16
9887.00,1.16
9886.00,1.15
9885.00,1.15
9884.00,1.15
9883.00,1.15
9882.00,1.15
9881.00,1.15
9880.00,1.15
9879.00,1.15
9878.00,1.15
9877.00,1.15
9876.00,1.15
9875.00,1.15
9874.00,1.15
9873.00,1.14
9872.00,1.14
9871.00,1.14
9870.00,1.14
9869.00,1.14
9868.00,1.14
9867.00,1.14
9866.00,1.14
9865.00,1.14
9864.00,1.14
9863.00,1.14
9862.00,1.14
9861.00,1.14
9860.00,1.15
9859.00,1.15
9858.00,1.15
9857.00,1.15
9856.00,1.15
9855.00,1.15
9854.00,1.15
9853.00,1.15
9852.00,1.16
9851.00,1.16
9850.00,1.16
9849.00,1.16
9848.00,1.16
9847.00,1.16
9846.00,1.16
9845.00,1.16
9844.00,1.16
9843.00,1.16
9842.00,1.16
9841.00,1.16
9840.00,1.16
9839.00,1.16
9838.00,1.17
9837.00,1.17
9836.00,1.17
9835.00,1.17
9834.00,1.17
9833.00,1.17
9832.00,1.17
9831.00,1.17
9830.00,1.17
9829.00,1.17
9828.00,1.16
9827.00,1.16
9826.00,1.16
9825.00,1.16
9824.00,1.16
9823.00,1.15
9822.00,1.15
9821.00,1.15
9820.00,1.15
9819.00,1.15
9818.00,1.15
9817.00,1.15
9816.00,1.15
9815.00,1.15
9814.00,1.15
9813.00,1.15
9812.00,1.16
9811.00,1.16
9810.00,1.16
9809.00,1.16
9808.00,1.16
9807.00,1.16
9806.00,1.16
9805.00,1.15
9804.00,1.15
9803.00,1.15
9802.00,1.15
9801.00,1.15
9800.00,1.15
9799.00,1.15
9798.00,1.15
9797.00,1.14
9796.00,1.14
9795.00,1.14
9794.00,1.14
9793.00,1.14
9792.00,1.14
9791.00,1.15
9790.00,1.15
9789.00,1.15
9788.00,1.15
9787.00,1.15
9786.00,1.15
9785.00,1.15
9784.00,1.14
9783.00,1.14
9782.00,1.14
9781.00,1.14
9780.00,1.14
9779.00,1.13
9778.00,1.13
9777.00,1.13
9776.00,1.13
9775.00,1.13
9774.00,1.12
9773.00,1.12
9772.00,1.12
9771.00,1.12
9770.00,1.12
9769.00,1.12
9768.00,1.13
9767.00,1.13
9766.00,1.13
9765.00,1.13
9764.00,1.13
9763.00,1.14
9762.00,1.14
9761.00,1.14
9760.00,1.14
9759.00,1.15
9758.00,1.15
9757.00,1.15
9756.00,1.15
9755.00,1.15
9754.00,1.15
9753.00,1.15
9752.00,1.15
9751.00,1.15
9750.00,1.15
9749.00,1.15
9748.00,1.15
9747.00,1.15
9746.00,1.14
9745.00,1.14
9744.00,1.14
9743.00,1.14
9742.00,1.14
9741.00,1.13
9740.00,1.13
9739.00,1.13
9738.00,1.13
9737.00,1.13
9736.00,1.13
9735.00,1.13
9734.00,1.13
9733.00,1.13
9732.00,1.13
9731.00,1.13
9730.00,1.13
9729.00,1.13
9728.00,1.13
9727.00,1.13
9726.00,1.13
9725.00,1.14
9724.00,1.14
9723.00,1.14
9722.00,1.14
9721.00,1.14
9720.00,1.15
9719.00,1.15
9718.00,1.15
9717.00,1.15
9716.00,1.15
9715.00,1.15
9714.00,1.15
9713.00,1.15
9712.00,1.15
9711.00,1.15
9710.00,1.15
9709.00,1.15
9708.00,1.14
9707.00,1.14
9706.00,1.14
9705.00,1.14
9704.00,1.13
9703.00,1.13
9702.00,1.13
9701.00,1.13
9700.00,1.13
9699.00,1.12
9698.00,1.12
9697.00,1.12
9696.00,1.12
9695.00,1.12
9694.00,1.11
9693.00,1.11
9692.00,1.11
9691.00,1.11
9690.00,1.11
9689.00,1.11
9688.00,1.11
9687.00,1.11
9686.00,1.11
9685.00,1.10
9684.00,1.10
9683.00,1.10
9682.00,1.10
9681.00,1.10
9680.00,1.10
9679.00,1.11
9678.00,1.11
9677.00,1.11
9676.00,1.11
9675.00,1.11
9674.00,1.11
9673.00,1.11
9672.00,1.12
9671.00,1.12
9670.00,1.12
9669.00,1.12
9668.00,1.12
9667.00,1.12
9666.00,1.12
9665.00,1.13
9664.00,1.13
9663.00,1.13
9662.00,1.13
9661.00,1.13
9660.00,1.13
9659.00,1.13
9658.00,1.13
9657.00,1.12
9656.00,1.12
9655.00,1.12
9654.00,1.12
9653.00,1.12
9652.00,1.12
9651.00,1.12
9650.00,1.12
9649.00,1.12
9648.00,1.12
9647.00,1.12
9646.00,1.12
9645.00,1.12
9644.00,1.12
9643.00,1.12
9642.00,1.12
9641.00,1.12
9640.00,1.12
9639.00,1.12
9638.00,1.12
9637.00,1.13
9636.00,1.13
9635.00,1.13
9634.00,1.13
9633.00,1.13
9632.00,1.13
9631.00,1.13
9630.00,1.13
9629.00,1.13
9628.00,1.13
9627.00,1.13
9626.00,1.13
9625.00,1.13
9624.00,1.13
9623.00,1.13
9622.00,1.13
9621.00,1.13
9620.00,1.13
9619.00,1.13
9618.00,1.14
9617.00,1.14
9616.00,1.14
9615.00,1.14
9614.00,1.14
9613.00,1.14
9612.00,1.15
9611.00,1.15
9610.00,1.15
9609.00,1.15
9608.00,1.15
9607.00,1.15
9606.00,1.15
9605.00,1.16
9604.00,1.16
9603.00,1.16
9602.00,1.16
9601.00,1.16
9600.00,1.16
9599.00,1.16
9598.00,1.16
9597.00,1.16
9596.00,1.16
9595.00,1.16
9594.00,1.16
9593.00,1.16
9592.00,1.16
9591.00,1.16
9590.00,1.16
9589.00,1.16
9588.00,1.16
9587.00,1.16
9586.00,1.16
9585.00,1.16
9584.00,1.15
9583.00,1.15
9582.00,1.15
9581.00,1.15
9580.00,1.14
9579.00,1.14
9578.00,1.14
9577.00,1.13
9576.00,1.13
9575.00,1.13
9574.00,1.13
9573.00,1.12
9572.00,1.12
9571.00,1.12
9570.00,1.12
9569.00,1.12
9568.00,1.12
9567.00,1.12
9566.00,1.12
9565.00,1.12
9564.00,1.12
9563.00,1.13
9562.00,1.13
9561.00,1.13
9560.00,1.13
9559.00,1.13
9558.00,1.13
9557.00,1.14
9556.00,1.14
9555.00,1.14
9554.00,1.14
9553.00,1.14
9552.00,1.14
9551.00,1.14
9550.00,1.14
9549.00,1.14
9548.00,1.14
9547.00,1.14
9546.00,1.14
9545.00,1.14
9544.00,1.14
9543.00,1.14
9542.00,1.14
9541.00,1.14
9540.00,1.14
9539.00,1.14
9538.00,1.14
9537.00,1.14
9536.00,1.14
9535.00,1.14
9534.00,1.14
9533.00,1.14
9532.00,1.14
9531.00,1.14
9530.00,1.14
9529.00,1.14
9528.00,1.14
9527.00,1.13
9526.00,1.13
9525.00,1.13
9524.00,1.13
9523.00,1.13
9522.00,1.13
9521.00,1.13
9520.00,1.13
9519.00,1.13
9518.00,1.13
9517.00,1.13
9516.00,1.13
9515.00,1.13
9514.00,1.14
9513.00,1.14
9512.00,1.14
9511.00,1.14
9510.00,1.14
9509.00,1.14
9508.00,1.14
9507.00,1.14
9506.00,1.14
9505.00,1.14
9504.00,1.14
9503.00,1.14
9502.00,1.14
9501.00,1.14
9500.00,1.14
9499.00,1.14
9498.00,1.14
9497.00,1.14
9496.00,1.14
9495.00,1.14
9494.00,1.14
9493.00,1.14
9492.00,1.14
9491.00,1.14
9490.00,1.14
9489.00,1.14
9488.00,1.14
9487.00,1.14
9486.00,1.14
9485.00,1.14
9484.00,1.14
9483.00,1.14
9482.00,1.14
9481.00,1.14
9480.00,1.14
9479.00,1.14
9478.00,1.13
9477.00,1.13
9476.00,1.13
9475.00,1.13
9474.00,1.13
9473.00,1.13
9472.00,1.13
9471.00,1.13
9470.00,1.13
9469.00,1.13
9468.00,1.13
9467.00,1.13
9466.00,1.13
9465.00,1.13
9464.00,1.14
9463.00,1.14
9462.00,1.14
9461.00,1.14
9460.00,1.15
9459.00,1.15
9458.00,1.15
9457.00,1.15
9456.00,1.16
9455.00,1.16
9454.00,1.16
9453.00,1.16
9452.00,1.16
9451.00,1.16
9450.00,1.16
9449.00,1.16
9448.00,1.16
9447.00,1.16
9446.00,1.16
9445.00,1.16
9444.00,1.17
9443.00,1.17
9442.00,1.17
9441.00,1.17
9440.00,1.17
9439.00,1.17
9438.00,1.17
9437.00,1.17
9436.00,1.17
9435.00,1.17
9434.00,1.17
9433.00,1.17
9432.00,1.17
9431.00,1.16
9430.00,1.16
9429.00,1.16
9428.00,1.16
9427.00,1.16
9426.00,1.16
9425.00,1.15
9424.00,1.15
9423.00,1.15
9422.00,1.15
9421.00,1.14
9420.00,1.14
9419.00,1.14
9418.00,1.14
9417.00,1.13
9416.00,1.13
9415.00,1.13
9414.00,1.13
9413.00,1.12
9412.00,1.12
9411.00,1.12
9410.00,1.12
9409.00,1.12
9408.00,1.12
9407.00,1.12
9406.00,1.12
9405.00,1.12
9404.00,1.12
9403.00,1.12
9402.00,1.12
9401.00,1.12
9400.00,1.12
9399.00,1.12
9398.00,1.13
9397.00,1.13
9396.00,1.13
9395.00,1.13
9394.00,1.14
9393.00,1.14
9392.00,1.14
9391.00,1.14
9390.00,1.14
9389.00,1.14
9388.00,1.15
9387.00,1.15
9386.00,1.15
9385.00,1.15
9384.00,1.15
9383.00,1.15
9382.00,1.15
9381.00,1.15
9380.00,1.15
9379.00,1.15
9378.00,1.15
9377.00,1.15
9376.00,1.15
9375.00,1.15
9374.00,1.15
9373.00,1.15
9372.00,1.15
9371.00,1.14
9370.00,1.14
9369.00,1.14
9368.00,1.14
9367.00,1.14
9366.00,1.13
9365.00,1.13
9364.00,1.13
9363.00,1.13
9362.00,1.13
9361.00,1.13
9360.00,1.13
9359.00,1.13
9358.00,1.13
9357.00,1.13
9356.00,1.12
9355.00,1.12
9354.00,1.12
9353.00,1.12
9352.00,1.12
9351.00,1.12
9350.00,1.12
9349.00,1.12
9348.00,1.12
9347.00,1.12
9346.00,1.12
9345.00,1.13
9344.00,1.13
9343.00,1.13
9342.00,1.13
9341.00,1.13
9340.00,1.13
9339.00,1.13
9338.00,1.14
9337.00,1.14
9336.00,1.14
9335.00,1.14
9334.00,1.14
9333.00,1.14
9332.00,1.14
9331.00,1.14
9330.00,1.14
9329.00,1.15
9328.00,1.15
9327.00,1.15
9326.00,1.15
9325.00,1.15
9324.00,1.15
9323.00,1.15
9322.00,1.15
9321.00,1.15
9320.00,1.15
9319.00,1.15
9318.00,1.15
9317.00,1.15
9316.00,1.14
9315.00,1.14
9314.00,1.14
9313.00,1.14
9312.00,1.14
9311.00,1.13
9310.00,1.13
9309.00,1.13
9308.00,1.12
9307.00,1.12
9306.00,1.12
9305.00,1.12
9304.00,1.11
9303.00,1.11
9302.00,1.11
9301.00,1.11
9300.00,1.11
9299.00,1.11
9298.00,1.11
9297.00,1.11
9296.00,1.11
9295.00,1.11
9294.00,1.11
9293.00,1.12
9292.00,1.12
9291.00,1.12
9290.00,1.12
9289.00,1.12
9288.00,1.13
9287.00,1.13
9286.00,1.13
9285.00,1.13
9284.00,1.13
9283.00,1.13
9282.00,1.13
9281.00,1.13
9280.00,1.13
9279.00,1.13
9278.00,1.13
9277.00,1.12
9276.00,1.12
9275.00,1.12
9274.00,1.12
9273.00,1.12
9272.00,1.12
9271.00,1.12
9270.00,1.12
9269.00,1.11
9268.00,1.11
9267.00,1.11
9266.00,1.11
9265.00,1.11
9264.00,1.11
9263.00,1.11
9262.00,1.11
9261.00,1.11
9260.00,1.11
9259.00,1.12
9258.00,1.12
9257.00,1.12
9256.00,1.12
9255.00,1.12
9254.00,1.12
9253.00,1.12
9252.00,1.12
9251.00,1.12
9250.00,1.13
9249.00,1.13
9248.00,1.13
9247.00,1.13
9246.00,1.13
9245.00,1.13
9244.00,1.13
9243.00,1.13
9242.00,1.13
9241.00,1.13
9240.00,1.13
9239.00,1.13
9238.00,1.14
9237.00,1.14
9236.00,1.14
9235.00,1.14
9234.00,1.14
9233.00,1.14
9232.00,1.14
9231.00,1.14
9230.00,1.14
9229.00,1.14
9228.00,1.13
9227.00,1.13
9226.00,1.13
9225.00,1.13
9224.00,1.13
9223.00,1.13
9222.00,1.13
9221.00,1.13
9220.00,1.13
9219.00,1.13
9218.00,1.13
9217.00,1.13
9216.00,1.13
9215.00,1.14
9214.00,1.14
9213.00,1.14
9212.00,1.14
9211.00,1.14
9210.00,1.14
9209.00,1.15
9208.00,1.15
9207.00,1.15
9206.00,1.15
9205.00,1.15
9204.00,1.15
9203.00,1.15
9202.00,1.15
9201.00,1.15
9200.00,1.15
9199.00,1.15
9198.00,1.15
9197.00,1.15
9196.00,1.15
9195.00,1.15
9194.00,1.15
9193.00,1.15
9192.00,1.15
9191.00,1.15
9190.00,1.14
9189.00,1.14
9188.00,1.14
9187.00,1.14
9186.00,1.14
9185.00,1.14
9184.00,1.14
9183.00,1.14
9182.00,1.14
9181.00,1.14
9180.00,1.14
9179.00,1.14
9178.00,1.14
9177.00,1.14
9176.00,1.14
9175.00,1.15
9174.00,1.15
9173.00,1.15
9172.00,1.15
9171.00,1.15
9170.00,1.15
9169.00,1.15
9168.00,1.15
9167.00,1.15
9166.00,1.15
9165.00,1.15
9164.00,1.15
9163.00,1.15
9162.00,1.15
9161.00,1.15
9160.00,1.15
9159.00,1.15
9158.00,1.15
9157.00,1.15
9156.00,1.15
9155.00,1.14
9154.00,1.14
9153.00,1.14
9152.00,1.14
9151.00,1.14
9150.00,1.14
9149.00,1.14
9148.00,1.14
9147.00,1.14
9146.00,1.14
9145.00,1.13
9144.00,1.13
9143.00,1.13
9142.00,1.13
9141.00,1.14
9140.00,1.14
9139.00,1.14
9138.00,1.14
9137.00,1.14
9136.00,1.14
9135.00,1.14
9134.00,1.14
9133.00,1.14
9132.00,1.14
9131.00,1.14
9130.00,1.14
9129.00,1.14
9128.00,1.14
9127.00,1.14
9126.00,1.14
9125.00,1.14
9124.00,1.14
9123.00,1.14
9122.00,1.14
9121.00,1.14
9120.00,1.14
9119.00,1.14
9118.00,1.14
9117.00,1.14
9116.00,1.14
9115.00,1.14
9114.00,1.14
9113.00,1.14
9112.00,1.14
9111.00,1.14
9110.00,1.14
9109.00,1.14
9108.00,1.14
9107.00,1.14
9106.00,1.15
9105.00,1.15
9104.00,1.15
9103.00,1.15
9102.00,1.15
9101.00,1.15
9100.00,1.15
9099.00,1.15
9098.00,1.15
9097.00,1.15
9096.00,1.15
9095.00,1.15
9094.00,1.15
9093.00,1.15
9092.00,1.15
9091.00,1.14
9090.00,1.14
9089.00,1.14
9088.00,1.14
9087.00,1.14
9086.00,1.14
9085.00,1.14
9084.00,1.14
9083.00,1.14
9082.00,1.14
9081.00,1.14
9080.00,1.14
9079.00,1.14
9078.00,1.14
9077.00,1.14
9076.00,1.14
9075.00,1.14
9074.00,1.14
9073.00,1.14
9072.00,1.14
9071.00,1.14
9070.00,1.14
9069.00,1.14
9068.00,1.14
9067.00,1.14
9066.00,1.13
9065.00,1.13
9064.00,1.13
9063.00,1.13
9062.00,1.13
9061.00,1.13
9060.00,1.13
9059.00,1.13
9058.00,1.13
9057.00,1.13
9056.00,1.13
9055.00,1.13
9054.00,1.14
9053.00,1.14
9052.00,1.14
9051.00,1.14
9050.00,1.14
9049.00,1.14
9048.00,1.14
9047.00,1.14
9046.00,1.14
9045.00,1.15
9044.00,1.15
9043.00,1.15
9042.00,1.15
9041.00,1.15
9040.00,1.14
9039.00,1.14
9038.00,1.14
9037.00,1.14
9036.00,1.14
9035.00,1.14
9034.00,1.14
9033.00,1.14
9032.00,1.14
9031.00,1.14
9030.00,1.14
9029.00,1.13
9028.00,1.13
9027.00,1.13
9026.00,1.13
9025.00,1.13
9024.00,1.13
9023.00,1.14
9022.00,1.14
9021.00,1.14
9020.00,1.14
9019.00,1.14
9018.00,1.14
9017.00,1.14
9016.00,1.14
9015.00,1.14
9014.00,1.15
9013.00,1.15
9012.00,1.15
9011.00,1.15
9010.00,1.15
9009.00,1.15
9008.00,1.15
9007.00,1.15
9006.00,1.15
9005.00,1.15
9004.00,1.15
9003.00,1.16
9002.00,1.16
9001.00,1.16
9000.00,1.16
8999.00,1.16
8998.00,1.16
8997.00,1.16
8996.00,1.16
8995.00,1.16
8994.00,1.16
8993.00,1.16
8992.00,1.16
8991.00,1.16
8990.00,1.16
8989.00,1.17
8988.00,1.17
8987.00,1.17
8986.00,1.17
8985.00,1.17
8984.00,1.16
8983.00,1.16
8982.00,1.16
8981.00,1.16
8980.00,1.16
8979.00,1.16
8978.00,1.16
8977.00,1.16
8976.00,1.16
8975.00,1.16
8974.00,1.16
8973.00,1.15
8972.00,1.15
8971.00,1.15
8970.00,1.15
8969.00,1.15
8968.00,1.15
8967.00,1.15
8966.00,1.15
8965.00,1.15
8964.00,1.15
8963.00,1.15
8962.00,1.15
8961.00,1.15
8960.00,1.15
8959.00,1.15
8958.00,1.15
8957.00,1.15
8956.00,1.15
8955.00,1.15
8954.00,1.15
8953.00,1.15
8952.00,1.15
8951.00,1.15
8950.00,1.15
8949.00,1.16
8948.00,1.16
8947.00,1.16
8946.00,1.16
8945.00,1.16
8944.00,1.16
8943.00,1.16
8942.00,1.16
8941.00,1.16
8940.00,1.16
8939.00,1.16
8938.00,1.16
8937.00,1.16
8936.00,1.16
8935.00,1.16
8934.00,1.15
8933.00,1.15
8932.00,1.15
8931.00,1.15
8930.00,1.15
8929.00,1.15
8928.00,1.15
8927.00,1.15
8926.00,1.14
8925.00,1.14
8924.00,1.14
8923.00,1.14
8922.00,1.14
8921.00,1.14
8920.00,1.14
8919.00,1.14
8918.00,1.14
8917.00,1.14
8916.00,1.14
8915.00,1.14
8914.00,1.14
8913.00,1.14
8912.00,1.15
8911.00,1.15
8910.00,1.15
8909.00,1.15
8908.00,1.15
8907.00,1.15
8906.00,1.15
8905.00,1.16
8904.00,1.16
8903.00,1.16
8902.00,1.16
8901.00,1.16
8900.00,1.16
8899.00,1.16
8898.00,1.17
8897.00,1.17
8896.00,1.17
8895.00,1.17
8894.00,1.17
8893.00,1.17
8892.00,1.17
8891.00,1.17
8890.00,1.16
8889.00,1.16
8888.00,1.16
8887.00,1.16
8886.00,1.16
8885.00,1.16
8884.00,1.16
8883.00,1.15
8882.00,1.15
8881.00,1.15
8880.00,1.15
8879.00,1.15
8878.00,1.15
8877.00,1.15
8876.00,1.15
8875.00,1.15
8874.00,1.15
8873.00,1.15
8872.00,1.15
8871.00,1.15
8870.00,1.15
8869.00,1.15
8868.00,1.15
8867.00,1.15
8866.00,1.15
8865.00,1.15
8864.00,1.15
8863.00,1.15
8862.00,1.15
8861.00,1.15
8860.00,1.15
8859.00,1.15
8858.00,1.15
8857.00,1.15
8856.00,1.15
8855.00,1.15
8854.00,1.15
8853.00,1.15
8852.00,1.15
8851.00,1.15
8850.00,1.15
8849.00,1.15
8848.00,1.15
8847.00,1.15
8846.00,1.15
8845.00,1.15
8844.00,1.15
8843.00,1.15
8842.00,1.15
8841.00,1.15
8840.00,1.15
8839.00,1.15
8838.00,1.14
8837.00,1.14
8836.00,1.14
8835.00,1.14
8834.00,1.14
8833.00,1.14
8832.00,1.14
8831.00,1.14
8830.00,1.14
8829.00,1.14
8828.00,1.14
8827.00,1.14
8826.00,1.13
8825.00,1.13
8824.00,1.13
8823.00,1.13
8822.00,1.13
8821.00,1.13
8820.00,1.13
8819.00,1.13
8818.00,1.13
8817.00,1.13
8816.00,1.13
8815.00,1.13
8814.00,1.13
8813.00,1.13
8812.00,1.13
8811.00,1.13
8810.00,1.14
8809.00,1.14
8808.00,1.14
8807.00,1.14
8806.00,1.14
8805.00,1.14
8804.00,1.14
8803.00,1.14
8802.00,1.14
8801.00,1.14
8800.00,1.14
8799.00,1.14
8798.00,1.14
8797.00,1.14
8796.00,1.14
8795.00,1.14
8794.00,1.14
8793.00,1.14
8792.00,1.13
8791.00,1.13
8790.00,1.13
8789.00,1.13
8788.00,1.13
8787.00,1.13
8786.00,1.13
8785.00,1.13
8784.00,1.12
8783.00,1.12
8782.00,1.12
8781.00,1.12
8780.00,1.12
8779.00,1.12
8778.00,1.12
8777.00,1.12
8776.00,1.12
8775.00,1.12
8774.00,1.12
8773.00,1.12
8772.00,1.12
8771.00,1.12
8770.00,1.12
8769.00,1.12
8768.00,1.12
8767.00,1.12
8766.00,1.12
8765.00,1.12
8764.00,1.12
8763.00,1.12
8762.00,1.11
8761.00,1.11
8760.00,1.11
8759.00,1.11
8758.00,1.11
8757.00,1.11
8756.00,1.11
8755.00,1.11
8754.00,1.11
8753.00,1.11
8752.00,1.11
8751.00,1.11
8750.00,1.11
8749.00,1.11
8748.00,1.11
8747.00,1.11
8746.00,1.11
8745.00,1.11
8744.00,1.11
8743.00,1.11
8742.00,1.11
8741.00,1.11
8740.00,1.11
8739.00,1.11
8738.00,1.11
8737.00,1.11
8736.00,1.11
8735.00,1.11
8734.00,1.11
8733.00,1.11
8732.00,1.11
8731.00,1.11
8730.00,1.11
8729.00,1.11
8728.00,1.12
8727.00,1.12
8726.00,1.12
8725.00,1.12
8724.00,1.12
8723.00,1.12
8722.00,1.12
8721.00,1.11
8720.00,1.11
8719.00,1.11
8718.00,1.11
8717.00,1.11
8716.00,1.11
8715.00,1.11
8714.00,1.11
8713.00,1.11
8712.00,1.11
8711.00,1.11
8710.00,1.11
8709.00,1.11
8708.00,1.12
8707.00,1.12
8706.00,1.12
8705.00,1.12
8704.00,1.12
8703.00,1.12
8702.00,1.12
8701.00,1.12
8700.00,1.12
8699.00,1.13
8698.00,1.13
8697.00,1.13
8696.00,1.13
8695.00,1.13
8694.00,1.12
8693.00,1.12
8692.00,1.12
8691.00,1.12
8690.00,1.12
8689.00,1.12
8688.00,1.11
8687.00,1.11
8686.00,1.11
8685.00,1.11
8684.00,1.11
8683.00,1.10
8682.00,1.10
8681.00,1.10
8680.00,1.10
8679.00,1.10
8678.00,1.09
8677.00,1.09
8676.00,1.09
8675.00,1.09
8674.00,1.09
8673.00,1.09
8672.00,1.09
8671.00,1.09
8670.00,1.09
8669.00,1.09
8668.00,1.09
8667.00,1.09
8666.00,1.09
8665.00,1.10
8664.00,1.10
8663.00,1.10
8662.00,1.10
8661.00,1.10
8660.00,1.11
8659.00,1.11
8658.00,1.11
8657.00,1.11
8656.00,1.11
8655.00,1.11
8654.00,1.11
8653.00,1.12
8652.00,1.12
8651.00,1.12
8650.00,1.12
8649.00,1.11
8648.00,1.11
8647.00,1.11
8646.00,1.11
8645.00,1.11
8644.00,1.11
8643.00,1.11
8642.00,1.11
8641.00,1.10
8640.00,1.10
8639.00,1.10
8638.00,1.10
8637.00,1.10
8636.00,1.10
8635.00,1.10
8634.00,1.10
8633.00,1.10
8632.00,1.10
8631.00,1.10
8630.00,1.10
8629.00,1.10
8628.00,1.10
8627.00,1.10
8626.00,1.10
8625.00,1.10
8624.00,1.10
8623.00,1.10
8622.00,1.10
8621.00,1.10
8620.00,1.10
8619.00,1.10
8618.00,1.10
8617.00,1.10
8616.00,1.09
8615.00,1.09
8614.00,1.09
8613.00,1.09
8612.00,1.09
8611.00,1.09
8610.00,1.09
8609.00,1.09
8608.00,1.09
8607.00,1.09
8606.00,1.09
8605.00,1.09
8604.00,1.09
8603.00,1.09
8602.00,1.09
8601.00,1.09
8600.00,1.09
8599.00,1.09
8598.00,1.09
8597.00,1.09
8596.00,1.09
8595.00,1.09
8594.00,1.09
8593.00,1.09
8592.00,1.09
8591.00,1.09
8590.00,1.09
8589.00,1.09
8588.00,1.09
8587.00,1.09
8586.00,1.08
8585.00,1.08
8584.00,1.08
8583.00,1.08
8582.00,1.08
8581.00,1.08
8580.00,1.08
8579.00,1.08
8578.00,1.08
8577.00,1.08
8576.00,1.08
8575.00,1.08
8574.00,1.09
8573.00,1.09
8572.00,1.09
8571.00,1.09
8570.00,1.09
8569.00,1.10
8568.00,1.10
8567.00,1.10
8566.00,1.10
8565.00,1.10
8564.00,1.10
8563.00,1.10
8562.00,1.10
8561.00,1.10
8560.00,1.10
8559.00,1.10
8558.00,1.10
8557.00,1.10
8556.00,1.09
8555.00,1.09
8554.00,1.09
8553.00,1.09
8552.00,1.08
8551.00,1.08
8550.00,1.08
8549.00,1.08
8548.00,1.08
8547.00,1.08
8546.00,1.08
8545.00,1.08
8544.00,1.08
8543.00,1.08
8542.00,1.07
8541.00,1.07
8540.00,1.07
8539.00,1.07
8538.00,1.07
8537.00,1.07
8536.00,1.07
8535.00,1.07
8534.00,1.07
8533.00,1.07
8532.00,1.07
8531.00,1.07
8530.00,1.07
8529.00,1.07
8528.00,1.07
8527.00,1.07
8526.00,1.07
8525.00,1.07
8524.00,1.07
8523.00,1.07
8522.00,1.07
8521.00,1.06
8520.00,1.06
8519.00,1.06
8518.00,1.06
8517.00,1.06
8516.00,1.06
8515.00,1.06
8514.00,1.06
8513.00,1.06
8512.00,1.06
8511.00,1.06
8510.00,1.06
8509.00,1.06
8508.00,1.06
8507.00,1.06
8506.00,1.06
8505.00,1.06
8504.00,1.06
8503.00,1.06
8502.00,1.06
8501.00,1.06
8500.00,1.06
8499.00,1.06
8498.00,1.06
8497.00,1.06
8496.00,1.06
8495.00,1.06
8494.00,1.06
8493.00,1.06
8492.00,1.06
8491.00,1.06
8490.00,1.06
8489.00,1.06
8488.00,1.06
8487.00,1.06
8486.00,1.06
8485.00,1.06
8484.00,1.06
8483.00,1.06
8482.00,1.06
8481.00,1.06
8480.00,1.06
8479.00,1.06
8478.00,1.05
8477.00,1.05
8476.00,1.05
8475.00,1.05
8474.00,1.05
8473.00,1.05
8472.00,1.05
8471.00,1.05
8470.00,1.05
8469.00,1.05
8468.00,1.05
8467.00,1.05
8466.00,1.05
8465.00,1.05
8464.00,1.05
8463.00,1.05
8462.00,1.05
8461.00,1.05
8460.00,1.05
8459.00,1.05
8458.00,1.05
8457.00,1.05
8456.00,1.05
8455.00,1.04
8454.00,1.04
8453.00,1.04
8452.00,1.04
8451.00,1.04
8450.00,1.04
8449.00,1.04
8448.00,1.04
8447.00,1.04
8446.00,1.04
8445.00,1.04
8444.00,1.04
8443.00,1.04
8442.00,1.04
8441.00,1.04
8440.00,1.04
8439.00,1.04
8438.00,1.04
8437.00,1.04
8436.00,1.04
8435.00,1.04
8434.00,1.04
8433.00,1.04
8432.00,1.04
8431.00,1.05
8430.00,1.05
8429.00,1.05
8428.00,1.05
8427.00,1.05
8426.00,1.05
8425.00,1.05
8424.00,1.05
8423.00,1.05
8422.00,1.05
8421.00,1.05
8420.00,1.05
8419.00,1.05
8418.00,1.05
8417.00,1.05
8416.00,1.05
8415.00,1.05
8414.00,1.05
8413.00,1.05
8412.00,1.05
8411.00,1.05
8410.00,1.05
8409.00,1.05
8408.00,1.05
8407.00,1.05
8406.00,1.05
8405.00,1.05
8404.00,1.05
8403.00,1.05
8402.00,1.05
8401.00,1.05
8400.00,1.05
8399.00,1.06
8398.00,1.06
8397.00,1.06
8396.00,1.06
8395.00,1.06
8394.00,1.07
8393.00,1.07
8392.00,1.07
8391.00,1.07
8390.00,1.07
8389.00,1.07
8388.00,1.07
8387.00,1.07
8386.00,1.07
8385.00,1.07
8384.00,1.07
8383.00,1.07
8382.00,1.07
8381.00,1.07
8380.00,1.07
8379.00,1.07
8378.00,1.07
8377.00,1.07
8376.00,1.07
8375.00,1.07
8374.00,1.07
8373.00,1.07
8372.00,1.07
8371.00,1.07
8370.00,1.07
8369.00,1.07
8368.00,1.07
8367.00,1.07
8366.00,1.07
8365.00,1.07
8364.00,1.07
8363.00,1.07
8362.00,1.07
8361.00,1.07
8360.00,1.07
8359.00,1.08
8358.00,1.08
8357.00,1.08
8356.00,1.08
8355.00,1.08
8354.00,1.08
8353.00,1.08
8352.00,1.08
8351.00,1.08
8350.00,1.08
8349.00,1.08
8348.00,1.08
8347.00,1.08
8346.00,1.08
8345.00,1.08
8344.00,1.08
8343.00,1.08
8342.00,1.08
8341.00,1.08
8340.00,1.08
8339.00,1.08
8338.00,1.08
8337.00,1.08
8336.00,1.08
8335.00,1.08
8334.00,1.08
8333.00,1.08
8332.00,1.08
8331.00,1.08
8330.00,1.08
8329.00,1.08
8328.00,1.08
8327.00,1.08
8326.00,1.08
8325.00,1.08
8324.00,1.08
8323.00,1.08
8322.00,1.08
8321.00,1.08
8320.00,1.08
8319.00,1.08
8318.00,1.08
8317.00,1.08
8316.00,1.07
8315.00,1.07
8314.00,1.07
8313.00,1.07
8312.00,1.07
8311.00,1.07
8310.00,1.07
8309.00,1.07
8308.00,1.07
8307.00,1.07
8306.00,1.07
8305.00,1.07
8304.00,1.07
8303.00,1.08
8302.00,1.08
8301.00,1.08
8300.00,1.08
8299.00,1.08
8298.00,1.08
8297.00,1.08
8296.00,1.08
8295.00,1.09
8294.00,1.09
8293.00,1.09
8292.00,1.09
8291.00,1.09
8290.00,1.09
8289.00,1.09
8288.00,1.09
8287.00,1.09
8286.00,1.09
8285.00,1.09
8284.00,1.09
8283.00,1.09
8282.00,1.09
8281.00,1.09
8280.00,1.09
8279.00,1.09
8278.00,1.09
8277.00,1.09
8276.00,1.09
8275.00,1.09
8274.00,1.09
8273.00,1.09
8272.00,1.08
8271.00,1.08
8270.00,1.08
8269.00,1.08
8268.00,1.08
8267.00,1.08
8266.00,1.08
8265.00,1.08
8264.00,1.08
8263.00,1.08
8262.00,1.08
8261.00,1.08
8260.00,1.08
8259.00,1.08
8258.00,1.08
8257.00,1.08
8256.00,1.08
8255.00,1.08
8254.00,1.08
8253.00,1.09
8252.00,1.09
8251.00,1.09
8250.00,1.09
8249.00,1.09
8248.00,1.09
8247.00,1.09
8246.00,1.09
8245.00,1.09
8244.00,1.09
8243.00,1.09
8242.00,1.09
8241.00,1.09
8240.00,1.09
8239.00,1.09
8238.00,1.09
8237.00,1.09
8236.00,1.09
8235.00,1.09
8234.00,1.09
8233.00,1.09
8232.00,1.09
8231.00,1.09
8230.00,1.09
8229.00,1.09
8228.00,1.09
8227.00,1.09
8226.00,1.09
8225.00,1.09
8224.00,1.09
8223.00,1.09
8222.00,1.09
8221.00,1.09
8220.00,1.09
8219.00,1.09
8218.00,1.09
8217.00,1.09
8216.00,1.09
8215.00,1.09
8214.00,1.09
8213.00,1.08
8212.00,1.08
8211.00,1.08
8210.00,1.08
8209.00,1.08
8208.00,1.08
8207.00,1.08
8206.00,1.08
8205.00,1.08
8204.00,1.08
8203.00,1.08
8202.00,1.08
8201.00,1.08
8200.00,1.08
8199.00,1.08
8198.00,1.09
8197.00,1.09
8196.00,1.09
8195.00,1.09
8194.00,1.09
8193.00,1.09
8192.00,1.10
8191.00,1.10
8190.00,1.10
8189.00,1.10
8188.00,1.10
8187.00,1.10
8186.00,1.11
8185.00,1.11
8184.00,1.11
8183.00,1.11
8182.00,1.11
8181.00,1.11
8180.00,1.11
8179.00,1.11
8178.00,1.11
8177.00,1.11
8176.00,1.11
8175.00,1.11
8174.00,1.11
8173.00,1.11
8172.00,1.11
8171.00,1.11
8170.00,1.11
8169.00,1.11
8168.00,1.11
8167.00,1.11
8166.00,1.11
8165.00,1.11
8164.00,1.11
8163.00,1.11
8162.00,1.11
8161.00,1.11
8160.00,1.11
8159.00,1.11
8158.00,1.11
8157.00,1.11
8156.00,1.11
8155.00,1.11
8154.00,1.11
8153.00,1.11
8152.00,1.11
8151.00,1.11
8150.00,1.11
8149.00,1.11
8148.00,1.11
8147.00,1.11
8146.00,1.11
8145.00,1.11
8144.00,1.11
8143.00,1.11
8142.00,1.11
8141.00,1.11
8140.00,1.11
8139.00,1.11
8138.00,1.11
8137.00,1.11
8136.00,1.11
8135.00,1.12
8134.00,1.12
8133.00,1.12
8132.00,1.12
8131.00,1.12
8130.00,1.12
8129.00,1.12
8128.00,1.12
8127.00,1.12
8126.00,1.12
8125.00,1.12
8124.00,1.13
8123.00,1.13
8122.00,1.12
8121.00,1.12
8120.00,1.12
8119.00,1.12
8118.00,1.12
8117.00,1.12
8116.00,1.12
8115.00,1.12
8114.00,1.12
8113.00,1.12
8112.00,1.12
8111.00,1.12
8110.00,1.12
8109.00,1.12
8108.00,1.12
8107.00,1.12
8106.00,1.12
8105.00,1.12
8104.00,1.12
8103.00,1.12
8102.00,1.12
8101.00,1.12
8100.00,1.12
8099.00,1.12
8098.00,1.12
8097.00,1.12
8096.00,1.12
8095.00,1.12
8094.00,1.12
8093.00,1.12
8092.00,1.12
8091.00,1.12
8090.00,1.12
8089.00,1.12
8088.00,1.12
8087.00,1.12
8086.00,1.12
8085.00,1.12
8084.00,1.12
8083.00,1.12
8082.00,1.12
8081.00,1.12
8080.00,1.12
8079.00,1.12
8078.00,1.12
8077.00,1.12
8076.00,1.12
8075.00,1.12
8074.00,1.12
8073.00,1.12
8072.00,1.12
8071.00,1.12
8070.00,1.12
8069.00,1.12
8068.00,1.12
8067.00,1.12
8066.00,1.12
8065.00,1.12
8064.00,1.12
8063.00,1.12
8062.00,1.12
8061.00,1.12
8060.00,1.12
8059.00,1.12
8058.00,1.12
8057.00,1.12
8056.00,1.12
8055.00,1.12
8054.00,1.12
8053.00,1.13
8052.00,1.13
8051.00,1.13
8050.00,1.13
8049.00,1.13
8048.00,1.13
8047.00,1.13
8046.00,1.13
8045.00,1.13
8044.00,1.13
8043.00,1.13
8042.00,1.13
8041.00,1.13
8040.00,1.13
8039.00,1.13
8038.00,1.13
8037.00,1.13
8036.00,1.13
8035.00,1.13
8034.00,1.13
8033.00,1.13
8032.00,1.13
8031.00,1.13
8030.00,1.13
8029.00,1.13
8028.00,1.13
8027.00,1.13
8026.00,1.13
8025.00,1.13
8024.00,1.13
8023.00,1.13
8022.00,1.13
8021.00,1.13
8020.00,1.13
8019.00,1.13
8018.00,1.13
8017.00,1.14
8016.00,1.14
8015.00,1.14
8014.00,1.14
8013.00,1.14
8012.00,1.14
8011.00,1.14
8010.00,1.14
8009.00,1.14
8008.00,1.14
8007.00,1.14
8006.00,1.14
8005.00,1.14
8004.00,1.14
8003.00,1.14
8002.00,1.14
8001.00,1.14
8000.00,1.14
7999.00,1.14
7998.00,1.14
7997.00,1.14
7996.00,1.14
7995.00,1.14
7994.00,1.14
7993.00,1.14
7992.00,1.14
7991.00,1.14
7990.00,1.14
7989.00,1.14
7988.00,1.14
7987.00,1.14
7986.00,1.14
7985.00,1.14
7984.00,1.14
7983.00,1.14
7982.00,1.14
7981.00,1.14
7980.00,1.15
7979.00,1.15
7978.00,1.15
7977.00,1.15
7976.00,1.15
7975.00,1.15
7974.00,1.15
7973.00,1.15
7972.00,1.15
7971.00,1.15
7970.00,1.15
7969.00,1.15
7968.00,1.15
7967.00,1.15
7966.00,1.15
7965.00,1.15
7964.00,1.15
7963.00,1.15
7962.00,1.15
7961.00,1.15
7960.00,1.15
7959.00,1.15
7958.00,1.15
7957.00,1.15
7956.00,1.15
7955.00,1.15
7954.00,1.15
7953.00,1.15
7952.00,1.15
7951.00,1.15
7950.00,1.15
7949.00,1.15
7948.00,1.15
7947.00,1.15
7946.00,1.15
7945.00,1.15
7944.00,1.15
7943.00,1.15
7942.00,1.15
7941.00,1.15
7940.00,1.15
7939.00,1.15
7938.00,1.15
7937.00,1.15
7936.00,1.15
7935.00,1.15
7934.00,1.15
7933.00,1.15
7932.00,1.15
7931.00,1.15
7930.00,1.15
7929.00,1.15
7928.00,1.15
7927.00,1.15
7926.00,1.15
7925.00,1.15
7924.00,1.15
7923.00,1.15
7922.00,1.15
7921.00,1.14
7920.00,1.14
7919.00,1.14
7918.00,1.14
7917.00,1.14
7916.00,1.14
7915.00,1.14
7914.00,1.14
7913.00,1.14
7912.00,1.14
7911.00,1.14
7910.00,1.14
7909.00,1.14
7908.00,1.14
7907.00,1.15
7906.00,1.15
7905.00,1.15
7904.00,1.15
7903.00,1.15
7902.00,1.15
7901.00,1.15
7900.00,1.15
7899.00,1.15
7898.00,1.15
7897.00,1.15
7896.00,1.15
7895.00,1.15
7894.00,1.15
7893.00,1.15
7892.00,1.15
7891.00,1.15
7890.00,1.15
7889.00,1.15
7888.00,1.16
7887.00,1.16
7886.00,1.16
7885.00,1.16
7884.00,1.16
7883.00,1.16
7882.00,1.16
7881.00,1.16
7880.00,1.16
7879.00,1.16
7878.00,1.16
7877.00,1.16
7876.00,1.16
7875.00,1.16
7874.00,1.16
7873.00,1.16
7872.00,1.16
7871.00,1.16
7870.00,1.16
7869.00,1.16
7868.00,1.16
7867.00,1.16
7866.00,1.16
7865.00,1.16
7864.00,1.16
7863.00,1.16
7862.00,1.15
7861.00,1.15
7860.00,1.15
7859.00,1.15
7858.00,1.15
7857.00,1.15
7856.00,1.15
7855.00,1.15
7854.00,1.15
7853.00,1.15
7852.00,1.15
7851.00,1.15
7850.00,1.15
7849.00,1.15
7848.00,1.15
7847.00,1.15
7846.00,1.15
7845.00,1.15
7844.00,1.15
7843.00,1.15
7842.00,1.15
7841.00,1.15
7840.00,1.15
7839.00,1.15
7838.00,1.15
7837.00,1.15
7836.00,1.15
7835.00,1.15
7834.00,1.15
7833.00,1.15
7832.00,1.15
7831.00,1.15
7830.00,1.15
7829.00,1.15
7828.00,1.15
7827.00,1.15
7826.00,1.15
7825.00,1.15
7824.00,1.15
7823.00,1.16
7822.00,1.16
7821.00,1.16
7820.00,1.16
7819.00,1.16
7818.00,1.16
7817.00,1.16
7816.00,1.16
7815.00,1.16
7814.00,1.16
7813.00,1.16
7812.00,1.16
7811.00,1.16
7810.00,1.16
7809.00,1.16
7808.00,1.16
7807.00,1.16
7806.00,1.16
7805.00,1.16
7804.00,1.16
7803.00,1.16
7802.00,1.16
7801.00,1.16
7800.00,1.16
7799.00,1.16
7798.00,1.16
7797.00,1.16
7796.00,1.16
7795.00,1.16
7794.00,1.16
7793.00,1.16
7792.00,1.16
7791.00,1.16
7790.00,1.16
7789.00,1.16
7788.00,1.16
7787.00,1.16
7786.00,1.16
7785.00,1.16
7784.00,1.16
7783.00,1.16
7782.00,1.16
7781.00,1.16
7780.00,1.16
7779.00,1.16
7778.00,1.16
7777.00,1.16
7776.00,1.16
7775.00,1.16
7774.00,1.16
7773.00,1.16
7772.00,1.16
7771.00,1.16
7770.00,1.16
7769.00,1.16
7768.00,1.16
7767.00,1.16
7766.00,1.16
7765.00,1.16
7764.00,1.16
7763.00,1.16
7762.00,1.16
7761.00,1.16
7760.00,1.16
7759.00,1.16
7758.00,1.16
7757.00,1.16
7756.00,1.16
7755.00,1.16
7754.00,1.16
7753.00,1.16
7752.00,1.16
7751.00,1.16
7750.00,1.16
7749.00,1.16
7748.00,1.16
7747.00,1.16
7746.00,1.16
7745.00,1.16
7744.00,1.16
7743.00,1.16
7742.00,1.16
7741.00,1.16
7740.00,1.16
7739.00,1.16
7738.00,1.16
7737.00,1.16
7736.00,1.16
7735.00,1.16
7734.00,1.16
7733.00,1.16
7732.00,1.16
7731.00,1.16
7730.00,1.16
7729.00,1.16
7728.00,1.16
7727.00,1.16
7726.00,1.16
7725.00,1.16
7724.00,1.16
7723.00,1.16
7722.00,1.16
7721.00,1.16
7720.00,1.16
7719.00,1.17
7718.00,1.17
7717.00,1.17
7716.00,1.17
7715.00,1.17
7714.00,1.17
7713.00,1.17
7712.00,1.17
7711.00,1.17
7710.00,1.17
7709.00,1.17
7708.00,1.17
7707.00,1.17
7706.00,1.17
7705.00,1.17
7704.00,1.17
7703.00,1.17
7702.00,1.17
7701.00,1.17
7700.00,1.16
7699.00,1.16
7698.00,1.16
7697.00,1.16
7696.00,1.16
7695.00,1.16
7694.00,1.16
7693.00,1.16
7692.00,1.16
7691.00,1.16
7690.00,1.16
7689.00,1.16
7688.00,1.16
7687.00,1.16
7686.00,1.16
7685.00,1.16
7684.00,1.16
7683.00,1.16
7682.00,1.16
7681.00,1.16
7680.00,1.17
7679.00,1.17
7678.00,1.17
7677.00,1.17
7676.00,1.17
7675.00,1.17
7674.00,1.17
7673.00,1.17
7672.00,1.17
7671.00,1.17
7670.00,1.17
7669.00,1.17
7668.00,1.17
7667.00,1.17
7666.00,1.17
7665.00,1.17
7664.00,1.17
7663.00,1.17
7662.00,1.17
7661.00,1.17
7660.00,1.17
7659.00,1.17
7658.00,1.17
7657.00,1.17
7656.00,1.17
7655.00,1.17
7654.00,1.17
7653.00,1.17
7652.00,1.17
7651.00,1.17
7650.00,1.17
7649.00,1.17
7648.00,1.17
7647.00,1.17
7646.00,1.17
7645.00,1.17
7644.00,1.17
7643.00,1.17
7642.00,1.17
7641.00,1.17
7640.00,1.17
7639.00,1.17
7638.00,1.17
7637.00,1.17
7636.00,1.17
7635.00,1.17
7634.00,1.17
7633.00,1.17
7632.00,1.17
7631.00,1.17
7630.00,1.17
7629.00,1.17
7628.00,1.17
7627.00,1.17
7626.00,1.17
7625.00,1.16
7624.00,1.16
7623.00,1.16
7622.00,1.16
7621.00,1.16
7620.00,1.16
7619.00,1.16
7618.00,1.16
7617.00,1.16
7616.00,1.16
7615.00,1.16
7614.00,1.16
7613.00,1.15
7612.00,1.15
7611.00,1.15
7610.00,1.16
7609.00,1.16
7608.00,1.16
7607.00,1.16
7606.00,1.16
7605.00,1.16
7604.00,1.16
7603.00,1.16
7602.00,1.16
7601.00,1.16
7600.00,1.16
7599.00,1.16
7598.00,1.16
7597.00,1.16
7596.00,1.16
7595.00,1.16
7594.00,1.16
7593.00,1.16
7592.00,1.16
7591.00,1.16
7590.00,1.16
7589.00,1.16
7588.00,1.16
7587.00,1.15
7586.00,1.15
7585.00,1.15
7584.00,1.15
7583.00,1.15
7582.00,1.15
7581.00,1.15
7580.00,1.15
7579.00,1.15
7578.00,1.15
7577.00,1.15
7576.00,1.15
7575.00,1.15
7574.00,1.15
7573.00,1.16
7572.00,1.16
7571.00,1.16
7570.00,1.16
7569.00,1.16
7568.00,1.16
7567.00,1.16
7566.00,1.16
7565.00,1.16
7564.00,1.16
7563.00,1.16
7562.00,1.16
7561.00,1.16
7560.00,1.16
7559.00,1.16
7558.00,1.16
7557.00,1.16
7556.00,1.16
7555.00,1.16
7554.00,1.16
7553.00,1.16
7552.00,1.16
7551.00,1.16
7550.00,1.16
7549.00,1.16
7548.00,1.16
7547.00,1.15
7546.00,1.15
7545.00,1.15
7544.00,1.15
7543.00,1.15
7542.00,1.15
7541.00,1.15
7540.00,1.15
7539.00,1.15
7538.00,1.15
7537.00,1.15
7536.00,1.14
7535.00,1.14
7534.00,1.14
7533.00,1.14
7532.00,1.14
7531.00,1.14
7530.00,1.14
7529.00,1.14
7528.00,1.14
7527.00,1.14
7526.00,1.14
7525.00,1.13
7524.00,1.13
7523.00,1.13
7522.00,1.13
7521.00,1.13
7520.00,1.13
7519.00,1.13
7518.00,1.13
7517.00,1.13
7516.00,1.13
7515.00,1.13
7514.00,1.13
7513.00,1.13
7512.00,1.13
7511.00,1.13
7510.00,1.13
7509.00,1.13
7508.00,1.13
7507.00,1.13
7506.00,1.13
7505.00,1.13
7504.00,1.13
7503.00,1.13
7502.00,1.13
7501.00,1.13
7500.00,1.13
7499.00,1.13
7498.00,1.13
7497.00,1.13
7496.00,1.13
7495.00,1.13
7494.00,1.13
7493.00,1.13
7492.00,1.13
7491.00,1.13
7490.00,1.13
7489.00,1.13
7488.00,1.13
7487.00,1.13
7486.00,1.13
7485.00,1.13
7484.00,1.13
7483.00,1.13
7482.00,1.13
7481.00,1.13
7480.00,1.13
7479.00,1.13
7478.00,1.13
7477.00,1.13
7476.00,1.13
7475.00,1.13
7474.00,1.13
7473.00,1.13
7472.00,1.13
7471.00,1.13
7470.00,1.12
7469.00,1.12
7468.00,1.12
7467.00,1.12
7466.00,1.12
7465.00,1.12
7464.00,1.12
7463.00,1.12
7462.00,1.12
7461.00,1.12
7460.00,1.12
7459.00,1.12
7458.00,1.12
7457.00,1.12
7456.00,1.12
7455.00,1.12
7454.00,1.12
7453.00,1.11
7452.00,1.11
7451.00,1.11
7450.00,1.11
7449.00,1.11
7448.00,1.11
7447.00,1.11
7446.00,1.11
7445.00,1.11
7444.00,1.11
7443.00,1.11
7442.00,1.11
7441.00,1.11
7440.00,1.11
7439.00,1.11
7438.00,1.11
7437.00,1.11
7436.00,1.11
7435.00,1.11
7434.00,1.11
7433.00,1.11
7432.00,1.11
7431.00,1.11
7430.00,1.11
7429.00,1.11
7428.00,1.11
7427.00,1.11
7426.00,1.11
7425.00,1.11
7424.00,1.10
7423.00,1.10
7422.00,1.10
7421.00,1.10
7420.00,1.10
7419.00,1.10
7418.00,1.10
7417.00,1.10
7416.00,1.10
7415.00,1.10
7414.00,1.10
7413.00,1.09
7412.00,1.09
7411.00,1.09
7410.00,1.09
7409.00,1.09
7408.00,1.09
7407.00,1.09
7406.00,1.09
7405.00,1.09
7404.00,1.09
7403.00,1.09
7402.00,1.09
7401.00,1.09
7400.00,1.09
7399.00,1.08
7398.00,1.08
7397.00,1.08
7396.00,1.08
7395.00,1.08
7394.00,1.08
7393.00,1.08
7392.00,1.08
7391.00,1.08
7390.00,1.08
7389.00,1.08
7388.00,1.08
7387.00,1.08
7386.00,1.08
7385.00,1.08
7384.00,1.08
7383.00,1.08
7382.00,1.08
7381.00,1.08
7380.00,1.08
7379.00,1.08
7378.00,1.08
7377.00,1.08
7376.00,1.08
7375.00,1.08
7374.00,1.08
7373.00,1.08
7372.00,1.08
7371.00,1.08
7370.00,1.08
7369.00,1.08
7368.00,1.08
7367.00,1.08
7366.00,1.08
7365.00,1.08
7364.00,1.08
7363.00,1.08
7362.00,1.07
7361.00,1.07
7360.00,1.07
7359.00,1.07
7358.00,1.07
7357.00,1.07
7356.00,1.07
7355.00,1.07
7354.00,1.07
7353.00,1.07
7352.00,1.07
7351.00,1.07
7350.00,1.07
7349.00,1.07
7348.00,1.07
7347.00,1.07
7346.00,1.07
7345.00,1.07
7344.00,1.07
7343.00,1.07
7342.00,1.07
7341.00,1.07
7340.00,1.07
7339.00,1.07
7338.00,1.06
7337.00,1.06
7336.00,1.06
7335.00,1.06
7334.00,1.06
7333.00,1.06
7332.00,1.06
7331.00,1.06
7330.00,1.05
7329.00,1.05
7328.00,1.05
7327.00,1.05
7326.00,1.05
7325.00,1.05
7324.00,1.05
7323.00,1.05
7322.00,1.05
7321.00,1.05
7320.00,1.05
7319.00,1.05
7318.00,1.05
7317.00,1.05
7316.00,1.05
7315.00,1.05
7314.00,1.05
7313.00,1.05
7312.00,1.05
7311.00,1.05
7310.00,1.05
7309.00,1.05
7308.00,1.05
7307.00,1.05
7306.00,1.05
7305.00,1.05
7304.00,1.05
7303.00,1.05
7302.00,1.05
7301.00,1.05
7300.00,1.05
7299.00,1.05
7298.00,1.05
7297.00,1.05
7296.00,1.05
7295.00,1.05
7294.00,1.05
7293.00,1.04
7292.00,1.04
7291.00,1.04
7290.00,1.04
7289.00,1.04
7288.00,1.04
7287.00,1.04
7286.00,1.04
7285.00,1.04
7284.00,1.04
7283.00,1.04
7282.00,1.03
7281.00,1.03
7280.00,1.03
7279.00,1.03
7278.00,1.03
7277.00,1.03
7276.00,1.03
7275.00,1.03
7274.00,1.02
7273.00,1.02
7272.00,1.02
7271.00,1.02
7270.00,1.02
7269.00,1.02
7268.00,1.02
7267.00,1.02
7266.00,1.02
7265.00,1.01
7264.00,1.01
7263.00,1.01
7262.00,1.01
7261.00,1.01
7260.00,1.01
7259.00,1.01
7258.00,1.01
7257.00,1.00
7256.00,1.00
7255.00,1.00
7254.00,1.00
7253.00,1.00
7252.00,1.00
7251.00,1.00
7250.00,0.99
7249.00,0.99
7248.00,0.99
7247.00,0.99
7246.00,0.99
7245.00,0.99
7244.00,0.98
7243.00,0.98
7242.00,0.98
7241.00,0.98
7240.00,0.97
7239.00,0.97
7238.00,0.97
7237.00,0.97
7236.00,0.96
7235.00,0.96
7234.00,0.96
7233.00,0.95
7232.00,0.95
7231.00,0.95
7230.00,0.95
7229.00,0.94
7228.00,0.94
7227.00,0.94
7226.00,0.93
7225.00,0.93
7224.00,0.93
7223.00,0.92
7222.00,0.92
7221.00,0.92
7220.00,0.91
7219.00,0.91
7218.00,0.91
7217.00,0.90
7216.00,0.90
7215.00,0.90
7214.00,0.90
7213.00,0.89
7212.00,0.89
7211.00,0.89
7210.00,0.88
7209.00,0.88
7208.00,0.88
7207.00,0.88
7206.00,0.87
7205.00,0.87
7204.00,0.87
7203.00,0.86
7202.00,0.86
7201.00,0.86
7200.00,0.85
7199.00,0.85
7198.00,0.85
7197.00,0.84
7196.00,0.84
7195.00,0.84
7194.00,0.83
7193.00,0.83
7192.00,0.83
7191.00,0.82
7190.00,0.82
7189.00,0.82
7188.00,0.81
7187.00,0.81
7186.00,0.81
7185.00,0.80
7184.00,0.80
7183.00,0.80
7182.00,0.80
7181.00,0.79
7180.00,0.79
7179.00,0.79
7178.00,0.78
7177.00,0.78
7176.00,0.78
7175.00,0.78
7174.00,0.77
7173.00,0.77
7172.00,0.77
7171.00,0.77
7170.00,0.76
7169.00,0.76
7168.00,0.76
7167.00,0.76
7166.00,0.75
7165.00,0.75
7164.00,0.75
7163.00,0.75
7162.00,0.74
7161.00,0.74
7160.00,0.74
7159.00,0.73
7158.00,0.73
7157.00,0.73
7156.00,0.73
7155.00,0.72
7154.00,0.72
7153.00,0.72
7152.00,0.71
7151.00,0.71
7150.00,0.71
7149.00,0.70
7148.00,0.70
7147.00,0.70
7146.00,0.69
7145.00,0.69
7144.00,0.69
7143.00,0.69
7142.00,0.68
7141.00,0.68
7140.00,0.68
7139.00,0.68
7138.00,0.67
7137.00,0.67
7136.00,0.67
7135.00,0.67
7134.00,0.67
7133.00,0.67
7132.00,0.66
7131.00,0.66
7130.00,0.66
7129.00,0.66
7128.00,0.66
7127.00,0.66
7126.00,0.65
7125.00,0.65
7124.00,0.65
7123.00,0.65
7122.00,0.65
7121.00,0.64
7120.00,0.64
7119.00,0.64
7118.00,0.64
7117.00,0.64
7116.00,0.63
7115.00,0.63
7114.00,0.63
7113.00,0.63
7112.00,0.63
7111.00,0.62
7110.00,0.62
7109.00,0.62
7108.00,0.62
7107.00,0.61
7106.00,0.61
7105.00,0.61
7104.00,0.61
7103.00,0.61
7102.00,0.61
7101.00,0.60
7100.00,0.60
7099.00,0.60
7098.00,0.60
7097.00,0.60
7096.00,0.60
7095.00,0.59
7094.00,0.59
7093.00,0.59
7092.00,0.59
7091.00,0.59
7090.00,0.59
7089.00,0.59
7088.00,0.58
7087.00,0.58
7086.00,0.58
7085.00,0.58
7084.00,0.58
7083.00,0.58
7082.00,0.58
7081.00,0.58
7080.00,0.58
7079.00,0.58
7078.00,0.57
7077.00,0.57
7076.00,0.57
7075.00,0.57
7074.00,0.57
7073.00,0.57
7072.00,0.57
7071.00,0.57
7070.00,0.57
7069.00,0.57
7068.00,0.57
7067.00,0.56
7066.00,0.56
7065.00,0.56
7064.00,0.56
7063.00,0.56
7062.00,0.56
7061.00,0.56
7060.00,0.56
7059.00,0.56
7058.00,0.56
7057.00,0.56
7056.00,0.56
7055.00,0.55
7054.00,0.55
7053.00,0.55
7052.00,0.55
7051.00,0.55
7050.00,0.55
7049.00,0.55
7048.00,0.55
7047.00,0.54
7046.00,0.54
7045.00,0.54
7044.00,0.54
7043.00,0.54
7042.00,0.54
7041.00,0.54
7040.00,0.54
7039.00,0.54
7038.00,0.54
7037.00,0.54
7036.00,0.54
7035.00,0.53
7034.00,0.53
7033.00,0.53
7032.00,0.53
7031.00,0.53
7030.00,0.53
7029.00,0.53
7028.00,0.53
7027.00,0.53
7026.00,0.53
7025.00,0.53
7024.00,0.53
7023.00,0.53
7022.00,0.53
7021.00,0.53
7020.00,0.53
7019.00,0.53
7018.00,0.53
7017.00,0.53
7016.00,0.53
7015.00,0.53
7014.00,0.53
7013.00,0.53
7012.00,0.53
7011.00,0.53
7010.00,0.53
7009.00,0.53
7008.00,0.53
7007.00,0.53
7006.00,0.53
7005.00,0.53
7004.00,0.53
7003.00,0.53
7002.00,0.53
7001.00,0.53
7000.00,0.53
6999.00,0.53
6998.00,0.52
6997.00,0.52
6996.00,0.52
6995.00,0.52
6994.00,0.52
6993.00,0.52
6992.00,0.52
6991.00,0.52
6990.00,0.52
6989.00,0.52
6988.00,0.52
6987.00,0.52
6986.00,0.51
6985.00,0.51
6984.00,0.51
6983.00,0.51
6982.00,0.51
6981.00,0.51
6980.00,0.51
6979.00,0.51
6978.00,0.51
6977.00,0.51
6976.00,0.51
6975.00,0.51
6974.00,0.51
6973.00,0.51
6972.00,0.51
6971.00,0.51
6970.00,0.51
6969.00,0.51
6968.00,0.51
6967.00,0.51
6966.00,0.51
6965.00,0.51
6964.00,0.51
6963.00,0.51
6962.00,0.51
6961.00,0.51
6960.00,0.51
6959.00,0.51
6958.00,0.51
6957.00,0.51
6956.00,0.51
6955.00,0.51
6954.00,0.51
6953.00,0.51
6952.00,0.51
6951.00,0.51
6950.00,0.51
6949.00,0.51
6948.00,0.51
6947.00,0.51
6946.00,0.50
6945.00,0.50
6944.00,0.50
6943.00,0.50
6942.00,0.50
6941.00,0.50
6940.00,0.50
6939.00,0.50
6938.00,0.50
6937.00,0.50
6936.00,0.50
6935.00,0.50
6934.00,0.50
6933.00,0.50
6932.00,0.50
6931.00,0.50
6930.00,0.50
6929.00,0.50
6928.00,0.50
6927.00,0.50
6926.00,0.50
6925.00,0.50
6924.00,0.50
6923.00,0.50
6922.00,0.50
6921.00,0.50
6920.00,0.50
6919.00,0.50
6918.00,0.50
6917.00,0.50
6916.00,0.50
6915.00,0.50
6914.00,0.50
6913.00,0.50
6912.00,0.50
6911.00,0.50
6910.00,0.50
6909.00,0.50
6908.00,0.50
6907.00,0.50
6906.00,0.50
6905.00,0.50
6904.00,0.50
6903.00,0.50
6902.00,0.50
6901.00,0.50
6900.00,0.50
6899.00,0.50
6898.00,0.50
6897.00,0.50
6896.00,0.50
6895.00,0.50
6894.00,0.50
6893.00,0.50
6892.00,0.49
6891.00,0.49
6890.00,0.49
6889.00,0.49
6888.00,0.49
6887.00,0.49
6886.00,0.49
6885.00,0.49
6884.00,0.49
6883.00,0.49
6882.00,0.49
6881.00,0.49
6880.00,0.49
6879.00,0.49
6878.00,0.49
6877.00,0.49
6876.00,0.49
6875.00,0.49
6874.00,0.49
6873.00,0.49
6872.00,0.49
6871.00,0.49
6870.00,0.49
6869.00,0.49
6868.00,0.50
6867.00,0.50
6866.00,0.50
6865.00,0.50
6864.00,0.50
6863.00,0.50
6862.00,0.50
6861.00,0.50
6860.00,0.50
6859.00,0.50
6858.00,0.50
6857.00,0.50
6856.00,0.50
6855.00,0.50
6854.00,0.50
6853.00,0.50
6852.00,0.50
6851.00,0.50
6850.00,0.51
6849.00,0.51
6848.00,0.51
6847.00,0.51
6846.00,0.51
6845.00,0.51
6844.00,0.50
6843.00,0.50
6842.00,0.50
6841.00,0.50
6840.00,0.50
6839.00,0.50
6838.00,0.50
6837.00,0.50
6836.00,0.50
6835.00,0.50
6834.00,0.50
6833.00,0.50
6832.00,0.50
6831.00,0.50
6830.00,0.50
6829.00,0.50
6828.00,0.50
6827.00,0.51
6826.00,0.51
6825.00,0.51
6824.00,0.51
6823.00,0.51
6822.00,0.51
6821.00,0.51
6820.00,0.51
6819.00,0.51
6818.00,0.51
6817.00,0.51
6816.00,0.51
6815.00,0.51
6814.00,0.51
6813.00,0.51
6812.00,0.51
6811.00,0.51
6810.00,0.51
6809.00,0.51
6808.00,0.51
6807.00,0.51
6806.00,0.51
6805.00,0.51
6804.00,0.51
6803.00,0.51
6802.00,0.51
6801.00,0.51
6800.00,0.51
6799.00,0.51
6798.00,0.52
6797.00,0.52
6796.00,0.52
6795.00,0.52
6794.00,0.52
6793.00,0.52
6792.00,0.52
6791.00,0.52
6790.00,0.52
6789.00,0.52
6788.00,0.52
6787.00,0.52
6786.00,0.52
6785.00,0.52
6784.00,0.52
6783.00,0.52
6782.00,0.52
6781.00,0.52
6780.00,0.52
6779.00,0.52
6778.00,0.52
6777.00,0.53
6776.00,0.53
6775.00,0.53
6774.00,0.53
6773.00,0.53
6772.00,0.53
6771.00,0.53
6770.00,0.53
6769.00,0.53
6768.00,0.53
6767.00,0.53
6766.00,0.53
6765.00,0.53
6764.00,0.53
6763.00,0.53
6762.00,0.53
6761.00,0.53
6760.00,0.53
6759.00,0.53
6758.00,0.53
6757.00,0.53
6756.00,0.53
6755.00,0.53
6754.00,0.53
6753.00,0.53
6752.00,0.53
6751.00,0.54
6750.00,0.54
6749.00,0.54
6748.00,0.54
6747.00,0.54
6746.00,0.54
6745.00,0.54
6744.00,0.54
6743.00,0.54
6742.00,0.54
6741.00,0.54
6740.00,0.54
6739.00,0.54
6738.00,0.54
6737.00,0.54
6736.00,0.54
6735.00,0.54
6734.00,0.54
6733.00,0.54
6732.00,0.55
6731.00,0.55
6730.00,0.55
6729.00,0.55
6728.00,0.55
6727.00,0.55
6726.00,0.55
6725.00,0.55
6724.00,0.55
6723.00,0.55
6722.00,0.55
6721.00,0.55
6720.00,0.55
6719.00,0.55
6718.00,0.55
6717.00,0.55
6716.00,0.55
6715.00,0.55
6714.00,0.55
6713.00,0.55
6712.00,0.55
6711.00,0.55
6710.00,0.55
6709.00,0.55
6708.00,0.56
6707.00,0.56
6706.00,0.56
6705.00,0.56
6704.00,0.56
6703.00,0.56
6702.00,0.56
6701.00,0.56
6700.00,0.57
6699.00,0.57
6698.00,0.57
6697.00,0.57
6696.00,0.57
6695.00,0.57
6694.00,0.57
6693.00,0.57
6692.00,0.57
6691.00,0.57
6690.00,0.58
6689.00,0.58
6688.00,0.58
6687.00,0.58
6686.00,0.58
6685.00,0.58
6684.00,0.58
6683.00,0.58
6682.00,0.58
6681.00,0.58
6680.00,0.58
6679.00,0.59
6678.00,0.59
6677.00,0.59
6676.00,0.59
6675.00,0.59
6674.00,0.59
6673.00,0.59
6672.00,0.59
6671.00,0.59
6670.00,0.59
6669.00,0.59
6668.00,0.59
6667.00,0.59
6666.00,0.59
6665.00,0.59
6664.00,0.59
6663.00,0.59
6662.00,0.59
6661.00,0.59
6660.00,0.59
6659.00,0.59
6658.00,0.59
6657.00,0.59
6656.00,0.60
6655.00,0.60
6654.00,0.60
6653.00,0.60
6652.00,0.60
6651.00,0.60
6650.00,0.60
6649.00,0.60
6648.00,0.60
6647.00,0.61
6646.00,0.61
6645.00,0.61
6644.00,0.61
6643.00,0.61
6642.00,0.61
6641.00,0.61
6640.00,0.61
6639.00,0.61
6638.00,0.62
6637.00,0.62
6636.00,0.62
6635.00,0.62
6634.00,0.62
6633.00,0.62
6632.00,0.62
6631.00,0.62
6630.00,0.62
6629.00,0.62
6628.00,0.62
6627.00,0.62
6626.00,0.62
6625.00,0.62
6624.00,0.63
6623.00,0.63
6622.00,0.63
6621.00,0.63
6620.00,0.63
6619.00,0.63
6618.00,0.63
6617.00,0.63
6616.00,0.63
6615.00,0.63
6614.00,0.63
6613.00,0.63
6612.00,0.63
6611.00,0.64
6610.00,0.64
6609.00,0.64
6608.00,0.64
6607.00,0.64
6606.00,0.64
6605.00,0.64
6604.00,0.64
6603.00,0.64
6602.00,0.64
6601.00,0.65
6600.00,0.65
6599.00,0.65
6598.00,0.65
6597.00,0.65
6596.00,0.65
6595.00,0.65
6594.00,0.65
6593.00,0.65
6592.00,0.65
6591.00,0.65
6590.00,0.65
6589.00,0.65
6588.00,0.65
6587.00,0.65
6586.00,0.65
6585.00,0.65
6584.00,0.65
6583.00,0.65
6582.00,0.65
6581.00,0.66
6580.00,0.66
6579.00,0.66
6578.00,0.66
6577.00,0.66
6576.00,0.66
6575.00,0.66
6574.00,0.66
6573.00,0.67
6572.00,0.67
6571.00,0.67
6570.00,0.67
6569.00,0.67
6568.00,0.67
6567.00,0.68
6566.00,0.68
6565.00,0.68
6564.00,0.68
6563.00,0.68
6562.00,0.68
6561.00,0.68
6560.00,0.68
6559.00,0.69
6558.00,0.69
6557.00,0.69
6556.00,0.69
6555.00,0.69
6554.00,0.69
6553.00,0.69
6552.00,0.69
6551.00,0.69
6550.00,0.69
6549.00,0.69
6548.00,0.69
6547.00,0.69
6546.00,0.69
6545.00,0.70
6544.00,0.70
6543.00,0.70
6542.00,0.70
6541.00,0.70
6540.00,0.70
6539.00,0.70
6538.00,0.70
6537.00,0.70
6536.00,0.70
6535.00,0.70
6534.00,0.70
6533.00,0.70
6532.00,0.70
6531.00,0.70
6530.00,0.70
6529.00,0.70
6528.00,0.71
6527.00,0.71
6526.00,0.71
6525.00,0.71
6524.00,0.71
6523.00,0.71
6522.00,0.71
6521.00,0.71
6520.00,0.71
6519.00,0.71
6518.00,0.72
6517.00,0.72
6516.00,0.72
6515.00,0.72
6514.00,0.72
6513.00,0.72
6512.00,0.72
6511.00,0.73
6510.00,0.73
6509.00,0.73
6508.00,0.73
6507.00,0.73
6506.00,0.73
6505.00,0.73
6504.00,0.73
6503.00,0.73
6502.00,0.73
6501.00,0.74
6500.00,0.74
6499.00,0.74
6498.00,0.74
6497.00,0.74
6496.00,0.74
6495.00,0.74
6494.00,0.74
6493.00,0.74
6492.00,0.74
6491.00,0.74
6490.00,0.74
6489.00,0.74
6488.00,0.74
6487.00,0.74
6486.00,0.74
6485.00,0.74
6484.00,0.74
6483.00,0.74
6482.00,0.74
6481.00,0.74
6480.00,0.74
6479.00,0.74
6478.00,0.74
6477.00,0.75
6476.00,0.75
6475.00,0.75
6474.00,0.75
6473.00,0.75
6472.00,0.75
6471.00,0.75
6470.00,0.75
6469.00,0.75
6468.00,0.75
6467.00,0.75
6466.00,0.75
6465.00,0.76
6464.00,0.76
6463.00,0.76
6462.00,0.76
6461.00,0.76
6460.00,0.76
6459.00,0.76
6458.00,0.76
6457.00,0.76
6456.00,0.76
6455.00,0.76
6454.00,0.76
6453.00,0.76
6452.00,0.76
6451.00,0.76
6450.00,0.76
6449.00,0.76
6448.00,0.76
6447.00,0.76
6446.00,0.76
6445.00,0.76
6444.00,0.76
6443.00,0.76
6442.00,0.76
6441.00,0.77
6440.00,0.77
6439.00,0.77
6438.00,0.77
6437.00,0.77
6436.00,0.77
6435.00,0.77
6434.00,0.77
6433.00,0.77
6432.00,0.77
6431.00,0.78
6430.00,0.78
6429.00,0.78
6428.00,0.78
6427.00,0.78
6426.00,0.78
6425.00,0.78
6424.00,0.78
6423.00,0.78
6422.00,0.78
6421.00,0.79
6420.00,0.79
6419.00,0.79
6418.00,0.79
6417.00,0.79
6416.00,0.79
6415.00,0.79
6414.00,0.79
6413.00,0.79
6412.00,0.79
6411.00,0.79
6410.00,0.79
6409.00,0.79
6408.00,0.79
6407.00,0.79
6406.00,0.79
6405.00,0.80
6404.00,0.80
6403.00,0.80
6402.00,0.80
6401.00,0.80
6400.00,0.80
6399.00,0.80
6398.00,0.80
6397.00,0.80
6396.00,0.80
6395.00,0.80
6394.00,0.80
6393.00,0.80
6392.00,0.80
6391.00,0.80
6390.00,0.80
6389.00,0.80
6388.00,0.80
6387.00,0.81
6386.00,0.81
6385.00,0.81
6384.00,0.81
6383.00,0.81
6382.00,0.81
6381.00,0.81
6380.00,0.81
6379.00,0.81
6378.00,0.82
6377.00,0.82
6376.00,0.82
6375.00,0.82
6374.00,0.82
6373.00,0.82
6372.00,0.82
6371.00,0.82
6370.00,0.82
6369.00,0.82
6368.00,0.82
6367.00,0.83
6366.00,0.83
6365.00,0.83
6364.00,0.83
6363.00,0.83
6362.00,0.83
6361.00,0.83
6360.00,0.83
6359.00,0.83
6358.00,0.84
6357.00,0.84
6356.00,0.84
6355.00,0.84
6354.00,0.84
6353.00,0.84
6352.00,0.84
6351.00,0.84
6350.00,0.84
6349.00,0.85
6348.00,0.85
6347.00,0.85
6346.00,0.85
6345.00,0.85
6344.00,0.85
6343.00,0.85
6342.00,0.85
6341.00,0.85
6340.00,0.85
6339.00,0.85
6338.00,0.85
6337.00,0.85
6336.00,0.85
6335.00,0.86
6334.00,0.86
6333.00,0.86
6332.00,0.86
6331.00,0.86
6330.00,0.86
6329.00,0.86
6328.00,0.86
6327.00,0.86
6326.00,0.86
6325.00,0.87
6324.00,0.87
6323.00,0.87
6322.00,0.87
6321.00,0.87
6320.00,0.87
6319.00,0.87
6318.00,0.88
6317.00,0.88
6316.00,0.88
6315.00,0.88
6314.00,0.88
6313.00,0.88
6312.00,0.88
6311.00,0.88
6310.00,0.89
6309.00,0.89
6308.00,0.89
6307.00,0.89
6306.00,0.89
6305.00,0.89
6304.00,0.89
6303.00,0.89
6302.00,0.89
6301.00,0.89
6300.00,0.89
6299.00,0.89
6298.00,0.89
6297.00,0.89
6296.00,0.89
6295.00,0.89
6294.00,0.89
6293.00,0.89
6292.00,0.89
6291.00,0.89
6290.00,0.89
6289.00,0.90
6288.00,0.90
6287.00,0.90
6286.00,0.90
6285.00,0.90
6284.00,0.90
6283.00,0.90
6282.00,0.90
6281.00,0.90
6280.00,0.90
6279.00,0.90
6278.00,0.90
6277.00,0.90
6276.00,0.90
6275.00,0.91
6274.00,0.91
6273.00,0.91
6272.00,0.91
6271.00,0.91
6270.00,0.91
6269.00,0.91
6268.00,0.91
6267.00,0.92
6266.00,0.92
6265.00,0.92
6264.00,0.92
6263.00,0.92
6262.00,0.92
6261.00,0.93
6260.00,0.93
6259.00,0.93
6258.00,0.93
6257.00,0.93
6256.00,0.93
6255.00,0.93
6254.00,0.93
6253.00,0.94
6252.00,0.94
6251.00,0.94
6250.00,0.94
6249.00,0.94
6248.00,0.94
6247.00,0.94
6246.00,0.94
6245.00,0.94
6244.00,0.94
6243.00,0.94
6242.00,0.95
6241.00,0.95
6240.00,0.95
6239.00,0.95
6238.00,0.95
6237.00,0.95
6236.00,0.95
6235.00,0.95
6234.00,0.95
6233.00,0.95
6232.00,0.95
6231.00,0.95
6230.00,0.95
6229.00,0.96
6228.00,0.96
6227.00,0.96
6226.00,0.96
6225.00,0.96
6224.00,0.96
6223.00,0.96
6222.00,0.96
6221.00,0.96
6220.00,0.96
6219.00,0.97
6218.00,0.97
6217.00,0.97
6216.00,0.97
6215.00,0.97
6214.00,0.97
6213.00,0.97
6212.00,0.97
6211.00,0.97
6210.00,0.97
6209.00,0.97
6208.00,0.98
6207.00,0.98
6206.00,0.98
6205.00,0.98
6204.00,0.98
6203.00,0.98
6202.00,0.98
6201.00,0.98
6200.00,0.98
6199.00,0.99
6198.00,0.99
6197.00,0.99
6196.00,0.99
6195.00,0.99
6194.00,0.99
6193.00,0.99
6192.00,0.99
6191.00,1.00
6190.00,1.00
6189.00,1.00
6188.00,1.00
6187.00,1.00
6186.00,1.00
6185.00,1.00
6184.00,1.00
6183.00,1.00
6182.00,1.01
6181.00,1.01
6180.00,1.01
6179.00,1.01
6178.00,1.01
6177.00,1.01
6176.00,1.01
6175.00,1.01
6174.00,1.01
6173.00,1.01
6172.00,1.02
6171.00,1.02
6170.00,1.02
6169.00,1.02
6168.00,1.02
6167.00,1.02
6166.00,1.02
6165.00,1.02
6164.00,1.02
6163.00,1.03
6162.00,1.03
6161.00,1.03
6160.00,1.03
6159.00,1.03
6158.00,1.03
6157.00,1.03
6156.00,1.03
6155.00,1.03
6154.00,1.03
6153.00,1.03
6152.00,1.04
6151.00,1.04
6150.00,1.04
6149.00,1.04
6148.00,1.04
6147.00,1.04
6146.00,1.04
6145.00,1.04
6144.00,1.04
6143.00,1.05
6142.00,1.05
6141.00,1.05
6140.00,1.05
6139.00,1.05
6138.00,1.05
6137.00,1.05
6136.00,1.05
6135.00,1.06
6134.00,1.06
6133.00,1.06
6132.00,1.06
6131.00,1.06
6130.00,1.06
6129.00,1.06
6128.00,1.06
6127.00,1.06
6126.00,1.06
6125.00,1.06
6124.00,1.07
6123.00,1.07
6122.00,1.07
6121.00,1.07
6120.00,1.07
6119.00,1.07
6118.00,1.07
6117.00,1.07
6116.00,1.07
6115.00,1.07
6114.00,1.07
6113.00,1.07
6112.00,1.08
6111.00,1.08
6110.00,1.08
6109.00,1.08
6108.00,1.08
6107.00,1.08
6106.00,1.08
6105.00,1.08
6104.00,1.09
6103.00,1.09
6102.00,1.09
6101.00,1.09
6100.00,1.09
6099.00,1.09
6098.00,1.09
6097.00,1.09
6096.00,1.09
6095.00,1.10
6094.00,1.10
6093.00,1.10
6092.00,1.10
6091.00,1.10
6090.00,1.10
6089.00,1.10
6088.00,1.10
6087.00,1.10
6086.00,1.10
6085.00,1.10
6084.00,1.10
6083.00,1.11
6082.00,1.11
6081.00,1.11
6080.00,1.11
6079.00,1.11
6078.00,1.11
6077.00,1.11
6076.00,1.11
6075.00,1.11
6074.00,1.11
6073.00,1.11
6072.00,1.11
6071.00,1.11
6070.00,1.12
6069.00,1.12
6068.00,1.12
6067.00,1.12
6066.00,1.12
6065.00,1.12
6064.00,1.12
6063.00,1.12
6062.00,1.12
6061.00,1.13
6060.00,1.13
6059.00,1.13
6058.00,1.13
6057.00,1.13
6056.00,1.13
6055.00,1.13
6054.00,1.13
6053.00,1.14
6052.00,1.14
6051.00,1.14
6050.00,1.14
6049.00,1.14
6048.00,1.14
6047.00,1.14
6046.00,1.14
6045.00,1.14
6044.00,1.14
6043.00,1.14
6042.00,1.14
6041.00,1.14
6040.00,1.14
6039.00,1.14
6038.00,1.14
6037.00,1.14
6036.00,1.14
6035.00,1.14
6034.00,1.14
6033.00,1.14
6032.00,1.15
6031.00,1.15
6030.00,1.15
6029.00,1.15
6028.00,1.15
6027.00,1.15
6026.00,1.15
6025.00,1.15
6024.00,1.15
6023.00,1.15
6022.00,1.15
6021.00,1.15
6020.00,1.15
6019.00,1.15
6018.00,1.15
6017.00,1.14
6016.00,1.14
6015.00,1.14
6014.00,1.14
6013.00,1.14
6012.00,1.14
6011.00,1.14
6010.00,1.15
6009.00,1.15
6008.00,1.15
6007.00,1.15
6006.00,1.15
6005.00,1.15
6004.00,1.15
6003.00,1.15
6002.00,1.15
6001.00,1.15
6000.00,1.15
5999.00,1.15
5998.00,1.15
5997.00,1.14
5996.00,1.14
5995.00,1.14
5994.00,1.14
5993.00,1.14
5992.00,1.14
5991.00,1.14
5990.00,1.14
5989.00,1.14
5988.00,1.14
5987.00,1.13
5986.00,1.13
5985.00,1.13
5984.00,1.13
5983.00,1.13
5982.00,1.13
5981.00,1.13
5980.00,1.12
5979.00,1.12
5978.00,1.12
5977.00,1.12
5976.00,1.12
5975.00,1.11
5974.00,1.11
5973.00,1.11
5972.00,1.11
5971.00,1.10
5970.00,1.10
5969.00,1.10
5968.00,1.09
5967.00,1.09
5966.00,1.08
5965.00,1.08
5964.00,1.08
5963.00,1.07
5962.00,1.07
5961.00,1.07
5960.00,1.06
5959.00,1.06
5958.00,1.05
5957.00,1.05
5956.00,1.05
5955.00,1.04
5954.00,1.04
5953.00,1.04
5952.00,1.03
5951.00,1.03
5950.00,1.03
5949.00,1.02
5948.00,1.02
5947.00,1.02
5946.00,1.02
5945.00,1.01
5944.00,1.01
5943.00,1.01
5942.00,1.01
5941.00,1.01
5940.00,1.00
5939.00,1.00
5938.00,1.00
5937.00,1.00
5936.00,1.00
5935.00,1.00
5934.00,1.00
5933.00,1.00
5932.00,1.00
5931.00,1.00
5930.00,0.99
5929.00,0.99
5928.00,0.99
5927.00,0.99
5926.00,0.99
5925.00,0.99
5924.00,0.99
5923.00,0.99
5922.00,0.99
5921.00,0.99
5920.00,0.99
5919.00,0.99
5918.00,0.99
5917.00,0.98
5916.00,0.98
5915.00,0.98
5914.00,0.98
5913.00,0.98
5912.00,0.98
5911.00,0.98
5910.00,0.98
5909.00,0.98
5908.00,0.98
5907.00,0.98
5906.00,0.97
5905.00,0.97
5904.00,0.97
5903.00,0.97
5902.00,0.97
5901.00,0.97
5900.00,0.97
5899.00,0.97
5898.00,0.98
5897.00,0.98
5896.00,0.98
5895.00,0.98
5894.00,0.98
5893.00,0.98
5892.00,0.98
5891.00,0.98
5890.00,0.99
5889.00,0.99
5888.00,0.99
5887.00,0.99
5886.00,0.99
5885.00,1.00
5884.00,1.00
5883.00,1.00
5882.00,1.00
5881.00,1.00
5880.00,1.01
5879.00,1.01
5878.00,1.01
5877.00,1.01
5876.00,1.01
5875.00,1.01
5874.00,1.01
5873.00,1.01
5872.00,1.02
5871.00,1.02
5870.00,1.02
5869.00,1.02
5868.00,1.02
5867.00,1.02
5866.00,1.02
5865.00,1.02
5864.00,1.02
5863.00,1.03
5862.00,1.03
5861.00,1.03
5860.00,1.03
5859.00,1.03
5858.00,1.03
5857.00,1.03
5856.00,1.03
5855.00,1.03
5854.00,1.03
5853.00,1.03
5852.00,1.03
5851.00,1.03
5850.00,1.03
5849.00,1.03
5848.00,1.03
5847.00,1.04
5846.00,1.04
5845.00,1.04
5844.00,1.04
5843.00,1.04
5842.00,1.04
5841.00,1.04
5840.00,1.04
5839.00,1.04
5838.00,1.04
5837.00,1.04
5836.00,1.04
5835.00,1.04
5834.00,1.04
5833.00,1.04
5832.00,1.04
5831.00,1.04
5830.00,1.04
5829.00,1.04
5828.00,1.04
5827.00,1.04
5826.00,1.04
5825.00,1.04
5824.00,1.04
5823.00,1.04
5822.00,1.04
5821.00,1.04
5820.00,1.04
5819.00,1.04
5818.00,1.04
5817.00,1.04
5816.00,1.04
5815.00,1.03
5814.00,1.03
5813.00,1.03
5812.00,1.03
5811.00,1.03
5810.00,1.03
5809.00,1.03
5808.00,1.03
5807.00,1.03
5806.00,1.03
5805.00,1.03
5804.00,1.03
5803.00,1.03
5802.00,1.03
5801.00,1.03
5800.00,1.03
5799.00,1.03
5798.00,1.03
5797.00,1.02
5796.00,1.02
5795.00,1.02
5794.00,1.02
5793.00,1.02
5792.00,1.02
5791.00,1.02
5790.00,1.02
5789.00,1.01
5788.00,1.01
5787.00,1.01
5786.00,1.01
5785.00,1.01
5784.00,1.01
5783.00,1.01
5782.00,1.00
5781.00,1.00
5780.00,1.00
5779.00,1.00
5778.00,1.00
5777.00,1.00
5776.00,1.00
5775.00,1.00
5774.00,1.00
5773.00,1.00
5772.00,1.00
5771.00,1.00
5770.00,1.00
5769.00,1.00
5768.00,1.00
5767.00,1.01
5766.00,1.01
5765.00,1.01
5764.00,1.01
5763.00,1.01
5762.00,1.01
5761.00,1.01
5760.00,1.02
5759.00,1.02
5758.00,1.02
5757.00,1.02
5756.00,1.02
5755.00,1.02
5754.00,1.03
5753.00,1.03
5752.00,1.03
5751.00,1.03
5750.00,1.03
5749.00,1.04
5748.00,1.04
5747.00,1.04
5746.00,1.04
5745.00,1.04
5744.00,1.04
5743.00,1.04
5742.00,1.04
5741.00,1.05
5740.00,1.05
5739.00,1.05
5738.00,1.05
5737.00,1.05
5736.00,1.05
5735.00,1.05
5734.00,1.05
5733.00,1.05
5732.00,1.05
5731.00,1.05
5730.00,1.05
5729.00,1.05
5728.00,1.05
5727.00,1.05
5726.00,1.05
5725.00,1.05
5724.00,1.05
5723.00,1.05
5722.00,1.05
5721.00,1.05
5720.00,1.05
5719.00,1.05
5718.00,1.05
5717.00,1.05
5716.00,1.05
5715.00,1.05
5714.00,1.05
5713.00,1.05
5712.00,1.05
5711.00,1.05
5710.00,1.05
5709.00,1.05
5708.00,1.05
5707.00,1.05
5706.00,1.05
5705.00,1.04
5704.00,1.04
5703.00,1.04
5702.00,1.04
5701.00,1.04
5700.00,1.04
5699.00,1.04
5698.00,1.03
5697.00,1.03
5696.00,1.03
5695.00,1.03
5694.00,1.03
5693.00,1.03
5692.00,1.03
5691.00,1.03
5690.00,1.02
5689.00,1.02
5688.00,1.02
5687.00,1.02
5686.00,1.02
5685.00,1.02
5684.00,1.02
5683.00,1.02
5682.00,1.02
5681.00,1.02
5680.00,1.02
5679.00,1.02
5678.00,1.02
5677.00,1.02
5676.00,1.02
5675.00,1.02
5674.00,1.02
5673.00,1.02
5672.00,1.02
5671.00,1.02
5670.00,1.02
5669.00,1.02
5668.00,1.02
5667.00,1.02
5666.00,1.02
5665.00,1.02
5664.00,1.02
5663.00,1.02
5662.00,1.02
5661.00,1.02
5660.00,1.02
5659.00,1.02
5658.00,1.02
5657.00,1.02
5656.00,1.02
5655.00,1.02
5654.00,1.02
5653.00,1.02
5652.00,1.02
5651.00,1.03
5650.00,1.03
5649.00,1.03
5648.00,1.03
5647.00,1.03
5646.00,1.03
5645.00,1.03
5644.00,1.04
5643.00,1.04
5642.00,1.04
5641.00,1.04
5640.00,1.04
5639.00,1.04
5638.00,1.04
5637.00,1.04
5636.00,1.04
5635.00,1.04
5634.00,1.04
5633.00,1.04
5632.00,1.05
5631.00,1.05
5630.00,1.05
5629.00,1.05
5628.00,1.05
5627.00,1.05
5626.00,1.05
5625.00,1.05
5624.00,1.05
5623.00,1.05
5622.00,1.05
5621.00,1.05
5620.00,1.05
5619.00,1.05
5618.00,1.05
5617.00,1.06
5616.00,1.06
5615.00,1.06
5614.00,1.06
5613.00,1.06
5612.00,1.06
5611.00,1.06
5610.00,1.06
5609.00,1.07
5608.00,1.07
5607.00,1.07
5606.00,1.07
5605.00,1.07
5604.00,1.07
5603.00,1.07
5602.00,1.07
5601.00,1.07
5600.00,1.08
5599.00,1.08
5598.00,1.08
5597.00,1.08
5596.00,1.08
5595.00,1.08
5594.00,1.08
5593.00,1.08
5592.00,1.08
5591.00,1.08
5590.00,1.08
5589.00,1.08
5588.00,1.08
5587.00,1.08
5586.00,1.08
5585.00,1.08
5584.00,1.09
5583.00,1.09
5582.00,1.09
5581.00,1.09
5580.00,1.09
5579.00,1.09
5578.00,1.09
5577.00,1.09
5576.00,1.09
5575.00,1.09
5574.00,1.09
5573.00,1.09
5572.00,1.09
5571.00,1.10
5570.00,1.10
5569.00,1.10
5568.00,1.10
5567.00,1.10
5566.00,1.10
5565.00,1.10
5564.00,1.10
5563.00,1.10
5562.00,1.10
5561.00,1.11
5560.00,1.11
5559.00,1.11
5558.00,1.11
5557.00,1.11
5556.00,1.11
5555.00,1.11
5554.00,1.11
5553.00,1.11
5552.00,1.11
5551.00,1.11
5550.00,1.11
5549.00,1.12
5548.00,1.12
5547.00,1.12
5546.00,1.12
5545.00,1.12
5544.00,1.12
5543.00,1.12
5542.00,1.12
5541.00,1.12
5540.00,1.12
5539.00,1.13
5538.00,1.13
5537.00,1.13
5536.00,1.13
5535.00,1.13
5534.00,1.13
5533.00,1.13
5532.00,1.13
5531.00,1.13
5530.00,1.13
5529.00,1.13
5528.00,1.13
5527.00,1.13
5526.00,1.13
5525.00,1.13
5524.00,1.13
5523.00,1.13
5522.00,1.14
5521.00,1.14
5520.00,1.14
5519.00,1.14
5518.00,1.14
5517.00,1.14
5516.00,1.14
5515.00,1.14
5514.00,1.14
5513.00,1.14
5512.00,1.14
5511.00,1.14
5510.00,1.14
5509.00,1.14
5508.00,1.15
5507.00,1.15
5506.00,1.15
5505.00,1.15
5504.00,1.15
5503.00,1.15
5502.00,1.15
5501.00,1.15
5500.00,1.15
5499.00,1.15
5498.00,1.15
5497.00,1.15
5496.00,1.15
5495.00,1.15
5494.00,1.15
5493.00,1.15
5492.00,1.15
5491.00,1.15
5490.00,1.15
5489.00,1.16
5488.00,1.16
5487.00,1.16
5486.00,1.16
5485.00,1.16
5484.00,1.16
5483.00,1.16
5482.00,1.16
5481.00,1.16
5480.00,1.16
5479.00,1.16
5478.00,1.16
5477.00,1.16
5476.00,1.16
5475.00,1.16
5474.00,1.16
5473.00,1.17
5472.00,1.17
5471.00,1.17
5470.00,1.17
5469.00,1.17
5468.00,1.17
5467.00,1.17
5466.00,1.17
5465.00,1.17
5464.00,1.17
5463.00,1.17
5462.00,1.17
5461.00,1.17
5460.00,1.17
5459.00,1.17
5458.00,1.17
5457.00,1.17
5456.00,1.17
5455.00,1.17
5454.00,1.17
5453.00,1.17
5452.00,1.17
5451.00,1.17
5450.00,1.17
5449.00,1.17
5448.00,1.17
5447.00,1.17
5446.00,1.17
5445.00,1.17
5444.00,1.17
5443.00,1.17
5442.00,1.17
5441.00,1.17
5440.00,1.17
5439.00,1.17
5438.00,1.17
5437.00,1.17
5436.00,1.17
5435.00,1.17
5434.00,1.17
5433.00,1.17
5432.00,1.17
5431.00,1.17
5430.00,1.17
5429.00,1.17
5428.00,1.17
5427.00,1.17
5426.00,1.17
5425.00,1.17
5424.00,1.17
5423.00,1.17
5422.00,1.17
5421.00,1.17
5420.00,1.17
5419.00,1.17
5418.00,1.17
5417.00,1.17
5416.00,1.17
5415.00,1.17
5414.00,1.17
5413.00,1.16
5412.00,1.16
5411.00,1.16
5410.00,1.16
5409.00,1.16
5408.00,1.16
5407.00,1.16
5406.00,1.16
5405.00,1.16
5404.00,1.16
5403.00,1.16
5402.00,1.16
5401.00,1.16
5400.00,1.16
5399.00,1.16
5398.00,1.16
5397.00,1.15
5396.00,1.15
5395.00,1.15
5394.00,1.15
5393.00,1.15
5392.00,1.15
5391.00,1.14
5390.00,1.14
5389.00,1.14
5388.00,1.14
5387.00,1.13
5386.00,1.13
5385.00,1.13
5384.00,1.13
5383.00,1.12
5382.00,1.12
5381.00,1.12
5380.00,1.11
5379.00,1.11
5378.00,1.11
5377.00,1.10
5376.00,1.10
5375.00,1.10
5374.00,1.09
5373.00,1.09
5372.00,1.08
5371.00,1.08
5370.00,1.07
5369.00,1.07
5368.00,1.06
5367.00,1.06
5366.00,1.05
5365.00,1.05
5364.00,1.04
5363.00,1.04
5362.00,1.03
5361.00,1.03
5360.00,1.02
5359.00,1.01
5358.00,1.01
5357.00,1.00
5356.00,0.99
5355.00,0.99
5354.00,0.98
5353.00,0.97
5352.00,0.97
5351.00,0.96
5350.00,0.95
5349.00,0.94
5348.00,0.94
5347.00,0.93
5346.00,0.92
5345.00,0.92
5344.00,0.91
5343.00,0.90
5342.00,0.89
5341.00,0.89
5340.00,0.88
5339.00,0.87
5338.00,0.86
5337.00,0.86
5336.00,0.85
5335.00,0.84
5334.00,0.83
5333.00,0.83
5332.00,0.82
5331.00,0.81
5330.00,0.81
5329.00,0.80
5328.00,0.79
5327.00,0.79
5326.00,0.78
5325.00,0.77
5324.00,0.77
5323.00,0.76
5322.00,0.75
5321.00,0.75
5320.00,0.74
5319.00,0.73
5318.00,0.73
5317.00,0.72
5316.00,0.72
5315.00,0.71
5314.00,0.70
5313.00,0.70
5312.00,0.69
5311.00,0.69
5310.00,0.68
5309.00,0.68
5308.00,0.67
5307.00,0.67
5306.00,0.66
5305.00,0.66
5304.00,0.65
5303.00,0.65
5302.00,0.65
5301.00,0.64
5300.00,0.64
5299.00,0.64
5298.00,0.63
5297.00,0.63
5296.00,0.63
5295.00,0.63
5294.00,0.62
5293.00,0.62
5292.00,0.62
5291.00,0.62
5290.00,0.62
5289.00,0.61
5288.00,0.61
5287.00,0.61
5286.00,0.61
5285.00,0.61
5284.00,0.61
5283.00,0.61
5282.00,0.61
5281.00,0.61
5280.00,0.61
5279.00,0.61
5278.00,0.61
5277.00,0.61
5276.00,0.61
5275.00,0.61
5274.00,0.61
5273.00,0.61
5272.00,0.61
5271.00,0.61
5270.00,0.60
5269.00,0.60
5268.00,0.60
5267.00,0.60
5266.00,0.60
5265.00,0.60
5264.00,0.60
5263.00,0.60
5262.00,0.60
5261.00,0.60
5260.00,0.60
5259.00,0.60
5258.00,0.60
5257.00,0.60
5256.00,0.60
5255.00,0.60
5254.00,0.60
5253.00,0.60
5252.00,0.60
5251.00,0.60
5250.00,0.60
5249.00,0.60
5248.00,0.60
5247.00,0.60
5246.00,0.60
5245.00,0.60
5244.00,0.60
5243.00,0.60
5242.00,0.60
5241.00,0.60
5240.00,0.60
5239.00,0.60
5238.00,0.60
5237.00,0.60
5236.00,0.60
5235.00,0.60
5234.00,0.60
5233.00,0.60
5232.00,0.60
5231.00,0.60
5230.00,0.60
5229.00,0.60
5228.00,0.60
5227.00,0.60
5226.00,0.60
5225.00,0.61
5224.00,0.61
5223.00,0.61
5222.00,0.61
5221.00,0.61
5220.00,0.61
5219.00,0.61
5218.00,0.61
5217.00,0.61
5216.00,0.61
5215.00,0.61
5214.00,0.61
5213.00,0.61
5212.00,0.61
5211.00,0.61
5210.00,0.61
5209.00,0.61
5208.00,0.61
5207.00,0.61
5206.00,0.61
5205.00,0.61
5204.00,0.61
5203.00,0.61
5202.00,0.61
5201.00,0.61
5200.00,0.61
5199.00,0.61
5198.00,0.61
5197.00,0.61
5196.00,0.61
5195.00,0.62
5194.00,0.62
5193.00,0.62
5192.00,0.62
5191.00,0.62
5190.00,0.62
5189.00,0.62
5188.00,0.62
5187.00,0.62
5186.00,0.62
5185.00,0.62
5184.00,0.62
5183.00,0.62
5182.00,0.62
5181.00,0.62
5180.00,0.62
5179.00,0.62
5178.00,0.62
5177.00,0.62
5176.00,0.62
5175.00,0.63
5174.00,0.63
5173.00,0.63
5172.00,0.63
5171.00,0.63
5170.00,0.63
5169.00,0.63
5168.00,0.63
5167.00,0.63
5166.00,0.63
5165.00,0.63
5164.00,0.63
5163.00,0.63
5162.00,0.63
5161.00,0.63
5160.00,0.63
5159.00,0.63
5158.00,0.63
5157.00,0.63
5156.00,0.63
5155.00,0.63
5154.00,0.63
5153.00,0.63
5152.00,0.63
5151.00,0.63
5150.00,0.63
5149.00,0.63
5148.00,0.63
5147.00,0.63
5146.00,0.63
5145.00,0.63
5144.00,0.63
5143.00,0.63
5142.00,0.63
5141.00,0.64
5140.00,0.64
5139.00,0.64
5138.00,0.64
5137.00,0.64
5136.00,0.64
5135.00,0.64
5134.00,0.64
5133.00,0.64
5132.00,0.64
5131.00,0.64
5130.00,0.64
5129.00,0.64
5128.00,0.64
5127.00,0.64
5126.00,0.64
5125.00,0.64
5124.00,0.64
5123.00,0.64
5122.00,0.64
5121.00,0.64
5120.00,0.64
5119.00,0.64
5118.00,0.64
5117.00,0.64
5116.00,0.64
5115.00,0.64
5114.00,0.64
5113.00,0.64
5112.00,0.64
5111.00,0.64
5110.00,0.64
5109.00,0.64
5108.00,0.64
5107.00,0.64
5106.00,0.64
5105.00,0.65
5104.00,0.65
5103.00,0.65
5102.00,0.65
5101.00,0.65
5100.00,0.65
5099.00,0.65
5098.00,0.65
5097.00,0.65
5096.00,0.65
5095.00,0.65
5094.00,0.65
5093.00,0.65
5092.00,0.65
5091.00,0.65
5090.00,0.65
5089.00,0.65
5088.00,0.65
5087.00,0.65
5086.00,0.65
5085.00,0.65
5084.00,0.65
5083.00,0.65
5082.00,0.65
5081.00,0.65
5080.00,0.66
5079.00,0.66
5078.00,0.66
5077.00,0.66
5076.00,0.66
5075.00,0.66
5074.00,0.66
5073.00,0.66
5072.00,0.66
5071.00,0.66
5070.00,0.66
5069.00,0.66
5068.00,0.66
5067.00,0.66
5066.00,0.66
5065.00,0.66
5064.00,0.66
5063.00,0.67
5062.00,0.67
5061.00,0.67
5060.00,0.67
5059.00,0.67
5058.00,0.67
5057.00,0.67
5056.00,0.67
5055.00,0.67
5054.00,0.67
5053.00,0.67
5052.00,0.67
5051.00,0.67
5050.00,0.67
5049.00,0.67
5048.00,0.67
5047.00,0.67
5046.00,0.67
5045.00,0.67
5044.00,0.67
5043.00,0.67
5042.00,0.67
5041.00,0.67
5040.00,0.68
5039.00,0.68
5038.00,0.68
5037.00,0.68
5036.00,0.68
5035.00,0.68
5034.00,0.68
5033.00,0.68
5032.00,0.68
5031.00,0.68
5030.00,0.68
5029.00,0.68
5028.00,0.68
5027.00,0.68
5026.00,0.68
5025.00,0.69
5024.00,0.69
5023.00,0.69
5022.00,0.69
5021.00,0.69
5020.00,0.69
5019.00,0.69
5018.00,0.69
5017.00,0.69
5016.00,0.69
5015.00,0.69
5014.00,0.69
5013.00,0.69
5012.00,0.70
5011.00,0.70
5010.00,0.70
5009.00,0.70
5008.00,0.70
5007.00,0.70
5006.00,0.70
5005.00,0.70
5004.00,0.70
5003.00,0.70
5002.00,0.70
5001.00,0.70
5000.00,0.70
4999.00,0.70
4998.00,0.70
4997.00,0.70
4996.00,0.70
4995.00,0.70
4994.00,0.70
4993.00,0.70
4992.00,0.70
4991.00,0.70
4990.00,0.70
4989.00,0.70
4988.00,0.70
4987.00,0.70
4986.00,0.70
4985.00,0.71
4984.00,0.71
4983.00,0.71
4982.00,0.71
4981.00,0.71
4980.00,0.71
4979.00,0.71
4978.00,0.71
4977.00,0.71
4976.00,0.71
4975.00,0.71
4974.00,0.72
4973.00,0.72
4972.00,0.72
4971.00,0.72
4970.00,0.72
4969.00,0.72
4968.00,0.72
4967.00,0.72
4966.00,0.72
4965.00,0.72
4964.00,0.72
4963.00,0.72
4962.00,0.72
4961.00,0.73
4960.00,0.73
4959.00,0.73
4958.00,0.73
4957.00,0.73
4956.00,0.73
4955.00,0.73
4954.00,0.73
4953.00,0.73
4952.00,0.73
4951.00,0.73
4950.00,0.73
4949.00,0.73
4948.00,0.73
4947.00,0.73
4946.00,0.73
4945.00,0.73
4944.00,0.73
4943.00,0.73
4942.00,0.73
4941.00,0.74
4940.00,0.74
4939.00,0.74
4938.00,0.74
4937.00,0.74
4936.00,0.74
4935.00,0.74
4934.00,0.74
4933.00,0.74
4932.00,0.74
4931.00,0.74
4930.00,0.74
4929.00,0.74
4928.00,0.74
4927.00,0.74
4926.00,0.74
4925.00,0.74
4924.00,0.75
4923.00,0.75
4922.00,0.75
4921.00,0.75
4920.00,0.75
4919.00,0.75
4918.00,0.75
4917.00,0.75
4916.00,0.75
4915.00,0.75
4914.00,0.75
4913.00,0.75
4912.00,0.75
4911.00,0.75
4910.00,0.75
4909.00,0.75
4908.00,0.76
4907.00,0.76
4906.00,0.76
4905.00,0.76
4904.00,0.76
4903.00,0.76
4902.00,0.76
4901.00,0.76
4900.00,0.76
4899.00,0.77
4898.00,0.77
4897.00,0.77
4896.00,0.77
4895.00,0.77
4894.00,0.77
4893.00,0.77
4892.00,0.77
4891.00,0.77
4890.00,0.77
4889.00,0.77
4888.00,0.77
4887.00,0.77
4886.00,0.77
4885.00,0.77
4884.00,0.77
4883.00,0.77
4882.00,0.77
4881.00,0.77
4880.00,0.77
4879.00,0.77
4878.00,0.77
4877.00,0.78
4876.00,0.78
4875.00,0.78
4874.00,0.78
4873.00,0.78
4872.00,0.78
4871.00,0.78
4870.00,0.78
4869.00,0.78
4868.00,0.78
4867.00,0.78
4866.00,0.79
4865.00,0.79
4864.00,0.79
4863.00,0.79
4862.00,0.79
4861.00,0.79
4860.00,0.79
4859.00,0.79
4858.00,0.79
4857.00,0.79
4856.00,0.79
4855.00,0.79
4854.00,0.79
4853.00,0.79
4852.00,0.79
4851.00,0.79
4850.00,0.79
4849.00,0.79
4848.00,0.79
4847.00,0.79
4846.00,0.79
4845.00,0.79
4844.00,0.79
4843.00,0.79
4842.00,0.80
4841.00,0.80
4840.00,0.80
4839.00,0.80
4838.00,0.80
4837.00,0.80
4836.00,0.80
4835.00,0.80
4834.00,0.80
4833.00,0.80
4832.00,0.81
4831.00,0.81
4830.00,0.81
4829.00,0.81
4828.00,0.81
4827.00,0.81
4826.00,0.81
4825.00,0.81
4824.00,0.81
4823.00,0.82
4822.00,0.82
4821.00,0.82
4820.00,0.82
4819.00,0.82
4818.00,0.82
4817.00,0.82
4816.00,0.82
4815.00,0.83
4814.00,0.83
4813.00,0.83
4812.00,0.83
4811.00,0.83
4810.00,0.83
4809.00,0.84
4808.00,0.84
4807.00,0.84
4806.00,0.84
4805.00,0.84
4804.00,0.84
4803.00,0.84
4802.00,0.84
4801.00,0.85
4800.00,0.85
4799.00,0.85
4798.00,0.85
4797.00,0.85
4796.00,0.85
4795.00,0.85
4794.00,0.85
4793.00,0.85
4792.00,0.85
4791.00,0.85
4790.00,0.85
4789.00,0.85
4788.00,0.85
4787.00,0.85
4786.00,0.85
4785.00,0.85
4784.00,0.85
4783.00,0.85
4782.00,0.85
4781.00,0.85
4780.00,0.85
4779.00,0.86
4778.00,0.86
4777.00,0.86
4776.00,0.86
4775.00,0.86
4774.00,0.86
4773.00,0.86
4772.00,0.86
4771.00,0.86
4770.00,0.86
4769.00,0.86
4768.00,0.86
4767.00,0.86
4766.00,0.87
4765.00,0.87
4764.00,0.87
4763.00,0.87
4762.00,0.87
4761.00,0.87
4760.00,0.87
4759.00,0.88
4758.00,0.88
4757.00,0.88
4756.00,0.88
4755.00,0.88
4754.00,0.88
4753.00,0.88
4752.00,0.89
4751.00,0.89
4750.00,0.89
4749.00,0.89
4748.00,0.89
4747.00,0.89
4746.00,0.89
4745.00,0.89
4744.00,0.89
4743.00,0.89
4742.00,0.90
4741.00,0.90
4740.00,0.90
4739.00,0.90
4738.00,0.90
4737.00,0.90
4736.00,0.90
4735.00,0.90
4734.00,0.91
4733.00,0.91
4732.00,0.91
4731.00,0.91
4730.00,0.91
4729.00,0.91
4728.00,0.91
4727.00,0.92
4726.00,0.92
4725.00,0.92
4724.00,0.92
4723.00,0.92
4722.00,0.92
4721.00,0.92
4720.00,0.93
4719.00,0.93
4718.00,0.93
4717.00,0.93
4716.00,0.93
4715.00,0.93
4714.00,0.93
4713.00,0.93
4712.00,0.94
4711.00,0.94
4710.00,0.94
4709.00,0.94
4708.00,0.94
4707.00,0.94
4706.00,0.94
4705.00,0.94
4704.00,0.94
4703.00,0.94
4702.00,0.95
4701.00,0.95
4700.00,0.95
4699.00,0.95
4698.00,0.95
4697.00,0.95
4696.00,0.95
4695.00,0.95
4694.00,0.95
4693.00,0.95
4692.00,0.95
4691.00,0.95
4690.00,0.95
4689.00,0.96
4688.00,0.96
4687.00,0.96
4686.00,0.96
4685.00,0.96
4684.00,0.96
4683.00,0.96
4682.00,0.96
4681.00,0.96
4680.00,0.96
4679.00,0.97
4678.00,0.97
4677.00,0.97
4676.00,0.97
4675.00,0.97
4674.00,0.97
4673.00,0.97
4672.00,0.97
4671.00,0.97
4670.00,0.98
4669.00,0.98
4668.00,0.98
4667.00,0.98
4666.00,0.98
4665.00,0.98
4664.00,0.99
4663.00,0.99
4662.00,0.99
4661.00,0.99
4660.00,0.99
4659.00,0.99
4658.00,0.99
4657.00,1.00
4656.00,1.00
4655.00,1.00
4654.00,1.00
4653.00,1.00
4652.00,1.00
4651.00,1.00
4650.00,1.00
4649.00,1.00
4648.00,1.00
4647.00,1.00
4646.00,1.01
4645.00,1.01
4644.00,1.01
4643.00,1.01
4642.00,1.01
4641.00,1.01
4640.00,1.01
4639.00,1.02
4638.00,1.02
4637.00,1.02
4636.00,1.02
4635.00,1.02
4634.00,1.02
4633.00,1.02
4632.00,1.02
4631.00,1.02
4630.00,1.02
4629.00,1.02
4628.00,1.02
4627.00,1.02
4626.00,1.02
4625.00,1.02
4624.00,1.02
4623.00,1.02
4622.00,1.02
4621.00,1.03
4620.00,1.03
4619.00,1.03
4618.00,1.03
4617.00,1.03
4616.00,1.03
4615.00,1.03
4614.00,1.03
4613.00,1.03
4612.00,1.03
4611.00,1.03
4610.00,1.04
4609.00,1.04
4608.00,1.04
4607.00,1.04
4606.00,1.04
4605.00,1.04
4604.00,1.04
4603.00,1.04
4602.00,1.04
4601.00,1.04
4600.00,1.04
4599.00,1.04
4598.00,1.04
4597.00,1.04
4596.00,1.05
4595.00,1.05
4594.00,1.05
4593.00,1.05
4592.00,1.05
4591.00,1.05
4590.00,1.05
4589.00,1.05
4588.00,1.05
4587.00,1.05
4586.00,1.05
4585.00,1.06
4584.00,1.06
4583.00,1.06
4582.00,1.06
4581.00,1.06
4580.00,1.06
4579.00,1.06
4578.00,1.06
4577.00,1.06
4576.00,1.06
4575.00,1.06
4574.00,1.07
4573.00,1.07
4572.00,1.07
4571.00,1.07
4570.00,1.07
4569.00,1.07
4568.00,1.07
4567.00,1.07
4566.00,1.07
4565.00,1.07
4564.00,1.07
4563.00,1.07
4562.00,1.07
4561.00,1.07
4560.00,1.07
4559.00,1.07
4558.00,1.07
4557.00,1.07
4556.00,1.07
4555.00,1.07
4554.00,1.07
4553.00,1.07
4552.00,1.07
4551.00,1.08
4550.00,1.08
4549.00,1.08
4548.00,1.08
4547.00,1.08
4546.00,1.08
4545.00,1.08
4544.00,1.08
4543.00,1.08
4542.00,1.08
4541.00,1.08
4540.00,1.08
4539.00,1.08
4538.00,1.08
4537.00,1.08
4536.00,1.08
4535.00,1.08
4534.00,1.08
4533.00,1.09
4532.00,1.09
4531.00,1.09
4530.00,1.09
4529.00,1.09
4528.00,1.09
4527.00,1.09
4526.00,1.09
4525.00,1.09
4524.00,1.09
4523.00,1.09
4522.00,1.09
4521.00,1.09
4520.00,1.09
4519.00,1.09
4518.00,1.09
4517.00,1.09
4516.00,1.09
4515.00,1.09
4514.00,1.10
4513.00,1.10
4512.00,1.10
4511.00,1.10
4510.00,1.10
4509.00,1.10
4508.00,1.10
4507.00,1.10
4506.00,1.10
4505.00,1.10
4504.00,1.10
4503.00,1.09
4502.00,1.09
4501.00,1.09
4500.00,1.09
4499.00,1.09
4498.00,1.09
4497.00,1.09
4496.00,1.09
4495.00,1.09
4494.00,1.09
4493.00,1.09
4492.00,1.09
4491.00,1.09
4490.00,1.09
4489.00,1.09
4488.00,1.09
4487.00,1.09
4486.00,1.09
4485.00,1.09
4484.00,1.09
4483.00,1.09
4482.00,1.09
4481.00,1.09
4480.00,1.09
4479.00,1.09
4478.00,1.09
4477.00,1.08
4476.00,1.08
4475.00,1.08
4474.00,1.08
4473.00,1.08
4472.00,1.08
4471.00,1.08
4470.00,1.08
4469.00,1.08
4468.00,1.08
4467.00,1.07
4466.00,1.07
4465.00,1.07
4464.00,1.07
4463.00,1.07
4462.00,1.06
4461.00,1.06
4460.00,1.06
4459.00,1.06
4458.00,1.06
4457.00,1.05
4456.00,1.05
4455.00,1.05
4454.00,1.04
4453.00,1.04
4452.00,1.04
4451.00,1.04
4450.00,1.03
4449.00,1.03
4448.00,1.03
4447.00,1.02
4446.00,1.02
4445.00,1.02
4444.00,1.02
4443.00,1.01
4442.00,1.01
4441.00,1.01
4440.00,1.00
4439.00,1.00
4438.00,1.00
4437.00,1.00
4436.00,0.99
4435.00,0.99
4434.00,0.99
4433.00,0.99
4432.00,0.98
4431.00,0.98
4430.00,0.98
4429.00,0.98
4428.00,0.98
4427.00,0.97
4426.00,0.97
4425.00,0.97
4424.00,0.97
4423.00,0.97
4422.00,0.97
4421.00,0.96
4420.00,0.96
4419.00,0.96
4418.00,0.96
4417.00,0.96
4416.00,0.96
4415.00,0.96
4414.00,0.96
4413.00,0.96
4412.00,0.96
4411.00,0.96
4410.00,0.96
4409.00,0.96
4408.00,0.96
4407.00,0.96
4406.00,0.96
4405.00,0.96
4404.00,0.96
4403.00,0.96
4402.00,0.96
4401.00,0.97
4400.00,0.97
4399.00,0.97
4398.00,0.97
4397.00,0.97
4396.00,0.97
4395.00,0.97
4394.00,0.97
4393.00,0.97
4392.00,0.98
4391.00,0.98
4390.00,0.98
4389.00,0.98
4388.00,0.98
4387.00,0.98
4386.00,0.99
4385.00,0.99
4384.00,0.99
4383.00,0.99
4382.00,0.99
4381.00,0.99
4380.00,1.00
4379.00,1.00
4378.00,1.00
4377.00,1.00
4376.00,1.00
4375.00,1.00
4374.00,1.00
4373.00,1.00
4372.00,1.00
4371.00,1.00
4370.00,1.00
4369.00,1.01
4368.00,1.01
4367.00,1.01
4366.00,1.01
4365.00,1.01
4364.00,1.01
4363.00,1.01
4362.00,1.01
4361.00,1.01
4360.00,1.01
4359.00,1.01
4358.00,1.01
4357.00,1.01
4356.00,1.01
4355.00,1.00
4354.00,1.00
4353.00,1.00
4352.00,1.00
4351.00,1.00
4350.00,1.00
4349.00,1.00
4348.00,1.00
4347.00,1.00
4346.00,1.00
4345.00,1.00
4344.00,1.00
4343.00,1.00
4342.00,1.00
4341.00,1.00
4340.00,1.00
4339.00,1.00
4338.00,1.00
4337.00,1.00
4336.00,1.00
4335.00,1.00
4334.00,1.01
4333.00,1.01
4332.00,1.01
4331.00,1.01
4330.00,1.01
4329.00,1.01
4328.00,1.01
4327.00,1.01
4326.00,1.02
4325.00,1.02
4324.00,1.02
4323.00,1.02
4322.00,1.02
4321.00,1.02
4320.00,1.02
4319.00,1.03
4318.00,1.03
4317.00,1.03
4316.00,1.03
4315.00,1.03
4314.00,1.03
4313.00,1.03
4312.00,1.03
4311.00,1.04
4310.00,1.04
4309.00,1.04
4308.00,1.04
4307.00,1.04
4306.00,1.04
4305.00,1.04
4304.00,1.04
4303.00,1.04
4302.00,1.04
4301.00,1.04
4300.00,1.04
4299.00,1.04
4298.00,1.05
4297.00,1.05
4296.00,1.05
4295.00,1.05
4294.00,1.05
4293.00,1.05
4292.00,1.05
4291.00,1.05
4290.00,1.05
4289.00,1.05
4288.00,1.05
4287.00,1.05
4286.00,1.05
4285.00,1.05
4284.00,1.05
4283.00,1.05
4282.00,1.05
4281.00,1.05
4280.00,1.05
4279.00,1.05
4278.00,1.05
4277.00,1.05
4276.00,1.05
4275.00,1.05
4274.00,1.05
4273.00,1.05
4272.00,1.05
4271.00,1.05
4270.00,1.05
4269.00,1.05
4268.00,1.05
4267.00,1.05
4266.00,1.05
4265.00,1.05
4264.00,1.05
4263.00,1.05
4262.00,1.05
4261.00,1.05
4260.00,1.05
4259.00,1.05
4258.00,1.05
4257.00,1.05
4256.00,1.05
4255.00,1.05
4254.00,1.05
4253.00,1.06
4252.00,1.06
4251.00,1.06
4250.00,1.06
4249.00,1.06
4248.00,1.06
4247.00,1.06
4246.00,1.06
4245.00,1.06
4244.00,1.06
4243.00,1.06
4242.00,1.06
4241.00,1.06
4240.00,1.06
4239.00,1.06
4238.00,1.06
4237.00,1.06
4236.00,1.06
4235.00,1.06
4234.00,1.06
4233.00,1.06
4232.00,1.06
4231.00,1.06
4230.00,1.06
4229.00,1.06
4228.00,1.06
4227.00,1.06
4226.00,1.06
4225.00,1.06
4224.00,1.06
4223.00,1.06
4222.00,1.06
4221.00,1.06
4220.00,1.07
4219.00,1.07
4218.00,1.07
4217.00,1.07
4216.00,1.07
4215.00,1.07
4214.00,1.07
4213.00,1.07
4212.00,1.07
4211.00,1.08
4210.00,1.08
4209.00,1.08
4208.00,1.08
4207.00,1.08
4206.00,1.08
4205.00,1.08
4204.00,1.08
4203.00,1.08
4202.00,1.08
4201.00,1.08
4200.00,1.09
4199.00,1.09
4198.00,1.09
4197.00,1.09
4196.00,1.09
4195.00,1.09
4194.00,1.09
4193.00,1.09
4192.00,1.09
4191.00,1.09
4190.00,1.08
4189.00,1.08
4188.00,1.08
4187.00,1.08
4186.00,1.08
4185.00,1.08
4184.00,1.08
4183.00,1.08
4182.00,1.08
4181.00,1.08
4180.00,1.09
4179.00,1.09
4178.00,1.09
4177.00,1.09
4176.00,1.09
4175.00,1.09
4174.00,1.09
4173.00,1.09
4172.00,1.09
4171.00,1.10
4170.00,1.10
4169.00,1.10
4168.00,1.10
4167.00,1.10
4166.00,1.10
4165.00,1.10
4164.00,1.10
4163.00,1.11
4162.00,1.11
4161.00,1.11
4160.00,1.11
4159.00,1.11
4158.00,1.11
4157.00,1.11
4156.00,1.11
4155.00,1.11
4154.00,1.10
4153.00,1.10
4152.00,1.10
4151.00,1.10
4150.00,1.10
4149.00,1.10
4148.00,1.10
4147.00,1.10
4146.00,1.10
4145.00,1.10
4144.00,1.10
4143.00,1.10
4142.00,1.10
4141.00,1.10
4140.00,1.10
4139.00,1.10
4138.00,1.10
4137.00,1.10
4136.00,1.10
4135.00,1.10
4134.00,1.10
4133.00,1.10
4132.00,1.10
4131.00,1.10
4130.00,1.10
4129.00,1.10
4128.00,1.10
4127.00,1.10
4126.00,1.10
4125.00,1.10
4124.00,1.11
4123.00,1.11
4122.00,1.11
4121.00,1.11
4120.00,1.11
4119.00,1.11
4118.00,1.11
4117.00,1.11
4116.00,1.11
4115.00,1.11
4114.00,1.11
4113.00,1.11
4112.00,1.11
4111.00,1.12
4110.00,1.12
4109.00,1.12
4108.00,1.12
4107.00,1.12
4106.00,1.12
4105.00,1.12
4104.00,1.12
4103.00,1.12
4102.00,1.12
4101.00,1.12
4100.00,1.13
4099.00,1.13
4098.00,1.13
4097.00,1.13
4096.00,1.13
4095.00,1.13
4094.00,1.13
4093.00,1.13
4092.00,1.13
4091.00,1.13
4090.00,1.13
4089.00,1.13
4088.00,1.13
4087.00,1.13
4086.00,1.13
4085.00,1.13
4084.00,1.13
4083.00,1.13
4082.00,1.13
4081.00,1.13
4080.00,1.13
4079.00,1.14
4078.00,1.14
4077.00,1.14
4076.00,1.14
4075.00,1.14
4074.00,1.14
4073.00,1.14
4072.00,1.14
4071.00,1.14
4070.00,1.14
4069.00,1.14
4068.00,1.14
4067.00,1.14
4066.00,1.14
4065.00,1.14
4064.00,1.14
4063.00,1.14
4062.00,1.14
4061.00,1.14
4060.00,1.14
4059.00,1.14
4058.00,1.14
4057.00,1.14
4056.00,1.14
4055.00,1.14
4054.00,1.14
4053.00,1.14
4052.00,1.14
4051.00,1.14
4050.00,1.14
4049.00,1.15
4048.00,1.15
4047.00,1.15
4046.00,1.15
4045.00,1.15
4044.00,1.15
4043.00,1.15
4042.00,1.14
4041.00,1.14
4040.00,1.14
4039.00,1.14
4038.00,1.14
4037.00,1.14
4036.00,1.14
4035.00,1.13
4034.00,1.13
4033.00,1.13
4032.00,1.13
4031.00,1.13
4030.00,1.13
4029.00,1.13
4028.00,1.13
4027.00,1.13
4026.00,1.13
4025.00,1.13
4024.00,1.13
4023.00,1.13
4022.00,1.13
4021.00,1.14
4020.00,1.14
4019.00,1.14
4018.00,1.14
4017.00,1.14
4016.00,1.14
4015.00,1.15
4014.00,1.15
4013.00,1.15
4012.00,1.15
4011.00,1.15
4010.00,1.15
4009.00,1.16
4008.00,1.16
4007.00,1.16
4006.00,1.16
4005.00,1.16
4004.00,1.16
4003.00,1.17
4002.00,1.17
4001.00,1.17
4000.00,1.17
