创建为新数据集,样品 152 用户 Administrator 日期 星期六, 七月 21 2018
cm-1,%T
10000.00,1.21
9999.00,1.21
9998.00,1.21
9997.00,1.21
9996.00,1.21
9995.00,1.21
9994.00,1.21
9993.00,1.21
9992.00,1.21
9991.00,1.21
9990.00,1.21
9989.00,1.21
9988.00,1.21
9987.00,1.21
9986.00,1.21
9985.00,1.21
9984.00,1.21
9983.00,1.21
9982.00,1.20
9981.00,1.20
9980.00,1.20
9979.00,1.20
9978.00,1.20
9977.00,1.20
9976.00,1.19
9975.00,1.19
9974.00,1.19
9973.00,1.19
9972.00,1.19
9971.00,1.19
9970.00,1.19
9969.00,1.19
9968.00,1.19
9967.00,1.19
9966.00,1.19
9965.00,1.19
9964.00,1.19
9963.00,1.19
9962.00,1.19
9961.00,1.19
9960.00,1.19
9959.00,1.19
9958.00,1.19
9957.00,1.19
9956.00,1.19
9955.00,1.19
9954.00,1.19
9953.00,1.19
9952.00,1.19
9951.00,1.18
9950.00,1.18
9949.00,1.18
9948.00,1.18
9947.00,1.18
9946.00,1.17
9945.00,1.17
9944.00,1.17
9943.00,1.17
9942.00,1.16
9941.00,1.16
9940.00,1.16
9939.00,1.16
9938.00,1.15
9937.00,1.15
9936.00,1.15
9935.00,1.15
9934.00,1.14
9933.00,1.14
9932.00,1.14
9931.00,1.14
9930.00,1.14
9929.00,1.14
9928.00,1.14
9927.00,1.14
9926.00,1.14
9925.00,1.14
9924.00,1.15
9923.00,1.15
9922.00,1.15
9921.00,1.15
9920.00,1.15
9919.00,1.16
9918.00,1.16
9917.00,1.16
9916.00,1.16
9915.00,1.16
9914.00,1.17
9913.00,1.17
9912.00,1.17
9911.00,1.17
9910.00,1.17
9909.00,1.18
9908.00,1.18
9907.00,1.18
9906.00,1.18
9905.00,1.19
9904.00,1.19
9903.00,1.19
9902.00,1.19
9901.00,1.19
9900.00,1.19
9899.00,1.19
9898.00,1.19
9897.00,1.19
9896.00,1.19
9895.00,1.19
9894.00,1.19
9893.00,1.19
9892.00,1.19
9891.00,1.19
9890.00,1.19
9889.00,1.19
9888.00,1.19
9887.00,1.19
9886.00,1.19
9885.00,1.19
9884.00,1.19
9883.00,1.19
9882.00,1.19
9881.00,1.19
9880.00,1.20
9879.00,1.20
9878.00,1.20
9877.00,1.20
9876.00,1.20
9875.00,1.20
9874.00,1.20
9873.00,1.20
9872.00,1.20
9871.00,1.21
9870.00,1.21
9869.00,1.21
9868.00,1.21
9867.00,1.21
9866.00,1.21
9865.00,1.21
9864.00,1.21
9863.00,1.21
9862.00,1.21
9861.00,1.20
9860.00,1.20
9859.00,1.20
9858.00,1.20
9857.00,1.20
9856.00,1.20
9855.00,1.20
9854.00,1.19
9853.00,1.19
9852.00,1.19
9851.00,1.19
9850.00,1.19
9849.00,1.19
9848.00,1.19
9847.00,1.19
9846.00,1.18
9845.00,1.18
9844.00,1.18
9843.00,1.18
9842.00,1.18
9841.00,1.18
9840.00,1.18
9839.00,1.18
9838.00,1.18
9837.00,1.18
9836.00,1.18
9835.00,1.18
9834.00,1.18
9833.00,1.18
9832.00,1.18
9831.00,1.17
9830.00,1.17
9829.00,1.17
9828.00,1.17
9827.00,1.17
9826.00,1.17
9825.00,1.17
9824.00,1.16
9823.00,1.16
9822.00,1.16
9821.00,1.16
9820.00,1.16
9819.00,1.16
9818.00,1.16
9817.00,1.16
9816.00,1.16
9815.00,1.16
9814.00,1.17
9813.00,1.17
9812.00,1.17
9811.00,1.17
9810.00,1.17
9809.00,1.17
9808.00,1.17
9807.00,1.17
9806.00,1.17
9805.00,1.17
9804.00,1.16
9803.00,1.16
9802.00,1.16
9801.00,1.16
9800.00,1.16
9799.00,1.16
9798.00,1.16
9797.00,1.16
9796.00,1.16
9795.00,1.16
9794.00,1.16
9793.00,1.16
9792.00,1.16
9791.00,1.16
9790.00,1.17
9789.00,1.17
9788.00,1.17
9787.00,1.17
9786.00,1.18
9785.00,1.18
9784.00,1.18
9783.00,1.18
9782.00,1.19
9781.00,1.19
9780.00,1.19
9779.00,1.19
9778.00,1.20
9777.00,1.20
9776.00,1.20
9775.00,1.20
9774.00,1.20
9773.00,1.20
9772.00,1.20
9771.00,1.20
9770.00,1.20
9769.00,1.20
9768.00,1.20
9767.00,1.20
9766.00,1.19
9765.00,1.19
9764.00,1.19
9763.00,1.18
9762.00,1.18
9761.00,1.18
9760.00,1.18
9759.00,1.18
9758.00,1.17
9757.00,1.17
9756.00,1.17
9755.00,1.17
9754.00,1.17
9753.00,1.17
9752.00,1.18
9751.00,1.18
9750.00,1.18
9749.00,1.18
9748.00,1.18
9747.00,1.18
9746.00,1.18
9745.00,1.18
9744.00,1.18
9743.00,1.18
9742.00,1.18
9741.00,1.18
9740.00,1.18
9739.00,1.18
9738.00,1.18
9737.00,1.18
9736.00,1.18
9735.00,1.18
9734.00,1.18
9733.00,1.18
9732.00,1.18
9731.00,1.18
9730.00,1.18
9729.00,1.19
9728.00,1.19
9727.00,1.19
9726.00,1.19
9725.00,1.19
9724.00,1.19
9723.00,1.19
9722.00,1.19
9721.00,1.20
9720.00,1.20
9719.00,1.20
9718.00,1.20
9717.00,1.20
9716.00,1.20
9715.00,1.20
9714.00,1.19
9713.00,1.19
9712.00,1.19
9711.00,1.19
9710.00,1.19
9709.00,1.19
9708.00,1.19
9707.00,1.19
9706.00,1.19
9705.00,1.19
9704.00,1.19
9703.00,1.19
9702.00,1.18
9701.00,1.18
9700.00,1.18
9699.00,1.18
9698.00,1.18
9697.00,1.18
9696.00,1.18
9695.00,1.18
9694.00,1.18
9693.00,1.18
9692.00,1.18
9691.00,1.18
9690.00,1.18
9689.00,1.18
9688.00,1.18
9687.00,1.18
9686.00,1.18
9685.00,1.18
9684.00,1.18
9683.00,1.18
9682.00,1.18
9681.00,1.18
9680.00,1.18
9679.00,1.18
9678.00,1.18
9677.00,1.18
9676.00,1.18
9675.00,1.18
9674.00,1.18
9673.00,1.18
9672.00,1.18
9671.00,1.18
9670.00,1.18
9669.00,1.18
9668.00,1.18
9667.00,1.18
9666.00,1.19
9665.00,1.19
9664.00,1.19
9663.00,1.19
9662.00,1.19
9661.00,1.19
9660.00,1.19
9659.00,1.20
9658.00,1.20
9657.00,1.20
9656.00,1.20
9655.00,1.20
9654.00,1.20
9653.00,1.19
9652.00,1.19
9651.00,1.19
9650.00,1.19
9649.00,1.19
9648.00,1.18
9647.00,1.18
9646.00,1.18
9645.00,1.18
9644.00,1.17
9643.00,1.17
9642.00,1.17
9641.00,1.17
9640.00,1.17
9639.00,1.17
9638.00,1.17
9637.00,1.17
9636.00,1.17
9635.00,1.18
9634.00,1.18
9633.00,1.18
9632.00,1.18
9631.00,1.19
9630.00,1.19
9629.00,1.19
9628.00,1.19
9627.00,1.20
9626.00,1.20
9625.00,1.20
9624.00,1.20
9623.00,1.20
9622.00,1.20
9621.00,1.20
9620.00,1.20
9619.00,1.20
9618.00,1.20
9617.00,1.20
9616.00,1.20
9615.00,1.20
9614.00,1.20
9613.00,1.20
9612.00,1.20
9611.00,1.20
9610.00,1.20
9609.00,1.20
9608.00,1.20
9607.00,1.20
9606.00,1.20
9605.00,1.20
9604.00,1.20
9603.00,1.20
9602.00,1.20
9601.00,1.20
9600.00,1.20
9599.00,1.20
9598.00,1.20
9597.00,1.20
9596.00,1.20
9595.00,1.20
9594.00,1.20
9593.00,1.20
9592.00,1.19
9591.00,1.19
9590.00,1.19
9589.00,1.19
9588.00,1.18
9587.00,1.18
9586.00,1.18
9585.00,1.18
9584.00,1.17
9583.00,1.17
9582.00,1.17
9581.00,1.17
9580.00,1.17
9579.00,1.17
9578.00,1.17
9577.00,1.17
9576.00,1.17
9575.00,1.17
9574.00,1.17
9573.00,1.17
9572.00,1.18
9571.00,1.18
9570.00,1.18
9569.00,1.18
9568.00,1.18
9567.00,1.19
9566.00,1.19
9565.00,1.19
9564.00,1.19
9563.00,1.19
9562.00,1.19
9561.00,1.19
9560.00,1.19
9559.00,1.19
9558.00,1.19
9557.00,1.19
9556.00,1.19
9555.00,1.18
9554.00,1.18
9553.00,1.18
9552.00,1.18
9551.00,1.18
9550.00,1.18
9549.00,1.17
9548.00,1.17
9547.00,1.17
9546.00,1.17
9545.00,1.17
9544.00,1.17
9543.00,1.17
9542.00,1.17
9541.00,1.17
9540.00,1.17
9539.00,1.17
9538.00,1.17
9537.00,1.17
9536.00,1.17
9535.00,1.17
9534.00,1.17
9533.00,1.17
9532.00,1.17
9531.00,1.17
9530.00,1.17
9529.00,1.18
9528.00,1.18
9527.00,1.18
9526.00,1.18
9525.00,1.18
9524.00,1.18
9523.00,1.18
9522.00,1.18
9521.00,1.18
9520.00,1.19
9519.00,1.19
9518.00,1.19
9517.00,1.19
9516.00,1.19
9515.00,1.19
9514.00,1.19
9513.00,1.19
9512.00,1.19
9511.00,1.20
9510.00,1.20
9509.00,1.20
9508.00,1.20
9507.00,1.20
9506.00,1.20
9505.00,1.20
9504.00,1.20
9503.00,1.20
9502.00,1.20
9501.00,1.20
9500.00,1.20
9499.00,1.20
9498.00,1.20
9497.00,1.20
9496.00,1.20
9495.00,1.19
9494.00,1.19
9493.00,1.19
9492.00,1.19
9491.00,1.18
9490.00,1.18
9489.00,1.18
9488.00,1.18
9487.00,1.18
9486.00,1.17
9485.00,1.17
9484.00,1.17
9483.00,1.17
9482.00,1.17
9481.00,1.17
9480.00,1.17
9479.00,1.17
9478.00,1.17
9477.00,1.17
9476.00,1.17
9475.00,1.17
9474.00,1.18
9473.00,1.18
9472.00,1.18
9471.00,1.18
9470.00,1.18
9469.00,1.18
9468.00,1.18
9467.00,1.18
9466.00,1.18
9465.00,1.18
9464.00,1.18
9463.00,1.18
9462.00,1.18
9461.00,1.18
9460.00,1.18
9459.00,1.19
9458.00,1.19
9457.00,1.19
9456.00,1.19
9455.00,1.19
9454.00,1.19
9453.00,1.19
9452.00,1.19
9451.00,1.19
9450.00,1.19
9449.00,1.19
9448.00,1.19
9447.00,1.18
9446.00,1.18
9445.00,1.18
9444.00,1.18
9443.00,1.19
9442.00,1.19
9441.00,1.19
9440.00,1.19
9439.00,1.19
9438.00,1.19
9437.00,1.19
9436.00,1.19
9435.00,1.19
9434.00,1.19
9433.00,1.19
9432.00,1.19
9431.00,1.19
9430.00,1.19
9429.00,1.19
9428.00,1.19
9427.00,1.19
9426.00,1.19
9425.00,1.18
9424.00,1.18
9423.00,1.18
9422.00,1.18
9421.00,1.18
9420.00,1.17
9419.00,1.17
9418.00,1.17
9417.00,1.17
9416.00,1.17
9415.00,1.16
9414.00,1.16
9413.00,1.16
9412.00,1.16
9411.00,1.16
9410.00,1.16
9409.00,1.15
9408.00,1.15
9407.00,1.15
9406.00,1.15
9405.00,1.15
9404.00,1.15
9403.00,1.15
9402.00,1.15
9401.00,1.15
9400.00,1.15
9399.00,1.15
9398.00,1.15
9397.00,1.15
9396.00,1.15
9395.00,1.16
9394.00,1.16
9393.00,1.16
9392.00,1.16
9391.00,1.16
9390.00,1.16
9389.00,1.16
9388.00,1.16
9387.00,1.16
9386.00,1.16
9385.00,1.15
9384.00,1.15
9383.00,1.15
9382.00,1.15
9381.00,1.15
9380.00,1.15
9379.00,1.15
9378.00,1.15
9377.00,1.15
9376.00,1.15
9375.00,1.15
9374.00,1.15
9373.00,1.15
9372.00,1.15
9371.00,1.15
9370.00,1.15
9369.00,1.16
9368.00,1.16
9367.00,1.16
9366.00,1.16
9365.00,1.17
9364.00,1.17
9363.00,1.18
9362.00,1.18
9361.00,1.18
9360.00,1.19
9359.00,1.19
9358.00,1.19
9357.00,1.20
9356.00,1.20
9355.00,1.20
9354.00,1.20
9353.00,1.20
9352.00,1.20
9351.00,1.20
9350.00,1.20
9349.00,1.20
9348.00,1.20
9347.00,1.20
9346.00,1.20
9345.00,1.20
9344.00,1.20
9343.00,1.20
9342.00,1.20
9341.00,1.20
9340.00,1.19
9339.00,1.19
9338.00,1.20
9337.00,1.20
9336.00,1.20
9335.00,1.20
9334.00,1.20
9333.00,1.20
9332.00,1.20
9331.00,1.20
9330.00,1.20
9329.00,1.21
9328.00,1.21
9327.00,1.21
9326.00,1.21
9325.00,1.21
9324.00,1.21
9323.00,1.20
9322.00,1.20
9321.00,1.20
9320.00,1.20
9319.00,1.20
9318.00,1.20
9317.00,1.19
9316.00,1.19
9315.00,1.19
9314.00,1.19
9313.00,1.19
9312.00,1.19
9311.00,1.19
9310.00,1.19
9309.00,1.19
9308.00,1.19
9307.00,1.19
9306.00,1.19
9305.00,1.19
9304.00,1.19
9303.00,1.19
9302.00,1.19
9301.00,1.19
9300.00,1.19
9299.00,1.20
9298.00,1.20
9297.00,1.20
9296.00,1.20
9295.00,1.20
9294.00,1.20
9293.00,1.20
9292.00,1.20
9291.00,1.21
9290.00,1.21
9289.00,1.21
9288.00,1.21
9287.00,1.21
9286.00,1.21
9285.00,1.21
9284.00,1.21
9283.00,1.21
9282.00,1.21
9281.00,1.21
9280.00,1.21
9279.00,1.20
9278.00,1.20
9277.00,1.20
9276.00,1.20
9275.00,1.20
9274.00,1.20
9273.00,1.20
9272.00,1.20
9271.00,1.19
9270.00,1.19
9269.00,1.19
9268.00,1.19
9267.00,1.19
9266.00,1.19
9265.00,1.19
9264.00,1.19
9263.00,1.19
9262.00,1.19
9261.00,1.19
9260.00,1.19
9259.00,1.19
9258.00,1.19
9257.00,1.19
9256.00,1.18
9255.00,1.18
9254.00,1.18
9253.00,1.18
9252.00,1.18
9251.00,1.18
9250.00,1.18
9249.00,1.18
9248.00,1.18
9247.00,1.18
9246.00,1.18
9245.00,1.18
9244.00,1.18
9243.00,1.18
9242.00,1.18
9241.00,1.18
9240.00,1.18
9239.00,1.18
9238.00,1.18
9237.00,1.18
9236.00,1.18
9235.00,1.18
9234.00,1.18
9233.00,1.18
9232.00,1.18
9231.00,1.18
9230.00,1.18
9229.00,1.18
9228.00,1.18
9227.00,1.18
9226.00,1.18
9225.00,1.18
9224.00,1.18
9223.00,1.17
9222.00,1.17
9221.00,1.17
9220.00,1.17
9219.00,1.17
9218.00,1.17
9217.00,1.17
9216.00,1.17
9215.00,1.17
9214.00,1.17
9213.00,1.17
9212.00,1.17
9211.00,1.18
9210.00,1.18
9209.00,1.18
9208.00,1.18
9207.00,1.18
9206.00,1.18
9205.00,1.18
9204.00,1.18
9203.00,1.18
9202.00,1.18
9201.00,1.18
9200.00,1.18
9199.00,1.18
9198.00,1.18
9197.00,1.18
9196.00,1.18
9195.00,1.18
9194.00,1.18
9193.00,1.18
9192.00,1.18
9191.00,1.18
9190.00,1.18
9189.00,1.18
9188.00,1.18
9187.00,1.18
9186.00,1.18
9185.00,1.19
9184.00,1.19
9183.00,1.19
9182.00,1.19
9181.00,1.19
9180.00,1.19
9179.00,1.20
9178.00,1.20
9177.00,1.20
9176.00,1.20
9175.00,1.20
9174.00,1.20
9173.00,1.20
9172.00,1.20
9171.00,1.21
9170.00,1.21
9169.00,1.21
9168.00,1.21
9167.00,1.21
9166.00,1.21
9165.00,1.21
9164.00,1.21
9163.00,1.21
9162.00,1.21
9161.00,1.21
9160.00,1.21
9159.00,1.21
9158.00,1.21
9157.00,1.21
9156.00,1.21
9155.00,1.20
9154.00,1.20
9153.00,1.20
9152.00,1.20
9151.00,1.20
9150.00,1.20
9149.00,1.20
9148.00,1.20
9147.00,1.20
9146.00,1.20
9145.00,1.20
9144.00,1.20
9143.00,1.20
9142.00,1.20
9141.00,1.20
9140.00,1.20
9139.00,1.20
9138.00,1.20
9137.00,1.20
9136.00,1.20
9135.00,1.20
9134.00,1.20
9133.00,1.20
9132.00,1.20
9131.00,1.20
9130.00,1.20
9129.00,1.20
9128.00,1.20
9127.00,1.20
9126.00,1.20
9125.00,1.20
9124.00,1.20
9123.00,1.20
9122.00,1.20
9121.00,1.20
9120.00,1.20
9119.00,1.20
9118.00,1.20
9117.00,1.20
9116.00,1.20
9115.00,1.20
9114.00,1.20
9113.00,1.20
9112.00,1.20
9111.00,1.20
9110.00,1.20
9109.00,1.20
9108.00,1.20
9107.00,1.20
9106.00,1.20
9105.00,1.20
9104.00,1.20
9103.00,1.20
9102.00,1.20
9101.00,1.20
9100.00,1.20
9099.00,1.20
9098.00,1.21
9097.00,1.21
9096.00,1.21
9095.00,1.21
9094.00,1.21
9093.00,1.21
9092.00,1.21
9091.00,1.21
9090.00,1.21
9089.00,1.20
9088.00,1.20
9087.00,1.20
9086.00,1.20
9085.00,1.20
9084.00,1.20
9083.00,1.19
9082.00,1.19
9081.00,1.19
9080.00,1.19
9079.00,1.19
9078.00,1.19
9077.00,1.19
9076.00,1.19
9075.00,1.19
9074.00,1.19
9073.00,1.19
9072.00,1.19
9071.00,1.19
9070.00,1.19
9069.00,1.20
9068.00,1.20
9067.00,1.20
9066.00,1.20
9065.00,1.20
9064.00,1.21
9063.00,1.21
9062.00,1.21
9061.00,1.21
9060.00,1.21
9059.00,1.21
9058.00,1.21
9057.00,1.20
9056.00,1.20
9055.00,1.20
9054.00,1.20
9053.00,1.20
9052.00,1.20
9051.00,1.20
9050.00,1.20
9049.00,1.19
9048.00,1.19
9047.00,1.19
9046.00,1.19
9045.00,1.19
9044.00,1.19
9043.00,1.19
9042.00,1.19
9041.00,1.19
9040.00,1.19
9039.00,1.19
9038.00,1.19
9037.00,1.19
9036.00,1.19
9035.00,1.19
9034.00,1.19
9033.00,1.19
9032.00,1.19
9031.00,1.19
9030.00,1.19
9029.00,1.19
9028.00,1.19
9027.00,1.19
9026.00,1.19
9025.00,1.19
9024.00,1.19
9023.00,1.19
9022.00,1.19
9021.00,1.19
9020.00,1.19
9019.00,1.19
9018.00,1.19
9017.00,1.20
9016.00,1.20
9015.00,1.20
9014.00,1.20
9013.00,1.20
9012.00,1.20
9011.00,1.20
9010.00,1.20
9009.00,1.20
9008.00,1.20
9007.00,1.20
9006.00,1.20
9005.00,1.20
9004.00,1.20
9003.00,1.20
9002.00,1.20
9001.00,1.20
9000.00,1.20
8999.00,1.20
8998.00,1.20
8997.00,1.20
8996.00,1.19
8995.00,1.19
8994.00,1.19
8993.00,1.19
8992.00,1.19
8991.00,1.19
8990.00,1.19
8989.00,1.19
8988.00,1.19
8987.00,1.19
8986.00,1.19
8985.00,1.19
8984.00,1.19
8983.00,1.19
8982.00,1.19
8981.00,1.19
8980.00,1.19
8979.00,1.19
8978.00,1.19
8977.00,1.19
8976.00,1.19
8975.00,1.19
8974.00,1.19
8973.00,1.19
8972.00,1.19
8971.00,1.19
8970.00,1.19
8969.00,1.19
8968.00,1.19
8967.00,1.19
8966.00,1.18
8965.00,1.18
8964.00,1.18
8963.00,1.18
8962.00,1.18
8961.00,1.18
8960.00,1.18
8959.00,1.18
8958.00,1.17
8957.00,1.17
8956.00,1.17
8955.00,1.17
8954.00,1.17
8953.00,1.17
8952.00,1.17
8951.00,1.17
8950.00,1.16
8949.00,1.16
8948.00,1.16
8947.00,1.16
8946.00,1.16
8945.00,1.16
8944.00,1.17
8943.00,1.17
8942.00,1.17
8941.00,1.17
8940.00,1.17
8939.00,1.18
8938.00,1.18
8937.00,1.18
8936.00,1.18
8935.00,1.19
8934.00,1.19
8933.00,1.19
8932.00,1.19
8931.00,1.20
8930.00,1.20
8929.00,1.20
8928.00,1.20
8927.00,1.20
8926.00,1.20
8925.00,1.21
8924.00,1.20
8923.00,1.20
8922.00,1.20
8921.00,1.20
8920.00,1.20
8919.00,1.20
8918.00,1.20
8917.00,1.19
8916.00,1.19
8915.00,1.19
8914.00,1.19
8913.00,1.19
8912.00,1.19
8911.00,1.19
8910.00,1.19
8909.00,1.19
8908.00,1.19
8907.00,1.19
8906.00,1.19
8905.00,1.19
8904.00,1.19
8903.00,1.19
8902.00,1.19
8901.00,1.19
8900.00,1.19
8899.00,1.19
8898.00,1.19
8897.00,1.19
8896.00,1.19
8895.00,1.19
8894.00,1.19
8893.00,1.19
8892.00,1.18
8891.00,1.18
8890.00,1.18
8889.00,1.18
8888.00,1.18
8887.00,1.18
8886.00,1.18
8885.00,1.18
8884.00,1.17
8883.00,1.17
8882.00,1.17
8881.00,1.17
8880.00,1.17
8879.00,1.17
8878.00,1.17
8877.00,1.17
8876.00,1.16
8875.00,1.16
8874.00,1.16
8873.00,1.16
8872.00,1.16
8871.00,1.16
8870.00,1.16
8869.00,1.16
8868.00,1.17
8867.00,1.17
8866.00,1.17
8865.00,1.17
8864.00,1.17
8863.00,1.17
8862.00,1.18
8861.00,1.18
8860.00,1.18
8859.00,1.18
8858.00,1.18
8857.00,1.18
8856.00,1.18
8855.00,1.18
8854.00,1.18
8853.00,1.18
8852.00,1.18
8851.00,1.18
8850.00,1.18
8849.00,1.18
8848.00,1.18
8847.00,1.18
8846.00,1.18
8845.00,1.18
8844.00,1.18
8843.00,1.18
8842.00,1.18
8841.00,1.18
8840.00,1.18
8839.00,1.18
8838.00,1.18
8837.00,1.18
8836.00,1.18
8835.00,1.18
8834.00,1.18
8833.00,1.18
8832.00,1.18
8831.00,1.18
8830.00,1.18
8829.00,1.18
8828.00,1.18
8827.00,1.18
8826.00,1.18
8825.00,1.18
8824.00,1.18
8823.00,1.18
8822.00,1.18
8821.00,1.18
8820.00,1.18
8819.00,1.17
8818.00,1.17
8817.00,1.17
8816.00,1.17
8815.00,1.17
8814.00,1.16
8813.00,1.16
8812.00,1.16
8811.00,1.16
8810.00,1.16
8809.00,1.16
8808.00,1.15
8807.00,1.15
8806.00,1.15
8805.00,1.15
8804.00,1.15
8803.00,1.15
8802.00,1.16
8801.00,1.16
8800.00,1.16
8799.00,1.16
8798.00,1.16
8797.00,1.16
8796.00,1.16
8795.00,1.16
8794.00,1.17
8793.00,1.17
8792.00,1.17
8791.00,1.17
8790.00,1.17
8789.00,1.17
8788.00,1.17
8787.00,1.17
8786.00,1.17
8785.00,1.17
8784.00,1.17
8783.00,1.17
8782.00,1.17
8781.00,1.17
8780.00,1.17
8779.00,1.17
8778.00,1.17
8777.00,1.17
8776.00,1.16
8775.00,1.16
8774.00,1.16
8773.00,1.16
8772.00,1.16
8771.00,1.16
8770.00,1.16
8769.00,1.15
8768.00,1.15
8767.00,1.15
8766.00,1.15
8765.00,1.15
8764.00,1.15
8763.00,1.15
8762.00,1.15
8761.00,1.15
8760.00,1.15
8759.00,1.15
8758.00,1.15
8757.00,1.15
8756.00,1.15
8755.00,1.15
8754.00,1.14
8753.00,1.14
8752.00,1.14
8751.00,1.14
8750.00,1.14
8749.00,1.14
8748.00,1.14
8747.00,1.13
8746.00,1.13
8745.00,1.13
8744.00,1.13
8743.00,1.13
8742.00,1.13
8741.00,1.13
8740.00,1.13
8739.00,1.13
8738.00,1.13
8737.00,1.13
8736.00,1.13
8735.00,1.13
8734.00,1.14
8733.00,1.14
8732.00,1.14
8731.00,1.14
8730.00,1.14
8729.00,1.14
8728.00,1.14
8727.00,1.14
8726.00,1.15
8725.00,1.15
8724.00,1.15
8723.00,1.15
8722.00,1.15
8721.00,1.15
8720.00,1.15
8719.00,1.15
8718.00,1.15
8717.00,1.15
8716.00,1.15
8715.00,1.15
8714.00,1.15
8713.00,1.16
8712.00,1.16
8711.00,1.16
8710.00,1.15
8709.00,1.15
8708.00,1.15
8707.00,1.15
8706.00,1.15
8705.00,1.15
8704.00,1.15
8703.00,1.15
8702.00,1.15
8701.00,1.15
8700.00,1.14
8699.00,1.14
8698.00,1.14
8697.00,1.14
8696.00,1.14
8695.00,1.14
8694.00,1.14
8693.00,1.14
8692.00,1.14
8691.00,1.14
8690.00,1.14
8689.00,1.14
8688.00,1.14
8687.00,1.14
8686.00,1.14
8685.00,1.14
8684.00,1.14
8683.00,1.14
8682.00,1.14
8681.00,1.14
8680.00,1.14
8679.00,1.14
8678.00,1.14
8677.00,1.14
8676.00,1.14
8675.00,1.13
8674.00,1.13
8673.00,1.13
8672.00,1.13
8671.00,1.13
8670.00,1.13
8669.00,1.13
8668.00,1.13
8667.00,1.13
8666.00,1.13
8665.00,1.13
8664.00,1.13
8663.00,1.13
8662.00,1.13
8661.00,1.14
8660.00,1.14
8659.00,1.14
8658.00,1.14
8657.00,1.14
8656.00,1.14
8655.00,1.14
8654.00,1.14
8653.00,1.14
8652.00,1.14
8651.00,1.14
8650.00,1.14
8649.00,1.14
8648.00,1.14
8647.00,1.14
8646.00,1.13
8645.00,1.13
8644.00,1.13
8643.00,1.13
8642.00,1.13
8641.00,1.13
8640.00,1.13
8639.00,1.13
8638.00,1.13
8637.00,1.13
8636.00,1.13
8635.00,1.13
8634.00,1.13
8633.00,1.13
8632.00,1.13
8631.00,1.13
8630.00,1.13
8629.00,1.13
8628.00,1.13
8627.00,1.13
8626.00,1.13
8625.00,1.13
8624.00,1.13
8623.00,1.13
8622.00,1.13
8621.00,1.13
8620.00,1.13
8619.00,1.13
8618.00,1.13
8617.00,1.13
8616.00,1.13
8615.00,1.13
8614.00,1.13
8613.00,1.13
8612.00,1.12
8611.00,1.12
8610.00,1.12
8609.00,1.12
8608.00,1.12
8607.00,1.12
8606.00,1.12
8605.00,1.12
8604.00,1.11
8603.00,1.11
8602.00,1.11
8601.00,1.11
8600.00,1.11
8599.00,1.12
8598.00,1.12
8597.00,1.12
8596.00,1.12
8595.00,1.12
8594.00,1.12
8593.00,1.12
8592.00,1.12
8591.00,1.12
8590.00,1.12
8589.00,1.12
8588.00,1.12
8587.00,1.12
8586.00,1.12
8585.00,1.12
8584.00,1.12
8583.00,1.12
8582.00,1.12
8581.00,1.12
8580.00,1.12
8579.00,1.12
8578.00,1.12
8577.00,1.12
8576.00,1.12
8575.00,1.12
8574.00,1.12
8573.00,1.12
8572.00,1.12
8571.00,1.12
8570.00,1.12
8569.00,1.12
8568.00,1.12
8567.00,1.12
8566.00,1.12
8565.00,1.11
8564.00,1.11
8563.00,1.11
8562.00,1.11
8561.00,1.11
8560.00,1.10
8559.00,1.10
8558.00,1.10
8557.00,1.10
8556.00,1.10
8555.00,1.10
8554.00,1.09
8553.00,1.09
8552.00,1.09
8551.00,1.09
8550.00,1.09
8549.00,1.09
8548.00,1.09
8547.00,1.09
8546.00,1.10
8545.00,1.10
8544.00,1.10
8543.00,1.10
8542.00,1.10
8541.00,1.10
8540.00,1.10
8539.00,1.11
8538.00,1.11
8537.00,1.11
8536.00,1.11
8535.00,1.11
8534.00,1.11
8533.00,1.11
8532.00,1.11
8531.00,1.11
8530.00,1.11
8529.00,1.11
8528.00,1.11
8527.00,1.11
8526.00,1.11
8525.00,1.11
8524.00,1.11
8523.00,1.11
8522.00,1.11
8521.00,1.11
8520.00,1.11
8519.00,1.10
8518.00,1.10
8517.00,1.10
8516.00,1.10
8515.00,1.10
8514.00,1.10
8513.00,1.10
8512.00,1.10
8511.00,1.10
8510.00,1.10
8509.00,1.09
8508.00,1.09
8507.00,1.09
8506.00,1.09
8505.00,1.09
8504.00,1.09
8503.00,1.09
8502.00,1.09
8501.00,1.09
8500.00,1.09
8499.00,1.09
8498.00,1.09
8497.00,1.09
8496.00,1.09
8495.00,1.09
8494.00,1.09
8493.00,1.09
8492.00,1.08
8491.00,1.08
8490.00,1.08
8489.00,1.08
8488.00,1.08
8487.00,1.08
8486.00,1.08
8485.00,1.08
8484.00,1.08
8483.00,1.08
8482.00,1.08
8481.00,1.08
8480.00,1.08
8479.00,1.08
8478.00,1.08
8477.00,1.08
8476.00,1.08
8475.00,1.07
8474.00,1.07
8473.00,1.07
8472.00,1.07
8471.00,1.07
8470.00,1.07
8469.00,1.06
8468.00,1.06
8467.00,1.06
8466.00,1.06
8465.00,1.06
8464.00,1.06
8463.00,1.06
8462.00,1.06
8461.00,1.05
8460.00,1.05
8459.00,1.05
8458.00,1.05
8457.00,1.05
8456.00,1.05
8455.00,1.05
8454.00,1.05
8453.00,1.05
8452.00,1.05
8451.00,1.04
8450.00,1.04
8449.00,1.04
8448.00,1.04
8447.00,1.04
8446.00,1.04
8445.00,1.04
8444.00,1.04
8443.00,1.04
8442.00,1.04
8441.00,1.04
8440.00,1.04
8439.00,1.04
8438.00,1.04
8437.00,1.04
8436.00,1.04
8435.00,1.04
8434.00,1.04
8433.00,1.04
8432.00,1.04
8431.00,1.04
8430.00,1.05
8429.00,1.05
8428.00,1.05
8427.00,1.05
8426.00,1.05
8425.00,1.05
8424.00,1.05
8423.00,1.05
8422.00,1.05
8421.00,1.05
8420.00,1.06
8419.00,1.06
8418.00,1.06
8417.00,1.06
8416.00,1.06
8415.00,1.06
8414.00,1.06
8413.00,1.06
8412.00,1.06
8411.00,1.06
8410.00,1.06
8409.00,1.06
8408.00,1.06
8407.00,1.06
8406.00,1.06
8405.00,1.06
8404.00,1.06
8403.00,1.06
8402.00,1.06
8401.00,1.06
8400.00,1.06
8399.00,1.06
8398.00,1.06
8397.00,1.06
8396.00,1.06
8395.00,1.06
8394.00,1.06
8393.00,1.06
8392.00,1.06
8391.00,1.06
8390.00,1.06
8389.00,1.06
8388.00,1.07
8387.00,1.07
8386.00,1.07
8385.00,1.07
8384.00,1.07
8383.00,1.07
8382.00,1.07
8381.00,1.07
8380.00,1.07
8379.00,1.07
8378.00,1.07
8377.00,1.07
8376.00,1.07
8375.00,1.07
8374.00,1.07
8373.00,1.07
8372.00,1.07
8371.00,1.07
8370.00,1.07
8369.00,1.07
8368.00,1.07
8367.00,1.07
8366.00,1.07
8365.00,1.07
8364.00,1.07
8363.00,1.07
8362.00,1.07
8361.00,1.07
8360.00,1.08
8359.00,1.08
8358.00,1.08
8357.00,1.08
8356.00,1.08
8355.00,1.08
8354.00,1.09
8353.00,1.09
8352.00,1.09
8351.00,1.09
8350.00,1.09
8349.00,1.09
8348.00,1.09
8347.00,1.09
8346.00,1.10
8345.00,1.10
8344.00,1.10
8343.00,1.10
8342.00,1.10
8341.00,1.10
8340.00,1.10
8339.00,1.10
8338.00,1.10
8337.00,1.10
8336.00,1.10
8335.00,1.10
8334.00,1.10
8333.00,1.10
8332.00,1.10
8331.00,1.10
8330.00,1.10
8329.00,1.10
8328.00,1.10
8327.00,1.10
8326.00,1.10
8325.00,1.10
8324.00,1.10
8323.00,1.10
8322.00,1.10
8321.00,1.10
8320.00,1.10
8319.00,1.10
8318.00,1.10
8317.00,1.10
8316.00,1.10
8315.00,1.10
8314.00,1.09
8313.00,1.09
8312.00,1.09
8311.00,1.09
8310.00,1.09
8309.00,1.09
8308.00,1.09
8307.00,1.09
8306.00,1.09
8305.00,1.09
8304.00,1.09
8303.00,1.09
8302.00,1.09
8301.00,1.09
8300.00,1.09
8299.00,1.09
8298.00,1.09
8297.00,1.09
8296.00,1.09
8295.00,1.10
8294.00,1.10
8293.00,1.10
8292.00,1.10
8291.00,1.10
8290.00,1.10
8289.00,1.10
8288.00,1.10
8287.00,1.10
8286.00,1.10
8285.00,1.10
8284.00,1.10
8283.00,1.10
8282.00,1.10
8281.00,1.10
8280.00,1.10
8279.00,1.10
8278.00,1.10
8277.00,1.10
8276.00,1.10
8275.00,1.10
8274.00,1.10
8273.00,1.10
8272.00,1.10
8271.00,1.11
8270.00,1.11
8269.00,1.11
8268.00,1.11
8267.00,1.11
8266.00,1.11
8265.00,1.11
8264.00,1.11
8263.00,1.11
8262.00,1.11
8261.00,1.11
8260.00,1.10
8259.00,1.10
8258.00,1.10
8257.00,1.10
8256.00,1.10
8255.00,1.10
8254.00,1.10
8253.00,1.10
8252.00,1.10
8251.00,1.10
8250.00,1.10
8249.00,1.10
8248.00,1.10
8247.00,1.10
8246.00,1.10
8245.00,1.11
8244.00,1.11
8243.00,1.11
8242.00,1.11
8241.00,1.11
8240.00,1.11
8239.00,1.11
8238.00,1.12
8237.00,1.12
8236.00,1.12
8235.00,1.12
8234.00,1.12
8233.00,1.12
8232.00,1.12
8231.00,1.12
8230.00,1.12
8229.00,1.12
8228.00,1.13
8227.00,1.13
8226.00,1.13
8225.00,1.13
8224.00,1.13
8223.00,1.13
8222.00,1.13
8221.00,1.13
8220.00,1.13
8219.00,1.13
8218.00,1.13
8217.00,1.13
8216.00,1.13
8215.00,1.13
8214.00,1.13
8213.00,1.13
8212.00,1.13
8211.00,1.13
8210.00,1.13
8209.00,1.13
8208.00,1.13
8207.00,1.13
8206.00,1.13
8205.00,1.13
8204.00,1.13
8203.00,1.13
8202.00,1.13
8201.00,1.13
8200.00,1.13
8199.00,1.13
8198.00,1.13
8197.00,1.13
8196.00,1.13
8195.00,1.13
8194.00,1.13
8193.00,1.13
8192.00,1.13
8191.00,1.13
8190.00,1.13
8189.00,1.13
8188.00,1.13
8187.00,1.13
8186.00,1.13
8185.00,1.13
8184.00,1.13
8183.00,1.13
8182.00,1.13
8181.00,1.13
8180.00,1.13
8179.00,1.13
8178.00,1.13
8177.00,1.13
8176.00,1.13
8175.00,1.13
8174.00,1.13
8173.00,1.14
8172.00,1.14
8171.00,1.14
8170.00,1.14
8169.00,1.14
8168.00,1.14
8167.00,1.14
8166.00,1.14
8165.00,1.14
8164.00,1.14
8163.00,1.14
8162.00,1.14
8161.00,1.14
8160.00,1.14
8159.00,1.14
8158.00,1.14
8157.00,1.14
8156.00,1.14
8155.00,1.14
8154.00,1.14
8153.00,1.14
8152.00,1.14
8151.00,1.14
8150.00,1.14
8149.00,1.14
8148.00,1.14
8147.00,1.14
8146.00,1.14
8145.00,1.14
8144.00,1.15
8143.00,1.15
8142.00,1.15
8141.00,1.15
8140.00,1.15
8139.00,1.15
8138.00,1.15
8137.00,1.15
8136.00,1.15
8135.00,1.15
8134.00,1.15
8133.00,1.15
8132.00,1.14
8131.00,1.14
8130.00,1.14
8129.00,1.14
8128.00,1.14
8127.00,1.14
8126.00,1.14
8125.00,1.14
8124.00,1.14
8123.00,1.14
8122.00,1.14
8121.00,1.14
8120.00,1.14
8119.00,1.14
8118.00,1.14
8117.00,1.14
8116.00,1.14
8115.00,1.14
8114.00,1.14
8113.00,1.14
8112.00,1.14
8111.00,1.14
8110.00,1.15
8109.00,1.15
8108.00,1.15
8107.00,1.15
8106.00,1.15
8105.00,1.15
8104.00,1.15
8103.00,1.15
8102.00,1.15
8101.00,1.15
8100.00,1.15
8099.00,1.15
8098.00,1.15
8097.00,1.15
8096.00,1.15
8095.00,1.15
8094.00,1.15
8093.00,1.15
8092.00,1.15
8091.00,1.15
8090.00,1.15
8089.00,1.15
8088.00,1.15
8087.00,1.15
8086.00,1.15
8085.00,1.15
8084.00,1.15
8083.00,1.15
8082.00,1.15
8081.00,1.15
8080.00,1.15
8079.00,1.15
8078.00,1.15
8077.00,1.16
8076.00,1.16
8075.00,1.16
8074.00,1.16
8073.00,1.16
8072.00,1.16
8071.00,1.16
8070.00,1.16
8069.00,1.16
8068.00,1.16
8067.00,1.16
8066.00,1.16
8065.00,1.16
8064.00,1.16
8063.00,1.16
8062.00,1.17
8061.00,1.17
8060.00,1.17
8059.00,1.17
8058.00,1.17
8057.00,1.17
8056.00,1.17
8055.00,1.17
8054.00,1.17
8053.00,1.17
8052.00,1.17
8051.00,1.17
8050.00,1.17
8049.00,1.17
8048.00,1.17
8047.00,1.17
8046.00,1.17
8045.00,1.17
8044.00,1.17
8043.00,1.17
8042.00,1.17
8041.00,1.17
8040.00,1.17
8039.00,1.17
8038.00,1.17
8037.00,1.17
8036.00,1.17
8035.00,1.17
8034.00,1.17
8033.00,1.17
8032.00,1.17
8031.00,1.17
8030.00,1.17
8029.00,1.17
8028.00,1.17
8027.00,1.17
8026.00,1.17
8025.00,1.17
8024.00,1.17
8023.00,1.17
8022.00,1.17
8021.00,1.17
8020.00,1.17
8019.00,1.17
8018.00,1.17
8017.00,1.17
8016.00,1.17
8015.00,1.17
8014.00,1.17
8013.00,1.17
8012.00,1.17
8011.00,1.17
8010.00,1.17
8009.00,1.17
8008.00,1.17
8007.00,1.17
8006.00,1.17
8005.00,1.17
8004.00,1.17
8003.00,1.17
8002.00,1.17
8001.00,1.17
8000.00,1.17
7999.00,1.17
7998.00,1.17
7997.00,1.17
7996.00,1.17
7995.00,1.17
7994.00,1.17
7993.00,1.17
7992.00,1.18
7991.00,1.18
7990.00,1.18
7989.00,1.18
7988.00,1.18
7987.00,1.18
7986.00,1.18
7985.00,1.18
7984.00,1.18
7983.00,1.18
7982.00,1.18
7981.00,1.18
7980.00,1.18
7979.00,1.18
7978.00,1.18
7977.00,1.18
7976.00,1.18
7975.00,1.18
7974.00,1.18
7973.00,1.18
7972.00,1.17
7971.00,1.17
7970.00,1.17
7969.00,1.17
7968.00,1.17
7967.00,1.17
7966.00,1.17
7965.00,1.17
7964.00,1.17
7963.00,1.17
7962.00,1.17
7961.00,1.17
7960.00,1.17
7959.00,1.17
7958.00,1.17
7957.00,1.17
7956.00,1.17
7955.00,1.17
7954.00,1.17
7953.00,1.18
7952.00,1.18
7951.00,1.18
7950.00,1.18
7949.00,1.18
7948.00,1.18
7947.00,1.18
7946.00,1.18
7945.00,1.18
7944.00,1.18
7943.00,1.18
7942.00,1.18
7941.00,1.18
7940.00,1.18
7939.00,1.18
7938.00,1.18
7937.00,1.18
7936.00,1.18
7935.00,1.18
7934.00,1.18
7933.00,1.18
7932.00,1.18
7931.00,1.18
7930.00,1.18
7929.00,1.18
7928.00,1.18
7927.00,1.18
7926.00,1.18
7925.00,1.18
7924.00,1.18
7923.00,1.18
7922.00,1.18
7921.00,1.18
7920.00,1.18
7919.00,1.18
7918.00,1.18
7917.00,1.18
7916.00,1.18
7915.00,1.18
7914.00,1.18
7913.00,1.18
7912.00,1.18
7911.00,1.18
7910.00,1.18
7909.00,1.18
7908.00,1.18
7907.00,1.18
7906.00,1.18
7905.00,1.18
7904.00,1.18
7903.00,1.18
7902.00,1.18
7901.00,1.18
7900.00,1.18
7899.00,1.18
7898.00,1.18
7897.00,1.18
7896.00,1.18
7895.00,1.18
7894.00,1.18
7893.00,1.18
7892.00,1.18
7891.00,1.18
7890.00,1.18
7889.00,1.18
7888.00,1.18
7887.00,1.18
7886.00,1.18
7885.00,1.19
7884.00,1.19
7883.00,1.19
7882.00,1.19
7881.00,1.19
7880.00,1.19
7879.00,1.19
7878.00,1.19
7877.00,1.19
7876.00,1.19
7875.00,1.19
7874.00,1.19
7873.00,1.19
7872.00,1.19
7871.00,1.19
7870.00,1.19
7869.00,1.19
7868.00,1.19
7867.00,1.19
7866.00,1.19
7865.00,1.19
7864.00,1.19
7863.00,1.19
7862.00,1.19
7861.00,1.19
7860.00,1.19
7859.00,1.19
7858.00,1.19
7857.00,1.19
7856.00,1.19
7855.00,1.19
7854.00,1.19
7853.00,1.20
7852.00,1.20
7851.00,1.20
7850.00,1.20
7849.00,1.20
7848.00,1.20
7847.00,1.20
7846.00,1.20
7845.00,1.20
7844.00,1.20
7843.00,1.21
7842.00,1.21
7841.00,1.21
7840.00,1.21
7839.00,1.21
7838.00,1.21
7837.00,1.20
7836.00,1.20
7835.00,1.20
7834.00,1.20
7833.00,1.20
7832.00,1.20
7831.00,1.20
7830.00,1.20
7829.00,1.20
7828.00,1.20
7827.00,1.20
7826.00,1.20
7825.00,1.20
7824.00,1.20
7823.00,1.20
7822.00,1.20
7821.00,1.19
7820.00,1.19
7819.00,1.19
7818.00,1.19
7817.00,1.19
7816.00,1.19
7815.00,1.19
7814.00,1.19
7813.00,1.19
7812.00,1.19
7811.00,1.19
7810.00,1.19
7809.00,1.19
7808.00,1.19
7807.00,1.19
7806.00,1.19
7805.00,1.19
7804.00,1.19
7803.00,1.19
7802.00,1.19
7801.00,1.19
7800.00,1.19
7799.00,1.19
7798.00,1.19
7797.00,1.19
7796.00,1.19
7795.00,1.19
7794.00,1.19
7793.00,1.19
7792.00,1.19
7791.00,1.19
7790.00,1.19
7789.00,1.20
7788.00,1.20
7787.00,1.20
7786.00,1.20
7785.00,1.20
7784.00,1.20
7783.00,1.20
7782.00,1.20
7781.00,1.20
7780.00,1.20
7779.00,1.20
7778.00,1.20
7777.00,1.20
7776.00,1.21
7775.00,1.21
7774.00,1.21
7773.00,1.21
7772.00,1.21
7771.00,1.21
7770.00,1.21
7769.00,1.21
7768.00,1.21
7767.00,1.21
7766.00,1.21
7765.00,1.21
7764.00,1.21
7763.00,1.21
7762.00,1.21
7761.00,1.21
7760.00,1.21
7759.00,1.21
7758.00,1.21
7757.00,1.21
7756.00,1.20
7755.00,1.20
7754.00,1.20
7753.00,1.20
7752.00,1.20
7751.00,1.20
7750.00,1.20
7749.00,1.20
7748.00,1.20
7747.00,1.20
7746.00,1.20
7745.00,1.20
7744.00,1.20
7743.00,1.20
7742.00,1.19
7741.00,1.19
7740.00,1.19
7739.00,1.19
7738.00,1.19
7737.00,1.19
7736.00,1.19
7735.00,1.19
7734.00,1.19
7733.00,1.19
7732.00,1.19
7731.00,1.19
7730.00,1.19
7729.00,1.19
7728.00,1.19
7727.00,1.19
7726.00,1.19
7725.00,1.19
7724.00,1.20
7723.00,1.20
7722.00,1.20
7721.00,1.20
7720.00,1.20
7719.00,1.20
7718.00,1.20
7717.00,1.20
7716.00,1.20
7715.00,1.20
7714.00,1.20
7713.00,1.20
7712.00,1.20
7711.00,1.20
7710.00,1.20
7709.00,1.20
7708.00,1.20
7707.00,1.20
7706.00,1.20
7705.00,1.20
7704.00,1.20
7703.00,1.20
7702.00,1.20
7701.00,1.20
7700.00,1.20
7699.00,1.20
7698.00,1.20
7697.00,1.20
7696.00,1.20
7695.00,1.20
7694.00,1.20
7693.00,1.20
7692.00,1.20
7691.00,1.20
7690.00,1.20
7689.00,1.20
7688.00,1.20
7687.00,1.20
7686.00,1.20
7685.00,1.20
7684.00,1.20
7683.00,1.20
7682.00,1.21
7681.00,1.21
7680.00,1.21
7679.00,1.21
7678.00,1.21
7677.00,1.21
7676.00,1.21
7675.00,1.21
7674.00,1.21
7673.00,1.21
7672.00,1.21
7671.00,1.21
7670.00,1.21
7669.00,1.21
7668.00,1.21
7667.00,1.20
7666.00,1.20
7665.00,1.20
7664.00,1.20
7663.00,1.20
7662.00,1.20
7661.00,1.20
7660.00,1.20
7659.00,1.20
7658.00,1.20
7657.00,1.20
7656.00,1.20
7655.00,1.20
7654.00,1.20
7653.00,1.20
7652.00,1.20
7651.00,1.20
7650.00,1.20
7649.00,1.20
7648.00,1.20
7647.00,1.20
7646.00,1.20
7645.00,1.20
7644.00,1.20
7643.00,1.20
7642.00,1.20
7641.00,1.20
7640.00,1.20
7639.00,1.20
7638.00,1.20
7637.00,1.20
7636.00,1.20
7635.00,1.20
7634.00,1.20
7633.00,1.20
7632.00,1.20
7631.00,1.20
7630.00,1.20
7629.00,1.20
7628.00,1.20
7627.00,1.20
7626.00,1.20
7625.00,1.20
7624.00,1.20
7623.00,1.20
7622.00,1.20
7621.00,1.20
7620.00,1.20
7619.00,1.20
7618.00,1.20
7617.00,1.20
7616.00,1.20
7615.00,1.20
7614.00,1.20
7613.00,1.20
7612.00,1.20
7611.00,1.20
7610.00,1.20
7609.00,1.20
7608.00,1.20
7607.00,1.20
7606.00,1.20
7605.00,1.20
7604.00,1.20
7603.00,1.20
7602.00,1.20
7601.00,1.20
7600.00,1.20
7599.00,1.20
7598.00,1.20
7597.00,1.20
7596.00,1.20
7595.00,1.20
7594.00,1.20
7593.00,1.20
7592.00,1.20
7591.00,1.20
7590.00,1.20
7589.00,1.20
7588.00,1.20
7587.00,1.20
7586.00,1.20
7585.00,1.20
7584.00,1.20
7583.00,1.20
7582.00,1.20
7581.00,1.20
7580.00,1.20
7579.00,1.20
7578.00,1.20
7577.00,1.20
7576.00,1.20
7575.00,1.20
7574.00,1.20
7573.00,1.20
7572.00,1.20
7571.00,1.20
7570.00,1.20
7569.00,1.20
7568.00,1.20
7567.00,1.20
7566.00,1.20
7565.00,1.19
7564.00,1.19
7563.00,1.19
7562.00,1.20
7561.00,1.20
7560.00,1.20
7559.00,1.20
7558.00,1.20
7557.00,1.20
7556.00,1.20
7555.00,1.20
7554.00,1.20
7553.00,1.20
7552.00,1.20
7551.00,1.20
7550.00,1.20
7549.00,1.20
7548.00,1.20
7547.00,1.20
7546.00,1.20
7545.00,1.20
7544.00,1.20
7543.00,1.20
7542.00,1.20
7541.00,1.20
7540.00,1.20
7539.00,1.20
7538.00,1.20
7537.00,1.20
7536.00,1.20
7535.00,1.20
7534.00,1.20
7533.00,1.20
7532.00,1.20
7531.00,1.20
7530.00,1.20
7529.00,1.20
7528.00,1.20
7527.00,1.20
7526.00,1.20
7525.00,1.20
7524.00,1.20
7523.00,1.20
7522.00,1.20
7521.00,1.20
7520.00,1.20
7519.00,1.20
7518.00,1.20
7517.00,1.20
7516.00,1.20
7515.00,1.20
7514.00,1.20
7513.00,1.20
7512.00,1.20
7511.00,1.19
7510.00,1.19
7509.00,1.19
7508.00,1.19
7507.00,1.19
7506.00,1.19
7505.00,1.19
7504.00,1.19
7503.00,1.19
7502.00,1.19
7501.00,1.19
7500.00,1.19
7499.00,1.19
7498.00,1.18
7497.00,1.18
7496.00,1.18
7495.00,1.18
7494.00,1.18
7493.00,1.18
7492.00,1.18
7491.00,1.18
7490.00,1.18
7489.00,1.17
7488.00,1.17
7487.00,1.17
7486.00,1.17
7485.00,1.17
7484.00,1.17
7483.00,1.17
7482.00,1.17
7481.00,1.17
7480.00,1.17
7479.00,1.17
7478.00,1.17
7477.00,1.17
7476.00,1.17
7475.00,1.17
7474.00,1.17
7473.00,1.17
7472.00,1.17
7471.00,1.17
7470.00,1.17
7469.00,1.17
7468.00,1.17
7467.00,1.17
7466.00,1.17
7465.00,1.17
7464.00,1.17
7463.00,1.17
7462.00,1.17
7461.00,1.16
7460.00,1.16
7459.00,1.16
7458.00,1.16
7457.00,1.16
7456.00,1.16
7455.00,1.16
7454.00,1.16
7453.00,1.16
7452.00,1.15
7451.00,1.15
7450.00,1.15
7449.00,1.15
7448.00,1.15
7447.00,1.15
7446.00,1.15
7445.00,1.15
7444.00,1.15
7443.00,1.15
7442.00,1.15
7441.00,1.15
7440.00,1.15
7439.00,1.15
7438.00,1.15
7437.00,1.15
7436.00,1.15
7435.00,1.15
7434.00,1.15
7433.00,1.15
7432.00,1.15
7431.00,1.15
7430.00,1.15
7429.00,1.15
7428.00,1.15
7427.00,1.15
7426.00,1.15
7425.00,1.14
7424.00,1.14
7423.00,1.14
7422.00,1.14
7421.00,1.14
7420.00,1.14
7419.00,1.14
7418.00,1.14
7417.00,1.14
7416.00,1.14
7415.00,1.14
7414.00,1.14
7413.00,1.14
7412.00,1.13
7411.00,1.13
7410.00,1.13
7409.00,1.13
7408.00,1.13
7407.00,1.13
7406.00,1.13
7405.00,1.13
7404.00,1.13
7403.00,1.13
7402.00,1.13
7401.00,1.13
7400.00,1.13
7399.00,1.13
7398.00,1.13
7397.00,1.13
7396.00,1.12
7395.00,1.12
7394.00,1.12
7393.00,1.12
7392.00,1.12
7391.00,1.12
7390.00,1.12
7389.00,1.12
7388.00,1.12
7387.00,1.12
7386.00,1.12
7385.00,1.12
7384.00,1.12
7383.00,1.12
7382.00,1.12
7381.00,1.12
7380.00,1.12
7379.00,1.12
7378.00,1.12
7377.00,1.11
7376.00,1.11
7375.00,1.11
7374.00,1.11
7373.00,1.11
7372.00,1.11
7371.00,1.11
7370.00,1.11
7369.00,1.11
7368.00,1.11
7367.00,1.11
7366.00,1.11
7365.00,1.11
7364.00,1.11
7363.00,1.11
7362.00,1.11
7361.00,1.11
7360.00,1.11
7359.00,1.11
7358.00,1.11
7357.00,1.11
7356.00,1.11
7355.00,1.11
7354.00,1.11
7353.00,1.11
7352.00,1.11
7351.00,1.11
7350.00,1.10
7349.00,1.10
7348.00,1.10
7347.00,1.10
7346.00,1.10
7345.00,1.10
7344.00,1.10
7343.00,1.10
7342.00,1.10
7341.00,1.10
7340.00,1.10
7339.00,1.10
7338.00,1.10
7337.00,1.10
7336.00,1.10
7335.00,1.10
7334.00,1.10
7333.00,1.10
7332.00,1.10
7331.00,1.10
7330.00,1.10
7329.00,1.10
7328.00,1.10
7327.00,1.10
7326.00,1.10
7325.00,1.10
7324.00,1.10
7323.00,1.10
7322.00,1.10
7321.00,1.10
7320.00,1.10
7319.00,1.10
7318.00,1.10
7317.00,1.10
7316.00,1.10
7315.00,1.09
7314.00,1.09
7313.00,1.09
7312.00,1.09
7311.00,1.09
7310.00,1.09
7309.00,1.09
7308.00,1.09
7307.00,1.08
7306.00,1.08
7305.00,1.08
7304.00,1.08
7303.00,1.08
7302.00,1.08
7301.00,1.08
7300.00,1.08
7299.00,1.08
7298.00,1.08
7297.00,1.07
7296.00,1.07
7295.00,1.07
7294.00,1.07
7293.00,1.07
7292.00,1.07
7291.00,1.07
7290.00,1.07
7289.00,1.06
7288.00,1.06
7287.00,1.06
7286.00,1.06
7285.00,1.06
7284.00,1.06
7283.00,1.06
7282.00,1.06
7281.00,1.06
7280.00,1.06
7279.00,1.06
7278.00,1.06
7277.00,1.06
7276.00,1.05
7275.00,1.05
7274.00,1.05
7273.00,1.05
7272.00,1.05
7271.00,1.05
7270.00,1.05
7269.00,1.04
7268.00,1.04
7267.00,1.04
7266.00,1.04
7265.00,1.04
7264.00,1.04
7263.00,1.04
7262.00,1.03
7261.00,1.03
7260.00,1.03
7259.00,1.03
7258.00,1.03
7257.00,1.03
7256.00,1.03
7255.00,1.02
7254.00,1.02
7253.00,1.02
7252.00,1.02
7251.00,1.02
7250.00,1.02
7249.00,1.02
7248.00,1.01
7247.00,1.01
7246.00,1.01
7245.00,1.01
7244.00,1.01
7243.00,1.00
7242.00,1.00
7241.00,1.00
7240.00,1.00
7239.00,0.99
7238.00,0.99
7237.00,0.99
7236.00,0.98
7235.00,0.98
7234.00,0.98
7233.00,0.97
7232.00,0.97
7231.00,0.97
7230.00,0.96
7229.00,0.96
7228.00,0.96
7227.00,0.95
7226.00,0.95
7225.00,0.95
7224.00,0.95
7223.00,0.94
7222.00,0.94
7221.00,0.94
7220.00,0.93
7219.00,0.93
7218.00,0.93
7217.00,0.92
7216.00,0.92
7215.00,0.92
7214.00,0.91
7213.00,0.91
7212.00,0.91
7211.00,0.90
7210.00,0.90
7209.00,0.90
7208.00,0.90
7207.00,0.89
7206.00,0.89
7205.00,0.89
7204.00,0.89
7203.00,0.88
7202.00,0.88
7201.00,0.88
7200.00,0.88
7199.00,0.87
7198.00,0.87
7197.00,0.87
7196.00,0.87
7195.00,0.86
7194.00,0.86
7193.00,0.86
7192.00,0.85
7191.00,0.85
7190.00,0.85
7189.00,0.84
7188.00,0.84
7187.00,0.84
7186.00,0.83
7185.00,0.83
7184.00,0.83
7183.00,0.82
7182.00,0.82
7181.00,0.82
7180.00,0.81
7179.00,0.81
7178.00,0.81
7177.00,0.80
7176.00,0.80
7175.00,0.80
7174.00,0.80
7173.00,0.79
7172.00,0.79
7171.00,0.79
7170.00,0.79
7169.00,0.78
7168.00,0.78
7167.00,0.78
7166.00,0.78
7165.00,0.78
7164.00,0.77
7163.00,0.77
7162.00,0.77
7161.00,0.77
7160.00,0.77
7159.00,0.76
7158.00,0.76
7157.00,0.76
7156.00,0.76
7155.00,0.75
7154.00,0.75
7153.00,0.75
7152.00,0.75
7151.00,0.74
7150.00,0.74
7149.00,0.74
7148.00,0.74
7147.00,0.73
7146.00,0.73
7145.00,0.73
7144.00,0.73
7143.00,0.72
7142.00,0.72
7141.00,0.72
7140.00,0.71
7139.00,0.71
7138.00,0.71
7137.00,0.71
7136.00,0.70
7135.00,0.70
7134.00,0.70
7133.00,0.70
7132.00,0.69
7131.00,0.69
7130.00,0.69
7129.00,0.69
7128.00,0.68
7127.00,0.68
7126.00,0.68
7125.00,0.68
7124.00,0.67
7123.00,0.67
7122.00,0.67
7121.00,0.67
7120.00,0.67
7119.00,0.66
7118.00,0.66
7117.00,0.66
7116.00,0.66
7115.00,0.65
7114.00,0.65
7113.00,0.65
7112.00,0.65
7111.00,0.65
7110.00,0.65
7109.00,0.64
7108.00,0.64
7107.00,0.64
7106.00,0.64
7105.00,0.64
7104.00,0.64
7103.00,0.63
7102.00,0.63
7101.00,0.63
7100.00,0.63
7099.00,0.62
7098.00,0.62
7097.00,0.62
7096.00,0.62
7095.00,0.61
7094.00,0.61
7093.00,0.61
7092.00,0.61
7091.00,0.61
7090.00,0.60
7089.00,0.60
7088.00,0.60
7087.00,0.60
7086.00,0.60
7085.00,0.60
7084.00,0.60
7083.00,0.59
7082.00,0.59
7081.00,0.59
7080.00,0.59
7079.00,0.59
7078.00,0.59
7077.00,0.59
7076.00,0.59
7075.00,0.58
7074.00,0.58
7073.00,0.58
7072.00,0.58
7071.00,0.58
7070.00,0.58
7069.00,0.58
7068.00,0.58
7067.00,0.57
7066.00,0.57
7065.00,0.57
7064.00,0.57
7063.00,0.57
7062.00,0.57
7061.00,0.57
7060.00,0.57
7059.00,0.57
7058.00,0.57
7057.00,0.57
7056.00,0.57
7055.00,0.56
7054.00,0.56
7053.00,0.56
7052.00,0.56
7051.00,0.56
7050.00,0.56
7049.00,0.56
7048.00,0.56
7047.00,0.56
7046.00,0.56
7045.00,0.56
7044.00,0.55
7043.00,0.55
7042.00,0.55
7041.00,0.55
7040.00,0.55
7039.00,0.55
7038.00,0.55
7037.00,0.55
7036.00,0.55
7035.00,0.55
7034.00,0.55
7033.00,0.55
7032.00,0.55
7031.00,0.55
7030.00,0.55
7029.00,0.55
7028.00,0.55
7027.00,0.55
7026.00,0.54
7025.00,0.54
7024.00,0.54
7023.00,0.54
7022.00,0.54
7021.00,0.54
7020.00,0.54
7019.00,0.54
7018.00,0.53
7017.00,0.53
7016.00,0.53
7015.00,0.53
7014.00,0.53
7013.00,0.53
7012.00,0.53
7011.00,0.53
7010.00,0.52
7009.00,0.52
7008.00,0.52
7007.00,0.52
7006.00,0.52
7005.00,0.52
7004.00,0.52
7003.00,0.52
7002.00,0.52
7001.00,0.52
7000.00,0.52
6999.00,0.52
6998.00,0.52
6997.00,0.52
6996.00,0.52
6995.00,0.52
6994.00,0.52
6993.00,0.52
6992.00,0.52
6991.00,0.52
6990.00,0.52
6989.00,0.52
6988.00,0.52
6987.00,0.52
6986.00,0.52
6985.00,0.52
6984.00,0.52
6983.00,0.51
6982.00,0.51
6981.00,0.51
6980.00,0.51
6979.00,0.51
6978.00,0.51
6977.00,0.51
6976.00,0.51
6975.00,0.51
6974.00,0.51
6973.00,0.51
6972.00,0.51
6971.00,0.51
6970.00,0.51
6969.00,0.51
6968.00,0.51
6967.00,0.51
6966.00,0.51
6965.00,0.51
6964.00,0.51
6963.00,0.51
6962.00,0.51
6961.00,0.51
6960.00,0.51
6959.00,0.51
6958.00,0.51
6957.00,0.51
6956.00,0.51
6955.00,0.51
6954.00,0.51
6953.00,0.51
6952.00,0.51
6951.00,0.51
6950.00,0.51
6949.00,0.51
6948.00,0.51
6947.00,0.51
6946.00,0.51
6945.00,0.51
6944.00,0.51
6943.00,0.51
6942.00,0.51
6941.00,0.51
6940.00,0.50
6939.00,0.50
6938.00,0.50
6937.00,0.50
6936.00,0.50
6935.00,0.50
6934.00,0.50
6933.00,0.50
6932.00,0.50
6931.00,0.50
6930.00,0.50
6929.00,0.50
6928.00,0.50
6927.00,0.50
6926.00,0.50
6925.00,0.50
6924.00,0.50
6923.00,0.51
6922.00,0.51
6921.00,0.51
6920.00,0.51
6919.00,0.51
6918.00,0.51
6917.00,0.51
6916.00,0.51
6915.00,0.51
6914.00,0.51
6913.00,0.51
6912.00,0.51
6911.00,0.50
6910.00,0.50
6909.00,0.50
6908.00,0.50
6907.00,0.50
6906.00,0.50
6905.00,0.50
6904.00,0.50
6903.00,0.50
6902.00,0.50
6901.00,0.50
6900.00,0.50
6899.00,0.51
6898.00,0.51
6897.00,0.51
6896.00,0.51
6895.00,0.51
6894.00,0.51
6893.00,0.51
6892.00,0.51
6891.00,0.51
6890.00,0.51
6889.00,0.51
6888.00,0.51
6887.00,0.51
6886.00,0.51
6885.00,0.51
6884.00,0.51
6883.00,0.51
6882.00,0.51
6881.00,0.51
6880.00,0.51
6879.00,0.50
6878.00,0.50
6877.00,0.50
6876.00,0.50
6875.00,0.50
6874.00,0.50
6873.00,0.50
6872.00,0.50
6871.00,0.50
6870.00,0.50
6869.00,0.50
6868.00,0.50
6867.00,0.50
6866.00,0.50
6865.00,0.50
6864.00,0.50
6863.00,0.50
6862.00,0.50
6861.00,0.50
6860.00,0.50
6859.00,0.50
6858.00,0.50
6857.00,0.51
6856.00,0.51
6855.00,0.51
6854.00,0.51
6853.00,0.51
6852.00,0.51
6851.00,0.51
6850.00,0.51
6849.00,0.51
6848.00,0.51
6847.00,0.51
6846.00,0.51
6845.00,0.51
6844.00,0.51
6843.00,0.51
6842.00,0.51
6841.00,0.51
6840.00,0.51
6839.00,0.51
6838.00,0.51
6837.00,0.51
6836.00,0.51
6835.00,0.51
6834.00,0.51
6833.00,0.51
6832.00,0.51
6831.00,0.51
6830.00,0.51
6829.00,0.51
6828.00,0.51
6827.00,0.51
6826.00,0.51
6825.00,0.51
6824.00,0.51
6823.00,0.51
6822.00,0.51
6821.00,0.51
6820.00,0.51
6819.00,0.51
6818.00,0.51
6817.00,0.51
6816.00,0.51
6815.00,0.51
6814.00,0.51
6813.00,0.51
6812.00,0.51
6811.00,0.51
6810.00,0.52
6809.00,0.52
6808.00,0.52
6807.00,0.52
6806.00,0.52
6805.00,0.52
6804.00,0.52
6803.00,0.52
6802.00,0.52
6801.00,0.52
6800.00,0.52
6799.00,0.52
6798.00,0.52
6797.00,0.52
6796.00,0.52
6795.00,0.52
6794.00,0.52
6793.00,0.52
6792.00,0.52
6791.00,0.52
6790.00,0.52
6789.00,0.52
6788.00,0.52
6787.00,0.52
6786.00,0.52
6785.00,0.52
6784.00,0.52
6783.00,0.52
6782.00,0.52
6781.00,0.52
6780.00,0.52
6779.00,0.52
6778.00,0.52
6777.00,0.52
6776.00,0.52
6775.00,0.52
6774.00,0.52
6773.00,0.52
6772.00,0.52
6771.00,0.52
6770.00,0.52
6769.00,0.52
6768.00,0.52
6767.00,0.52
6766.00,0.52
6765.00,0.52
6764.00,0.52
6763.00,0.53
6762.00,0.53
6761.00,0.53
6760.00,0.53
6759.00,0.53
6758.00,0.53
6757.00,0.53
6756.00,0.53
6755.00,0.53
6754.00,0.53
6753.00,0.53
6752.00,0.53
6751.00,0.53
6750.00,0.53
6749.00,0.53
6748.00,0.54
6747.00,0.54
6746.00,0.54
6745.00,0.54
6744.00,0.54
6743.00,0.54
6742.00,0.54
6741.00,0.54
6740.00,0.55
6739.00,0.55
6738.00,0.55
6737.00,0.55
6736.00,0.55
6735.00,0.55
6734.00,0.55
6733.00,0.55
6732.00,0.55
6731.00,0.55
6730.00,0.56
6729.00,0.56
6728.00,0.56
6727.00,0.56
6726.00,0.56
6725.00,0.56
6724.00,0.56
6723.00,0.56
6722.00,0.56
6721.00,0.56
6720.00,0.56
6719.00,0.56
6718.00,0.56
6717.00,0.56
6716.00,0.56
6715.00,0.56
6714.00,0.56
6713.00,0.56
6712.00,0.56
6711.00,0.56
6710.00,0.57
6709.00,0.57
6708.00,0.57
6707.00,0.57
6706.00,0.57
6705.00,0.57
6704.00,0.57
6703.00,0.57
6702.00,0.57
6701.00,0.57
6700.00,0.57
6699.00,0.57
6698.00,0.57
6697.00,0.57
6696.00,0.57
6695.00,0.57
6694.00,0.57
6693.00,0.58
6692.00,0.58
6691.00,0.58
6690.00,0.58
6689.00,0.58
6688.00,0.58
6687.00,0.58
6686.00,0.58
6685.00,0.58
6684.00,0.58
6683.00,0.58
6682.00,0.58
6681.00,0.58
6680.00,0.58
6679.00,0.58
6678.00,0.58
6677.00,0.59
6676.00,0.59
6675.00,0.59
6674.00,0.59
6673.00,0.59
6672.00,0.59
6671.00,0.59
6670.00,0.59
6669.00,0.59
6668.00,0.60
6667.00,0.60
6666.00,0.60
6665.00,0.60
6664.00,0.60
6663.00,0.60
6662.00,0.60
6661.00,0.60
6660.00,0.61
6659.00,0.61
6658.00,0.61
6657.00,0.61
6656.00,0.61
6655.00,0.61
6654.00,0.61
6653.00,0.61
6652.00,0.61
6651.00,0.61
6650.00,0.61
6649.00,0.61
6648.00,0.61
6647.00,0.61
6646.00,0.61
6645.00,0.61
6644.00,0.61
6643.00,0.61
6642.00,0.61
6641.00,0.61
6640.00,0.61
6639.00,0.62
6638.00,0.62
6637.00,0.62
6636.00,0.62
6635.00,0.62
6634.00,0.62
6633.00,0.62
6632.00,0.62
6631.00,0.62
6630.00,0.62
6629.00,0.62
6628.00,0.63
6627.00,0.63
6626.00,0.63
6625.00,0.63
6624.00,0.63
6623.00,0.63
6622.00,0.63
6621.00,0.63
6620.00,0.63
6619.00,0.63
6618.00,0.63
6617.00,0.63
6616.00,0.63
6615.00,0.63
6614.00,0.64
6613.00,0.64
6612.00,0.64
6611.00,0.64
6610.00,0.64
6609.00,0.64
6608.00,0.64
6607.00,0.64
6606.00,0.65
6605.00,0.65
6604.00,0.65
6603.00,0.65
6602.00,0.65
6601.00,0.65
6600.00,0.65
6599.00,0.65
6598.00,0.65
6597.00,0.65
6596.00,0.65
6595.00,0.65
6594.00,0.66
6593.00,0.66
6592.00,0.66
6591.00,0.66
6590.00,0.66
6589.00,0.66
6588.00,0.66
6587.00,0.67
6586.00,0.67
6585.00,0.67
6584.00,0.67
6583.00,0.67
6582.00,0.67
6581.00,0.67
6580.00,0.67
6579.00,0.68
6578.00,0.68
6577.00,0.68
6576.00,0.68
6575.00,0.68
6574.00,0.68
6573.00,0.68
6572.00,0.68
6571.00,0.68
6570.00,0.68
6569.00,0.68
6568.00,0.68
6567.00,0.68
6566.00,0.68
6565.00,0.68
6564.00,0.69
6563.00,0.69
6562.00,0.69
6561.00,0.69
6560.00,0.69
6559.00,0.69
6558.00,0.69
6557.00,0.69
6556.00,0.69
6555.00,0.70
6554.00,0.70
6553.00,0.70
6552.00,0.70
6551.00,0.70
6550.00,0.70
6549.00,0.70
6548.00,0.70
6547.00,0.70
6546.00,0.70
6545.00,0.70
6544.00,0.70
6543.00,0.71
6542.00,0.71
6541.00,0.71
6540.00,0.71
6539.00,0.71
6538.00,0.71
6537.00,0.71
6536.00,0.71
6535.00,0.71
6534.00,0.71
6533.00,0.71
6532.00,0.71
6531.00,0.71
6530.00,0.71
6529.00,0.71
6528.00,0.72
6527.00,0.72
6526.00,0.72
6525.00,0.72
6524.00,0.72
6523.00,0.72
6522.00,0.72
6521.00,0.72
6520.00,0.72
6519.00,0.72
6518.00,0.72
6517.00,0.72
6516.00,0.72
6515.00,0.72
6514.00,0.72
6513.00,0.72
6512.00,0.72
6511.00,0.72
6510.00,0.73
6509.00,0.73
6508.00,0.73
6507.00,0.73
6506.00,0.73
6505.00,0.73
6504.00,0.73
6503.00,0.73
6502.00,0.73
6501.00,0.73
6500.00,0.73
6499.00,0.74
6498.00,0.74
6497.00,0.74
6496.00,0.74
6495.00,0.74
6494.00,0.74
6493.00,0.74
6492.00,0.74
6491.00,0.74
6490.00,0.74
6489.00,0.74
6488.00,0.74
6487.00,0.75
6486.00,0.75
6485.00,0.75
6484.00,0.75
6483.00,0.75
6482.00,0.75
6481.00,0.75
6480.00,0.75
6479.00,0.75
6478.00,0.75
6477.00,0.75
6476.00,0.75
6475.00,0.75
6474.00,0.75
6473.00,0.75
6472.00,0.75
6471.00,0.75
6470.00,0.75
6469.00,0.75
6468.00,0.75
6467.00,0.75
6466.00,0.75
6465.00,0.75
6464.00,0.75
6463.00,0.76
6462.00,0.76
6461.00,0.76
6460.00,0.76
6459.00,0.76
6458.00,0.76
6457.00,0.76
6456.00,0.76
6455.00,0.76
6454.00,0.76
6453.00,0.76
6452.00,0.76
6451.00,0.77
6450.00,0.77
6449.00,0.77
6448.00,0.77
6447.00,0.77
6446.00,0.77
6445.00,0.77
6444.00,0.77
6443.00,0.77
6442.00,0.77
6441.00,0.77
6440.00,0.77
6439.00,0.77
6438.00,0.77
6437.00,0.78
6436.00,0.78
6435.00,0.78
6434.00,0.78
6433.00,0.78
6432.00,0.78
6431.00,0.78
6430.00,0.78
6429.00,0.78
6428.00,0.78
6427.00,0.78
6426.00,0.78
6425.00,0.78
6424.00,0.78
6423.00,0.78
6422.00,0.78
6421.00,0.78
6420.00,0.78
6419.00,0.78
6418.00,0.78
6417.00,0.79
6416.00,0.79
6415.00,0.79
6414.00,0.79
6413.00,0.79
6412.00,0.79
6411.00,0.79
6410.00,0.79
6409.00,0.79
6408.00,0.79
6407.00,0.79
6406.00,0.79
6405.00,0.79
6404.00,0.79
6403.00,0.79
6402.00,0.79
6401.00,0.79
6400.00,0.79
6399.00,0.80
6398.00,0.80
6397.00,0.80
6396.00,0.80
6395.00,0.80
6394.00,0.80
6393.00,0.80
6392.00,0.80
6391.00,0.80
6390.00,0.80
6389.00,0.80
6388.00,0.80
6387.00,0.80
6386.00,0.81
6385.00,0.81
6384.00,0.81
6383.00,0.81
6382.00,0.81
6381.00,0.81
6380.00,0.81
6379.00,0.81
6378.00,0.81
6377.00,0.81
6376.00,0.81
6375.00,0.81
6374.00,0.81
6373.00,0.81
6372.00,0.81
6371.00,0.81
6370.00,0.81
6369.00,0.81
6368.00,0.82
6367.00,0.82
6366.00,0.82
6365.00,0.82
6364.00,0.82
6363.00,0.82
6362.00,0.82
6361.00,0.82
6360.00,0.82
6359.00,0.82
6358.00,0.82
6357.00,0.82
6356.00,0.82
6355.00,0.82
6354.00,0.82
6353.00,0.83
6352.00,0.83
6351.00,0.83
6350.00,0.83
6349.00,0.83
6348.00,0.83
6347.00,0.83
6346.00,0.83
6345.00,0.84
6344.00,0.84
6343.00,0.84
6342.00,0.84
6341.00,0.84
6340.00,0.84
6339.00,0.84
6338.00,0.84
6337.00,0.84
6336.00,0.84
6335.00,0.84
6334.00,0.84
6333.00,0.84
6332.00,0.84
6331.00,0.84
6330.00,0.84
6329.00,0.84
6328.00,0.85
6327.00,0.85
6326.00,0.85
6325.00,0.85
6324.00,0.85
6323.00,0.85
6322.00,0.85
6321.00,0.85
6320.00,0.86
6319.00,0.86
6318.00,0.86
6317.00,0.86
6316.00,0.86
6315.00,0.86
6314.00,0.86
6313.00,0.86
6312.00,0.87
6311.00,0.87
6310.00,0.87
6309.00,0.87
6308.00,0.87
6307.00,0.87
6306.00,0.87
6305.00,0.87
6304.00,0.87
6303.00,0.87
6302.00,0.87
6301.00,0.88
6300.00,0.88
6299.00,0.88
6298.00,0.88
6297.00,0.88
6296.00,0.88
6295.00,0.88
6294.00,0.88
6293.00,0.88
6292.00,0.88
6291.00,0.88
6290.00,0.88
6289.00,0.89
6288.00,0.89
6287.00,0.89
6286.00,0.89
6285.00,0.89
6284.00,0.89
6283.00,0.89
6282.00,0.89
6281.00,0.89
6280.00,0.89
6279.00,0.89
6278.00,0.89
6277.00,0.90
6276.00,0.90
6275.00,0.90
6274.00,0.90
6273.00,0.90
6272.00,0.90
6271.00,0.90
6270.00,0.90
6269.00,0.90
6268.00,0.91
6267.00,0.91
6266.00,0.91
6265.00,0.91
6264.00,0.91
6263.00,0.91
6262.00,0.91
6261.00,0.91
6260.00,0.92
6259.00,0.92
6258.00,0.92
6257.00,0.92
6256.00,0.92
6255.00,0.92
6254.00,0.92
6253.00,0.92
6252.00,0.93
6251.00,0.93
6250.00,0.93
6249.00,0.93
6248.00,0.93
6247.00,0.93
6246.00,0.93
6245.00,0.93
6244.00,0.93
6243.00,0.94
6242.00,0.94
6241.00,0.94
6240.00,0.94
6239.00,0.94
6238.00,0.94
6237.00,0.94
6236.00,0.94
6235.00,0.94
6234.00,0.94
6233.00,0.94
6232.00,0.95
6231.00,0.95
6230.00,0.95
6229.00,0.95
6228.00,0.95
6227.00,0.95
6226.00,0.95
6225.00,0.95
6224.00,0.95
6223.00,0.95
6222.00,0.95
6221.00,0.95
6220.00,0.95
6219.00,0.95
6218.00,0.95
6217.00,0.95
6216.00,0.96
6215.00,0.96
6214.00,0.96
6213.00,0.96
6212.00,0.96
6211.00,0.96
6210.00,0.96
6209.00,0.96
6208.00,0.96
6207.00,0.96
6206.00,0.97
6205.00,0.97
6204.00,0.97
6203.00,0.97
6202.00,0.97
6201.00,0.97
6200.00,0.97
6199.00,0.97
6198.00,0.97
6197.00,0.98
6196.00,0.98
6195.00,0.98
6194.00,0.98
6193.00,0.98
6192.00,0.98
6191.00,0.98
6190.00,0.98
6189.00,0.98
6188.00,0.99
6187.00,0.99
6186.00,0.99
6185.00,0.99
6184.00,0.99
6183.00,0.99
6182.00,0.99
6181.00,0.99
6180.00,1.00
6179.00,1.00
6178.00,1.00
6177.00,1.00
6176.00,1.00
6175.00,1.00
6174.00,1.00
6173.00,1.00
6172.00,1.01
6171.00,1.01
6170.00,1.01
6169.00,1.01
6168.00,1.01
6167.00,1.01
6166.00,1.01
6165.00,1.02
6164.00,1.02
6163.00,1.02
6162.00,1.02
6161.00,1.02
6160.00,1.02
6159.00,1.02
6158.00,1.02
6157.00,1.03
6156.00,1.03
6155.00,1.03
6154.00,1.03
6153.00,1.03
6152.00,1.03
6151.00,1.03
6150.00,1.04
6149.00,1.04
6148.00,1.04
6147.00,1.04
6146.00,1.04
6145.00,1.04
6144.00,1.05
6143.00,1.05
6142.00,1.05
6141.00,1.05
6140.00,1.05
6139.00,1.05
6138.00,1.05
6137.00,1.05
6136.00,1.06
6135.00,1.06
6134.00,1.06
6133.00,1.06
6132.00,1.06
6131.00,1.06
6130.00,1.06
6129.00,1.06
6128.00,1.06
6127.00,1.07
6126.00,1.07
6125.00,1.07
6124.00,1.07
6123.00,1.07
6122.00,1.07
6121.00,1.07
6120.00,1.08
6119.00,1.08
6118.00,1.08
6117.00,1.08
6116.00,1.08
6115.00,1.08
6114.00,1.08
6113.00,1.08
6112.00,1.08
6111.00,1.09
6110.00,1.09
6109.00,1.09
6108.00,1.09
6107.00,1.09
6106.00,1.09
6105.00,1.09
6104.00,1.09
6103.00,1.09
6102.00,1.09
6101.00,1.10
6100.00,1.10
6099.00,1.10
6098.00,1.10
6097.00,1.10
6096.00,1.10
6095.00,1.10
6094.00,1.10
6093.00,1.10
6092.00,1.10
6091.00,1.10
6090.00,1.11
6089.00,1.11
6088.00,1.11
6087.00,1.11
6086.00,1.11
6085.00,1.11
6084.00,1.11
6083.00,1.11
6082.00,1.11
6081.00,1.12
6080.00,1.12
6079.00,1.12
6078.00,1.12
6077.00,1.12
6076.00,1.12
6075.00,1.12
6074.00,1.12
6073.00,1.12
6072.00,1.13
6071.00,1.13
6070.00,1.13
6069.00,1.13
6068.00,1.13
6067.00,1.13
6066.00,1.13
6065.00,1.13
6064.00,1.13
6063.00,1.13
6062.00,1.13
6061.00,1.13
6060.00,1.13
6059.00,1.13
6058.00,1.13
6057.00,1.13
6056.00,1.14
6055.00,1.14
6054.00,1.14
6053.00,1.14
6052.00,1.14
6051.00,1.14
6050.00,1.14
6049.00,1.14
6048.00,1.15
6047.00,1.15
6046.00,1.15
6045.00,1.15
6044.00,1.15
6043.00,1.15
6042.00,1.15
6041.00,1.15
6040.00,1.15
6039.00,1.15
6038.00,1.15
6037.00,1.15
6036.00,1.15
6035.00,1.15
6034.00,1.15
6033.00,1.15
6032.00,1.15
6031.00,1.16
6030.00,1.16
6029.00,1.16
6028.00,1.16
6027.00,1.16
6026.00,1.16
6025.00,1.16
6024.00,1.16
6023.00,1.16
6022.00,1.16
6021.00,1.16
6020.00,1.16
6019.00,1.16
6018.00,1.16
6017.00,1.16
6016.00,1.16
6015.00,1.16
6014.00,1.16
6013.00,1.16
6012.00,1.16
6011.00,1.16
6010.00,1.16
6009.00,1.16
6008.00,1.16
6007.00,1.16
6006.00,1.16
6005.00,1.16
6004.00,1.16
6003.00,1.15
6002.00,1.15
6001.00,1.15
6000.00,1.15
5999.00,1.15
5998.00,1.15
5997.00,1.15
5996.00,1.15
5995.00,1.15
5994.00,1.15
5993.00,1.15
5992.00,1.15
5991.00,1.15
5990.00,1.15
5989.00,1.15
5988.00,1.15
5987.00,1.15
5986.00,1.14
5985.00,1.14
5984.00,1.14
5983.00,1.14
5982.00,1.14
5981.00,1.13
5980.00,1.13
5979.00,1.13
5978.00,1.12
5977.00,1.12
5976.00,1.12
5975.00,1.11
5974.00,1.11
5973.00,1.10
5972.00,1.10
5971.00,1.09
5970.00,1.09
5969.00,1.08
5968.00,1.08
5967.00,1.07
5966.00,1.07
5965.00,1.06
5964.00,1.06
5963.00,1.05
5962.00,1.05
5961.00,1.04
5960.00,1.04
5959.00,1.03
5958.00,1.03
5957.00,1.02
5956.00,1.02
5955.00,1.01
5954.00,1.01
5953.00,1.00
5952.00,1.00
5951.00,1.00
5950.00,0.99
5949.00,0.99
5948.00,0.99
5947.00,0.98
5946.00,0.98
5945.00,0.98
5944.00,0.98
5943.00,0.98
5942.00,0.97
5941.00,0.97
5940.00,0.97
5939.00,0.97
5938.00,0.97
5937.00,0.97
5936.00,0.97
5935.00,0.97
5934.00,0.97
5933.00,0.97
5932.00,0.96
5931.00,0.96
5930.00,0.96
5929.00,0.96
5928.00,0.96
5927.00,0.96
5926.00,0.96
5925.00,0.96
5924.00,0.95
5923.00,0.95
5922.00,0.95
5921.00,0.95
5920.00,0.95
5919.00,0.94
5918.00,0.94
5917.00,0.94
5916.00,0.94
5915.00,0.94
5914.00,0.93
5913.00,0.93
5912.00,0.93
5911.00,0.93
5910.00,0.93
5909.00,0.93
5908.00,0.92
5907.00,0.92
5906.00,0.92
5905.00,0.92
5904.00,0.92
5903.00,0.92
5902.00,0.92
5901.00,0.92
5900.00,0.92
5899.00,0.92
5898.00,0.92
5897.00,0.92
5896.00,0.92
5895.00,0.93
5894.00,0.93
5893.00,0.93
5892.00,0.93
5891.00,0.93
5890.00,0.93
5889.00,0.94
5888.00,0.94
5887.00,0.94
5886.00,0.94
5885.00,0.95
5884.00,0.95
5883.00,0.95
5882.00,0.95
5881.00,0.96
5880.00,0.96
5879.00,0.96
5878.00,0.96
5877.00,0.96
5876.00,0.97
5875.00,0.97
5874.00,0.97
5873.00,0.97
5872.00,0.97
5871.00,0.98
5870.00,0.98
5869.00,0.98
5868.00,0.98
5867.00,0.98
5866.00,0.98
5865.00,0.98
5864.00,0.99
5863.00,0.99
5862.00,0.99
5861.00,0.99
5860.00,0.99
5859.00,0.99
5858.00,0.99
5857.00,0.99
5856.00,0.99
5855.00,1.00
5854.00,1.00
5853.00,1.00
5852.00,1.00
5851.00,1.00
5850.00,1.00
5849.00,1.00
5848.00,1.00
5847.00,1.00
5846.00,1.00
5845.00,1.00
5844.00,1.00
5843.00,1.00
5842.00,1.00
5841.00,1.00
5840.00,1.00
5839.00,1.00
5838.00,1.00
5837.00,1.00
5836.00,1.00
5835.00,1.00
5834.00,1.00
5833.00,1.00
5832.00,1.00
5831.00,1.00
5830.00,1.00
5829.00,1.00
5828.00,1.00
5827.00,1.00
5826.00,1.00
5825.00,1.00
5824.00,1.00
5823.00,1.00
5822.00,1.00
5821.00,1.00
5820.00,1.00
5819.00,1.00
5818.00,1.00
5817.00,1.00
5816.00,1.00
5815.00,1.00
5814.00,1.00
5813.00,1.00
5812.00,1.00
5811.00,1.00
5810.00,1.00
5809.00,1.00
5808.00,1.00
5807.00,1.00
5806.00,1.00
5805.00,1.00
5804.00,1.00
5803.00,1.00
5802.00,1.00
5801.00,1.00
5800.00,1.00
5799.00,0.99
5798.00,0.99
5797.00,0.99
5796.00,0.99
5795.00,0.99
5794.00,0.99
5793.00,0.99
5792.00,0.98
5791.00,0.98
5790.00,0.98
5789.00,0.98
5788.00,0.98
5787.00,0.97
5786.00,0.97
5785.00,0.97
5784.00,0.97
5783.00,0.97
5782.00,0.97
5781.00,0.96
5780.00,0.96
5779.00,0.96
5778.00,0.96
5777.00,0.96
5776.00,0.96
5775.00,0.96
5774.00,0.96
5773.00,0.96
5772.00,0.96
5771.00,0.96
5770.00,0.96
5769.00,0.96
5768.00,0.96
5767.00,0.96
5766.00,0.96
5765.00,0.97
5764.00,0.97
5763.00,0.97
5762.00,0.97
5761.00,0.97
5760.00,0.97
5759.00,0.98
5758.00,0.98
5757.00,0.98
5756.00,0.98
5755.00,0.98
5754.00,0.99
5753.00,0.99
5752.00,0.99
5751.00,1.00
5750.00,1.00
5749.00,1.00
5748.00,1.00
5747.00,1.01
5746.00,1.01
5745.00,1.01
5744.00,1.01
5743.00,1.02
5742.00,1.02
5741.00,1.02
5740.00,1.02
5739.00,1.03
5738.00,1.03
5737.00,1.03
5736.00,1.03
5735.00,1.03
5734.00,1.03
5733.00,1.03
5732.00,1.04
5731.00,1.04
5730.00,1.04
5729.00,1.04
5728.00,1.04
5727.00,1.04
5726.00,1.04
5725.00,1.04
5724.00,1.04
5723.00,1.04
5722.00,1.04
5721.00,1.04
5720.00,1.04
5719.00,1.04
5718.00,1.04
5717.00,1.04
5716.00,1.03
5715.00,1.03
5714.00,1.03
5713.00,1.03
5712.00,1.03
5711.00,1.03
5710.00,1.03
5709.00,1.03
5708.00,1.03
5707.00,1.03
5706.00,1.02
5705.00,1.02
5704.00,1.02
5703.00,1.02
5702.00,1.02
5701.00,1.02
5700.00,1.02
5699.00,1.02
5698.00,1.02
5697.00,1.02
5696.00,1.02
5695.00,1.01
5694.00,1.01
5693.00,1.01
5692.00,1.01
5691.00,1.01
5690.00,1.01
5689.00,1.01
5688.00,1.01
5687.00,1.01
5686.00,1.01
5685.00,1.01
5684.00,1.01
5683.00,1.00
5682.00,1.00
5681.00,1.00
5680.00,1.00
5679.00,1.00
5678.00,1.00
5677.00,1.00
5676.00,1.00
5675.00,1.00
5674.00,1.00
5673.00,1.00
5672.00,1.00
5671.00,1.00
5670.00,1.00
5669.00,1.00
5668.00,1.00
5667.00,1.00
5666.00,1.01
5665.00,1.01
5664.00,1.01
5663.00,1.01
5662.00,1.01
5661.00,1.01
5660.00,1.01
5659.00,1.01
5658.00,1.01
5657.00,1.01
5656.00,1.01
5655.00,1.01
5654.00,1.01
5653.00,1.01
5652.00,1.01
5651.00,1.01
5650.00,1.02
5649.00,1.02
5648.00,1.02
5647.00,1.02
5646.00,1.02
5645.00,1.02
5644.00,1.02
5643.00,1.02
5642.00,1.02
5641.00,1.03
5640.00,1.03
5639.00,1.03
5638.00,1.03
5637.00,1.03
5636.00,1.03
5635.00,1.03
5634.00,1.04
5633.00,1.04
5632.00,1.04
5631.00,1.04
5630.00,1.04
5629.00,1.04
5628.00,1.04
5627.00,1.05
5626.00,1.05
5625.00,1.05
5624.00,1.05
5623.00,1.05
5622.00,1.05
5621.00,1.05
5620.00,1.05
5619.00,1.06
5618.00,1.06
5617.00,1.06
5616.00,1.06
5615.00,1.06
5614.00,1.06
5613.00,1.06
5612.00,1.06
5611.00,1.06
5610.00,1.07
5609.00,1.07
5608.00,1.07
5607.00,1.07
5606.00,1.07
5605.00,1.07
5604.00,1.07
5603.00,1.08
5602.00,1.08
5601.00,1.08
5600.00,1.08
5599.00,1.08
5598.00,1.08
5597.00,1.08
5596.00,1.08
5595.00,1.09
5594.00,1.09
5593.00,1.09
5592.00,1.09
5591.00,1.09
5590.00,1.09
5589.00,1.09
5588.00,1.09
5587.00,1.09
5586.00,1.09
5585.00,1.10
5584.00,1.10
5583.00,1.10
5582.00,1.10
5581.00,1.10
5580.00,1.10
5579.00,1.10
5578.00,1.10
5577.00,1.10
5576.00,1.11
5575.00,1.11
5574.00,1.11
5573.00,1.11
5572.00,1.11
5571.00,1.11
5570.00,1.11
5569.00,1.12
5568.00,1.12
5567.00,1.12
5566.00,1.12
5565.00,1.12
5564.00,1.12
5563.00,1.12
5562.00,1.13
5561.00,1.13
5560.00,1.13
5559.00,1.13
5558.00,1.13
5557.00,1.13
5556.00,1.13
5555.00,1.13
5554.00,1.13
5553.00,1.14
5552.00,1.14
5551.00,1.14
5550.00,1.14
5549.00,1.14
5548.00,1.14
5547.00,1.14
5546.00,1.14
5545.00,1.14
5544.00,1.14
5543.00,1.14
5542.00,1.14
5541.00,1.15
5540.00,1.15
5539.00,1.15
5538.00,1.15
5537.00,1.15
5536.00,1.15
5535.00,1.15
5534.00,1.15
5533.00,1.15
5532.00,1.15
5531.00,1.16
5530.00,1.16
5529.00,1.16
5528.00,1.16
5527.00,1.16
5526.00,1.16
5525.00,1.16
5524.00,1.16
5523.00,1.16
5522.00,1.16
5521.00,1.16
5520.00,1.16
5519.00,1.16
5518.00,1.16
5517.00,1.16
5516.00,1.16
5515.00,1.16
5514.00,1.16
5513.00,1.16
5512.00,1.16
5511.00,1.16
5510.00,1.17
5509.00,1.17
5508.00,1.17
5507.00,1.17
5506.00,1.17
5505.00,1.17
5504.00,1.17
5503.00,1.17
5502.00,1.17
5501.00,1.17
5500.00,1.17
5499.00,1.17
5498.00,1.17
5497.00,1.17
5496.00,1.17
5495.00,1.17
5494.00,1.17
5493.00,1.17
5492.00,1.18
5491.00,1.18
5490.00,1.18
5489.00,1.18
5488.00,1.18
5487.00,1.18
5486.00,1.18
5485.00,1.18
5484.00,1.18
5483.00,1.19
5482.00,1.19
5481.00,1.19
5480.00,1.19
5479.00,1.19
5478.00,1.19
5477.00,1.19
5476.00,1.19
5475.00,1.19
5474.00,1.19
5473.00,1.20
5472.00,1.20
5471.00,1.20
5470.00,1.20
5469.00,1.20
5468.00,1.20
5467.00,1.20
5466.00,1.20
5465.00,1.20
5464.00,1.20
5463.00,1.20
5462.00,1.20
5461.00,1.20
5460.00,1.20
5459.00,1.20
5458.00,1.20
5457.00,1.20
5456.00,1.20
5455.00,1.20
5454.00,1.20
5453.00,1.20
5452.00,1.20
5451.00,1.20
5450.00,1.20
5449.00,1.21
5448.00,1.21
5447.00,1.21
5446.00,1.21
5445.00,1.21
5444.00,1.21
5443.00,1.21
5442.00,1.21
5441.00,1.21
5440.00,1.21
5439.00,1.21
5438.00,1.21
5437.00,1.21
5436.00,1.21
5435.00,1.21
5434.00,1.21
5433.00,1.21
5432.00,1.21
5431.00,1.21
5430.00,1.21
5429.00,1.21
5428.00,1.21
5427.00,1.21
5426.00,1.21
5425.00,1.21
5424.00,1.21
5423.00,1.21
5422.00,1.21
5421.00,1.21
5420.00,1.21
5419.00,1.21
5418.00,1.21
5417.00,1.21
5416.00,1.21
5415.00,1.21
5414.00,1.21
5413.00,1.21
5412.00,1.21
5411.00,1.21
5410.00,1.21
5409.00,1.20
5408.00,1.20
5407.00,1.20
5406.00,1.20
5405.00,1.20
5404.00,1.20
5403.00,1.20
5402.00,1.20
5401.00,1.20
5400.00,1.20
5399.00,1.20
5398.00,1.20
5397.00,1.19
5396.00,1.19
5395.00,1.19
5394.00,1.19
5393.00,1.19
5392.00,1.18
5391.00,1.18
5390.00,1.18
5389.00,1.18
5388.00,1.17
5387.00,1.17
5386.00,1.17
5385.00,1.17
5384.00,1.16
5383.00,1.16
5382.00,1.16
5381.00,1.16
5380.00,1.15
5379.00,1.15
5378.00,1.15
5377.00,1.14
5376.00,1.14
5375.00,1.14
5374.00,1.13
5373.00,1.13
5372.00,1.13
5371.00,1.12
5370.00,1.12
5369.00,1.11
5368.00,1.11
5367.00,1.11
5366.00,1.10
5365.00,1.10
5364.00,1.09
5363.00,1.09
5362.00,1.08
5361.00,1.07
5360.00,1.07
5359.00,1.06
5358.00,1.05
5357.00,1.05
5356.00,1.04
5355.00,1.03
5354.00,1.03
5353.00,1.02
5352.00,1.01
5351.00,1.00
5350.00,1.00
5349.00,0.99
5348.00,0.98
5347.00,0.97
5346.00,0.96
5345.00,0.96
5344.00,0.95
5343.00,0.94
5342.00,0.93
5341.00,0.92
5340.00,0.92
5339.00,0.91
5338.00,0.90
5337.00,0.89
5336.00,0.88
5335.00,0.88
5334.00,0.87
5333.00,0.86
5332.00,0.85
5331.00,0.85
5330.00,0.84
5329.00,0.83
5328.00,0.82
5327.00,0.82
5326.00,0.81
5325.00,0.80
5324.00,0.79
5323.00,0.79
5322.00,0.78
5321.00,0.77
5320.00,0.77
5319.00,0.76
5318.00,0.75
5317.00,0.74
5316.00,0.74
5315.00,0.73
5314.00,0.72
5313.00,0.72
5312.00,0.71
5311.00,0.70
5310.00,0.70
5309.00,0.69
5308.00,0.69
5307.00,0.68
5306.00,0.68
5305.00,0.67
5304.00,0.67
5303.00,0.66
5302.00,0.66
5301.00,0.66
5300.00,0.65
5299.00,0.65
5298.00,0.65
5297.00,0.64
5296.00,0.64
5295.00,0.64
5294.00,0.63
5293.00,0.63
5292.00,0.63
5291.00,0.63
5290.00,0.63
5289.00,0.62
5288.00,0.62
5287.00,0.62
5286.00,0.62
5285.00,0.62
5284.00,0.61
5283.00,0.61
5282.00,0.61
5281.00,0.61
5280.00,0.61
5279.00,0.61
5278.00,0.61
5277.00,0.61
5276.00,0.61
5275.00,0.61
5274.00,0.61
5273.00,0.61
5272.00,0.61
5271.00,0.61
5270.00,0.61
5269.00,0.61
5268.00,0.61
5267.00,0.61
5266.00,0.61
5265.00,0.61
5264.00,0.61
5263.00,0.61
5262.00,0.61
5261.00,0.61
5260.00,0.61
5259.00,0.61
5258.00,0.61
5257.00,0.61
5256.00,0.61
5255.00,0.61
5254.00,0.61
5253.00,0.60
5252.00,0.60
5251.00,0.60
5250.00,0.60
5249.00,0.60
5248.00,0.60
5247.00,0.60
5246.00,0.60
5245.00,0.60
5244.00,0.60
5243.00,0.60
5242.00,0.60
5241.00,0.60
5240.00,0.60
5239.00,0.60
5238.00,0.60
5237.00,0.60
5236.00,0.60
5235.00,0.60
5234.00,0.60
5233.00,0.60
5232.00,0.60
5231.00,0.60
5230.00,0.61
5229.00,0.61
5228.00,0.61
5227.00,0.61
5226.00,0.61
5225.00,0.61
5224.00,0.61
5223.00,0.61
5222.00,0.61
5221.00,0.61
5220.00,0.61
5219.00,0.61
5218.00,0.61
5217.00,0.61
5216.00,0.62
5215.00,0.62
5214.00,0.62
5213.00,0.62
5212.00,0.62
5211.00,0.62
5210.00,0.62
5209.00,0.62
5208.00,0.62
5207.00,0.62
5206.00,0.62
5205.00,0.62
5204.00,0.62
5203.00,0.62
5202.00,0.62
5201.00,0.62
5200.00,0.62
5199.00,0.62
5198.00,0.62
5197.00,0.62
5196.00,0.62
5195.00,0.62
5194.00,0.62
5193.00,0.62
5192.00,0.62
5191.00,0.62
5190.00,0.62
5189.00,0.62
5188.00,0.62
5187.00,0.62
5186.00,0.62
5185.00,0.62
5184.00,0.62
5183.00,0.62
5182.00,0.62
5181.00,0.62
5180.00,0.62
5179.00,0.63
5178.00,0.63
5177.00,0.63
5176.00,0.63
5175.00,0.63
5174.00,0.63
5173.00,0.63
5172.00,0.63
5171.00,0.63
5170.00,0.63
5169.00,0.63
5168.00,0.63
5167.00,0.63
5166.00,0.63
5165.00,0.63
5164.00,0.63
5163.00,0.63
5162.00,0.63
5161.00,0.63
5160.00,0.63
5159.00,0.63
5158.00,0.63
5157.00,0.63
5156.00,0.63
5155.00,0.63
5154.00,0.63
5153.00,0.63
5152.00,0.63
5151.00,0.63
5150.00,0.63
5149.00,0.63
5148.00,0.63
5147.00,0.64
5146.00,0.64
5145.00,0.64
5144.00,0.64
5143.00,0.64
5142.00,0.64
5141.00,0.64
5140.00,0.64
5139.00,0.64
5138.00,0.64
5137.00,0.64
5136.00,0.64
5135.00,0.64
5134.00,0.64
5133.00,0.64
5132.00,0.64
5131.00,0.64
5130.00,0.64
5129.00,0.64
5128.00,0.64
5127.00,0.65
5126.00,0.65
5125.00,0.65
5124.00,0.65
5123.00,0.65
5122.00,0.65
5121.00,0.65
5120.00,0.65
5119.00,0.65
5118.00,0.65
5117.00,0.65
5116.00,0.65
5115.00,0.65
5114.00,0.65
5113.00,0.65
5112.00,0.65
5111.00,0.65
5110.00,0.65
5109.00,0.65
5108.00,0.65
5107.00,0.65
5106.00,0.65
5105.00,0.65
5104.00,0.66
5103.00,0.66
5102.00,0.66
5101.00,0.66
5100.00,0.66
5099.00,0.66
5098.00,0.66
5097.00,0.66
5096.00,0.66
5095.00,0.66
5094.00,0.66
5093.00,0.66
5092.00,0.66
5091.00,0.66
5090.00,0.66
5089.00,0.66
5088.00,0.66
5087.00,0.66
5086.00,0.66
5085.00,0.66
5084.00,0.67
5083.00,0.67
5082.00,0.67
5081.00,0.67
5080.00,0.67
5079.00,0.67
5078.00,0.67
5077.00,0.67
5076.00,0.67
5075.00,0.67
5074.00,0.67
5073.00,0.67
5072.00,0.67
5071.00,0.67
5070.00,0.67
5069.00,0.67
5068.00,0.67
5067.00,0.67
5066.00,0.67
5065.00,0.68
5064.00,0.68
5063.00,0.68
5062.00,0.68
5061.00,0.68
5060.00,0.68
5059.00,0.68
5058.00,0.68
5057.00,0.68
5056.00,0.68
5055.00,0.68
5054.00,0.68
5053.00,0.68
5052.00,0.68
5051.00,0.68
5050.00,0.68
5049.00,0.68
5048.00,0.68
5047.00,0.68
5046.00,0.68
5045.00,0.68
5044.00,0.68
5043.00,0.68
5042.00,0.68
5041.00,0.68
5040.00,0.68
5039.00,0.69
5038.00,0.69
5037.00,0.69
5036.00,0.69
5035.00,0.69
5034.00,0.69
5033.00,0.69
5032.00,0.69
5031.00,0.69
5030.00,0.69
5029.00,0.69
5028.00,0.69
5027.00,0.69
5026.00,0.69
5025.00,0.69
5024.00,0.69
5023.00,0.69
5022.00,0.69
5021.00,0.69
5020.00,0.69
5019.00,0.70
5018.00,0.70
5017.00,0.70
5016.00,0.70
5015.00,0.70
5014.00,0.70
5013.00,0.70
5012.00,0.70
5011.00,0.70
5010.00,0.70
5009.00,0.70
5008.00,0.71
5007.00,0.71
5006.00,0.71
5005.00,0.71
5004.00,0.71
5003.00,0.71
5002.00,0.71
5001.00,0.71
5000.00,0.71
4999.00,0.71
4998.00,0.71
4997.00,0.71
4996.00,0.72
4995.00,0.72
4994.00,0.72
4993.00,0.72
4992.00,0.72
4991.00,0.72
4990.00,0.72
4989.00,0.72
4988.00,0.72
4987.00,0.72
4986.00,0.72
4985.00,0.72
4984.00,0.72
4983.00,0.72
4982.00,0.72
4981.00,0.72
4980.00,0.72
4979.00,0.72
4978.00,0.72
4977.00,0.72
4976.00,0.72
4975.00,0.72
4974.00,0.72
4973.00,0.72
4972.00,0.72
4971.00,0.73
4970.00,0.73
4969.00,0.73
4968.00,0.73
4967.00,0.73
4966.00,0.73
4965.00,0.73
4964.00,0.73
4963.00,0.73
4962.00,0.73
4961.00,0.73
4960.00,0.73
4959.00,0.73
4958.00,0.73
4957.00,0.73
4956.00,0.73
4955.00,0.73
4954.00,0.74
4953.00,0.74
4952.00,0.74
4951.00,0.74
4950.00,0.74
4949.00,0.74
4948.00,0.74
4947.00,0.74
4946.00,0.74
4945.00,0.74
4944.00,0.75
4943.00,0.75
4942.00,0.75
4941.00,0.75
4940.00,0.75
4939.00,0.75
4938.00,0.75
4937.00,0.75
4936.00,0.76
4935.00,0.76
4934.00,0.76
4933.00,0.76
4932.00,0.76
4931.00,0.76
4930.00,0.76
4929.00,0.76
4928.00,0.76
4927.00,0.76
4926.00,0.76
4925.00,0.76
4924.00,0.76
4923.00,0.76
4922.00,0.76
4921.00,0.76
4920.00,0.76
4919.00,0.76
4918.00,0.76
4917.00,0.76
4916.00,0.76
4915.00,0.76
4914.00,0.76
4913.00,0.76
4912.00,0.76
4911.00,0.76
4910.00,0.76
4909.00,0.76
4908.00,0.76
4907.00,0.76
4906.00,0.76
4905.00,0.76
4904.00,0.76
4903.00,0.76
4902.00,0.77
4901.00,0.77
4900.00,0.77
4899.00,0.77
4898.00,0.77
4897.00,0.77
4896.00,0.77
4895.00,0.77
4894.00,0.77
4893.00,0.77
4892.00,0.77
4891.00,0.78
4890.00,0.78
4889.00,0.78
4888.00,0.78
4887.00,0.78
4886.00,0.78
4885.00,0.78
4884.00,0.78
4883.00,0.79
4882.00,0.79
4881.00,0.79
4880.00,0.79
4879.00,0.79
4878.00,0.79
4877.00,0.79
4876.00,0.79
4875.00,0.79
4874.00,0.79
4873.00,0.79
4872.00,0.79
4871.00,0.79
4870.00,0.79
4869.00,0.79
4868.00,0.80
4867.00,0.80
4866.00,0.80
4865.00,0.80
4864.00,0.80
4863.00,0.80
4862.00,0.80
4861.00,0.80
4860.00,0.80
4859.00,0.80
4858.00,0.80
4857.00,0.80
4856.00,0.80
4855.00,0.80
4854.00,0.80
4853.00,0.80
4852.00,0.80
4851.00,0.80
4850.00,0.80
4849.00,0.80
4848.00,0.80
4847.00,0.80
4846.00,0.80
4845.00,0.80
4844.00,0.80
4843.00,0.80
4842.00,0.80
4841.00,0.81
4840.00,0.81
4839.00,0.81
4838.00,0.81
4837.00,0.81
4836.00,0.81
4835.00,0.81
4834.00,0.81
4833.00,0.81
4832.00,0.81
4831.00,0.81
4830.00,0.82
4829.00,0.82
4828.00,0.82
4827.00,0.82
4826.00,0.82
4825.00,0.82
4824.00,0.82
4823.00,0.82
4822.00,0.82
4821.00,0.82
4820.00,0.82
4819.00,0.82
4818.00,0.82
4817.00,0.82
4816.00,0.82
4815.00,0.82
4814.00,0.82
4813.00,0.82
4812.00,0.82
4811.00,0.83
4810.00,0.83
4809.00,0.83
4808.00,0.83
4807.00,0.83
4806.00,0.83
4805.00,0.83
4804.00,0.83
4803.00,0.83
4802.00,0.83
4801.00,0.83
4800.00,0.84
4799.00,0.84
4798.00,0.84
4797.00,0.84
4796.00,0.84
4795.00,0.84
4794.00,0.84
4793.00,0.84
4792.00,0.84
4791.00,0.84
4790.00,0.84
4789.00,0.84
4788.00,0.85
4787.00,0.85
4786.00,0.85
4785.00,0.85
4784.00,0.85
4783.00,0.85
4782.00,0.85
4781.00,0.86
4780.00,0.86
4779.00,0.86
4778.00,0.86
4777.00,0.86
4776.00,0.86
4775.00,0.86
4774.00,0.86
4773.00,0.86
4772.00,0.87
4771.00,0.87
4770.00,0.87
4769.00,0.87
4768.00,0.87
4767.00,0.87
4766.00,0.87
4765.00,0.87
4764.00,0.87
4763.00,0.87
4762.00,0.88
4761.00,0.88
4760.00,0.88
4759.00,0.88
4758.00,0.88
4757.00,0.88
4756.00,0.88
4755.00,0.88
4754.00,0.88
4753.00,0.88
4752.00,0.89
4751.00,0.89
4750.00,0.89
4749.00,0.89
4748.00,0.89
4747.00,0.89
4746.00,0.89
4745.00,0.89
4744.00,0.89
4743.00,0.89
4742.00,0.89
4741.00,0.89
4740.00,0.90
4739.00,0.90
4738.00,0.90
4737.00,0.90
4736.00,0.90
4735.00,0.91
4734.00,0.91
4733.00,0.91
4732.00,0.91
4731.00,0.91
4730.00,0.92
4729.00,0.92
4728.00,0.92
4727.00,0.92
4726.00,0.93
4725.00,0.93
4724.00,0.93
4723.00,0.93
4722.00,0.93
4721.00,0.94
4720.00,0.94
4719.00,0.94
4718.00,0.94
4717.00,0.94
4716.00,0.94
4715.00,0.94
4714.00,0.94
4713.00,0.94
4712.00,0.95
4711.00,0.95
4710.00,0.95
4709.00,0.95
4708.00,0.95
4707.00,0.95
4706.00,0.95
4705.00,0.95
4704.00,0.95
4703.00,0.95
4702.00,0.95
4701.00,0.96
4700.00,0.96
4699.00,0.96
4698.00,0.96
4697.00,0.96
4696.00,0.96
4695.00,0.96
4694.00,0.96
4693.00,0.97
4692.00,0.97
4691.00,0.97
4690.00,0.97
4689.00,0.97
4688.00,0.97
4687.00,0.98
4686.00,0.98
4685.00,0.98
4684.00,0.98
4683.00,0.98
4682.00,0.98
4681.00,0.98
4680.00,0.98
4679.00,0.98
4678.00,0.99
4677.00,0.99
4676.00,0.99
4675.00,0.99
4674.00,0.99
4673.00,0.99
4672.00,0.99
4671.00,0.99
4670.00,1.00
4669.00,1.00
4668.00,1.00
4667.00,1.00
4666.00,1.00
4665.00,1.00
4664.00,1.00
4663.00,1.00
4662.00,1.00
4661.00,1.01
4660.00,1.01
4659.00,1.01
4658.00,1.01
4657.00,1.01
4656.00,1.01
4655.00,1.01
4654.00,1.01
4653.00,1.01
4652.00,1.02
4651.00,1.02
4650.00,1.02
4649.00,1.02
4648.00,1.02
4647.00,1.02
4646.00,1.02
4645.00,1.02
4644.00,1.02
4643.00,1.02
4642.00,1.02
4641.00,1.02
4640.00,1.02
4639.00,1.02
4638.00,1.03
4637.00,1.03
4636.00,1.03
4635.00,1.03
4634.00,1.03
4633.00,1.03
4632.00,1.03
4631.00,1.03
4630.00,1.03
4629.00,1.03
4628.00,1.03
4627.00,1.04
4626.00,1.04
4625.00,1.04
4624.00,1.04
4623.00,1.04
4622.00,1.04
4621.00,1.05
4620.00,1.05
4619.00,1.05
4618.00,1.05
4617.00,1.05
4616.00,1.05
4615.00,1.05
4614.00,1.05
4613.00,1.05
4612.00,1.05
4611.00,1.06
4610.00,1.06
4609.00,1.06
4608.00,1.06
4607.00,1.06
4606.00,1.06
4605.00,1.06
4604.00,1.06
4603.00,1.06
4602.00,1.06
4601.00,1.06
4600.00,1.06
4599.00,1.06
4598.00,1.06
4597.00,1.06
4596.00,1.06
4595.00,1.07
4594.00,1.07
4593.00,1.07
4592.00,1.07
4591.00,1.07
4590.00,1.07
4589.00,1.07
4588.00,1.07
4587.00,1.07
4586.00,1.07
4585.00,1.07
4584.00,1.07
4583.00,1.07
4582.00,1.07
4581.00,1.08
4580.00,1.08
4579.00,1.08
4578.00,1.08
4577.00,1.08
4576.00,1.08
4575.00,1.08
4574.00,1.08
4573.00,1.08
4572.00,1.09
4571.00,1.09
4570.00,1.09
4569.00,1.09
4568.00,1.09
4567.00,1.09
4566.00,1.09
4565.00,1.09
4564.00,1.09
4563.00,1.09
4562.00,1.09
4561.00,1.09
4560.00,1.09
4559.00,1.10
4558.00,1.10
4557.00,1.10
4556.00,1.10
4555.00,1.10
4554.00,1.10
4553.00,1.10
4552.00,1.10
4551.00,1.10
4550.00,1.10
4549.00,1.10
4548.00,1.10
4547.00,1.10
4546.00,1.10
4545.00,1.10
4544.00,1.10
4543.00,1.10
4542.00,1.10
4541.00,1.10
4540.00,1.11
4539.00,1.11
4538.00,1.11
4537.00,1.11
4536.00,1.11
4535.00,1.11
4534.00,1.11
4533.00,1.11
4532.00,1.11
4531.00,1.11
4530.00,1.11
4529.00,1.11
4528.00,1.11
4527.00,1.11
4526.00,1.11
4525.00,1.11
4524.00,1.11
4523.00,1.11
4522.00,1.11
4521.00,1.11
4520.00,1.12
4519.00,1.12
4518.00,1.12
4517.00,1.12
4516.00,1.12
4515.00,1.12
4514.00,1.12
4513.00,1.12
4512.00,1.12
4511.00,1.12
4510.00,1.12
4509.00,1.12
4508.00,1.12
4507.00,1.12
4506.00,1.12
4505.00,1.12
4504.00,1.12
4503.00,1.12
4502.00,1.12
4501.00,1.12
4500.00,1.12
4499.00,1.12
4498.00,1.12
4497.00,1.12
4496.00,1.12
4495.00,1.12
4494.00,1.12
4493.00,1.12
4492.00,1.12
4491.00,1.12
4490.00,1.12
4489.00,1.12
4488.00,1.11
4487.00,1.11
4486.00,1.11
4485.00,1.11
4484.00,1.11
4483.00,1.11
4482.00,1.11
4481.00,1.11
4480.00,1.11
4479.00,1.11
4478.00,1.10
4477.00,1.10
4476.00,1.10
4475.00,1.10
4474.00,1.10
4473.00,1.09
4472.00,1.09
4471.00,1.09
4470.00,1.09
4469.00,1.09
4468.00,1.09
4467.00,1.08
4466.00,1.08
4465.00,1.08
4464.00,1.08
4463.00,1.08
4462.00,1.07
4461.00,1.07
4460.00,1.07
4459.00,1.07
4458.00,1.07
4457.00,1.06
4456.00,1.06
4455.00,1.06
4454.00,1.06
4453.00,1.06
4452.00,1.05
4451.00,1.05
4450.00,1.05
4449.00,1.04
4448.00,1.04
4447.00,1.04
4446.00,1.03
4445.00,1.03
4444.00,1.03
4443.00,1.02
4442.00,1.02
4441.00,1.02
4440.00,1.01
4439.00,1.01
4438.00,1.01
4437.00,1.00
4436.00,1.00
4435.00,1.00
4434.00,1.00
4433.00,0.99
4432.00,0.99
4431.00,0.99
4430.00,0.99
4429.00,0.98
4428.00,0.98
4427.00,0.98
4426.00,0.98
4425.00,0.98
4424.00,0.98
4423.00,0.98
4422.00,0.97
4421.00,0.97
4420.00,0.97
4419.00,0.97
4418.00,0.97
4417.00,0.97
4416.00,0.97
4415.00,0.97
4414.00,0.97
4413.00,0.97
4412.00,0.97
4411.00,0.97
4410.00,0.97
4409.00,0.97
4408.00,0.97
4407.00,0.97
4406.00,0.97
4405.00,0.97
4404.00,0.97
4403.00,0.97
4402.00,0.97
4401.00,0.98
4400.00,0.98
4399.00,0.98
4398.00,0.98
4397.00,0.98
4396.00,0.98
4395.00,0.98
4394.00,0.98
4393.00,0.99
4392.00,0.99
4391.00,0.99
4390.00,0.99
4389.00,0.99
4388.00,0.99
4387.00,0.99
4386.00,0.99
4385.00,0.99
4384.00,0.99
4383.00,0.99
4382.00,0.99
4381.00,0.99
4380.00,0.99
4379.00,0.99
4378.00,0.99
4377.00,1.00
4376.00,1.00
4375.00,1.00
4374.00,1.00
4373.00,1.00
4372.00,1.00
4371.00,1.00
4370.00,1.00
4369.00,1.00
4368.00,1.00
4367.00,1.00
4366.00,1.00
4365.00,1.00
4364.00,1.00
4363.00,1.00
4362.00,1.01
4361.00,1.01
4360.00,1.01
4359.00,1.01
4358.00,1.01
4357.00,1.01
4356.00,1.01
4355.00,1.01
4354.00,1.01
4353.00,1.01
4352.00,1.01
4351.00,1.01
4350.00,1.01
4349.00,1.01
4348.00,1.01
4347.00,1.01
4346.00,1.01
4345.00,1.01
4344.00,1.01
4343.00,1.01
4342.00,1.01
4341.00,1.01
4340.00,1.01
4339.00,1.01
4338.00,1.01
4337.00,1.01
4336.00,1.01
4335.00,1.01
4334.00,1.02
4333.00,1.02
4332.00,1.02
4331.00,1.02
4330.00,1.02
4329.00,1.02
4328.00,1.02
4327.00,1.02
4326.00,1.02
4325.00,1.02
4324.00,1.02
4323.00,1.02
4322.00,1.02
4321.00,1.03
4320.00,1.03
4319.00,1.03
4318.00,1.03
4317.00,1.03
4316.00,1.03
4315.00,1.03
4314.00,1.03
4313.00,1.04
4312.00,1.04
4311.00,1.04
4310.00,1.04
4309.00,1.04
4308.00,1.04
4307.00,1.05
4306.00,1.05
4305.00,1.05
4304.00,1.05
4303.00,1.05
4302.00,1.05
4301.00,1.05
4300.00,1.05
4299.00,1.06
4298.00,1.06
4297.00,1.06
4296.00,1.06
4295.00,1.06
4294.00,1.06
4293.00,1.06
4292.00,1.06
4291.00,1.06
4290.00,1.06
4289.00,1.06
4288.00,1.06
4287.00,1.06
4286.00,1.06
4285.00,1.06
4284.00,1.06
4283.00,1.06
4282.00,1.07
4281.00,1.07
4280.00,1.07
4279.00,1.07
4278.00,1.07
4277.00,1.07
4276.00,1.07
4275.00,1.07
4274.00,1.07
4273.00,1.07
4272.00,1.07
4271.00,1.07
4270.00,1.07
4269.00,1.07
4268.00,1.07
4267.00,1.07
4266.00,1.07
4265.00,1.07
4264.00,1.07
4263.00,1.07
4262.00,1.07
4261.00,1.07
4260.00,1.07
4259.00,1.07
4258.00,1.07
4257.00,1.07
4256.00,1.07
4255.00,1.07
4254.00,1.07
4253.00,1.07
4252.00,1.07
4251.00,1.07
4250.00,1.07
4249.00,1.07
4248.00,1.07
4247.00,1.07
4246.00,1.07
4245.00,1.07
4244.00,1.07
4243.00,1.07
4242.00,1.07
4241.00,1.07
4240.00,1.07
4239.00,1.07
4238.00,1.08
4237.00,1.08
4236.00,1.08
4235.00,1.08
4234.00,1.08
4233.00,1.08
4232.00,1.08
4231.00,1.08
4230.00,1.09
4229.00,1.09
4228.00,1.09
4227.00,1.09
4226.00,1.09
4225.00,1.09
4224.00,1.09
4223.00,1.09
4222.00,1.09
4221.00,1.09
4220.00,1.09
4219.00,1.10
4218.00,1.10
4217.00,1.10
4216.00,1.10
4215.00,1.10
4214.00,1.10
4213.00,1.10
4212.00,1.10
4211.00,1.10
4210.00,1.10
4209.00,1.10
4208.00,1.10
4207.00,1.10
4206.00,1.10
4205.00,1.10
4204.00,1.10
4203.00,1.10
4202.00,1.10
4201.00,1.10
4200.00,1.10
4199.00,1.10
4198.00,1.10
4197.00,1.10
4196.00,1.10
4195.00,1.10
4194.00,1.10
4193.00,1.10
4192.00,1.10
4191.00,1.10
4190.00,1.10
4189.00,1.10
4188.00,1.10
4187.00,1.10
4186.00,1.10
4185.00,1.10
4184.00,1.10
4183.00,1.10
4182.00,1.10
4181.00,1.10
4180.00,1.11
4179.00,1.11
4178.00,1.11
4177.00,1.11
4176.00,1.11
4175.00,1.11
4174.00,1.11
4173.00,1.11
4172.00,1.11
4171.00,1.11
4170.00,1.11
4169.00,1.11
4168.00,1.11
4167.00,1.12
4166.00,1.12
4165.00,1.12
4164.00,1.12
4163.00,1.12
4162.00,1.12
4161.00,1.12
4160.00,1.12
4159.00,1.12
4158.00,1.12
4157.00,1.12
4156.00,1.12
4155.00,1.12
4154.00,1.12
4153.00,1.12
4152.00,1.12
4151.00,1.12
4150.00,1.12
4149.00,1.12
4148.00,1.12
4147.00,1.12
4146.00,1.12
4145.00,1.12
4144.00,1.12
4143.00,1.12
4142.00,1.13
4141.00,1.13
4140.00,1.13
4139.00,1.13
4138.00,1.13
4137.00,1.13
4136.00,1.13
4135.00,1.13
4134.00,1.13
4133.00,1.13
4132.00,1.13
4131.00,1.13
4130.00,1.13
4129.00,1.13
4128.00,1.13
4127.00,1.13
4126.00,1.13
4125.00,1.13
4124.00,1.13
4123.00,1.13
4122.00,1.14
4121.00,1.14
4120.00,1.14
4119.00,1.14
4118.00,1.14
4117.00,1.14
4116.00,1.14
4115.00,1.14
4114.00,1.14
4113.00,1.14
4112.00,1.13
4111.00,1.13
4110.00,1.13
4109.00,1.14
4108.00,1.14
4107.00,1.14
4106.00,1.14
4105.00,1.14
4104.00,1.14
4103.00,1.14
4102.00,1.14
4101.00,1.14
4100.00,1.15
4099.00,1.15
4098.00,1.15
4097.00,1.15
4096.00,1.15
4095.00,1.15
4094.00,1.16
4093.00,1.16
4092.00,1.16
4091.00,1.16
4090.00,1.16
4089.00,1.16
4088.00,1.16
4087.00,1.16
4086.00,1.16
4085.00,1.16
4084.00,1.16
4083.00,1.16
4082.00,1.16
4081.00,1.16
4080.00,1.16
4079.00,1.16
4078.00,1.16
4077.00,1.16
4076.00,1.16
4075.00,1.16
4074.00,1.16
4073.00,1.16
4072.00,1.16
4071.00,1.16
4070.00,1.17
4069.00,1.17
4068.00,1.17
4067.00,1.17
4066.00,1.17
4065.00,1.17
4064.00,1.17
4063.00,1.17
4062.00,1.17
4061.00,1.17
4060.00,1.17
4059.00,1.17
4058.00,1.16
4057.00,1.16
4056.00,1.16
4055.00,1.16
4054.00,1.16
4053.00,1.16
4052.00,1.16
4051.00,1.17
4050.00,1.17
4049.00,1.17
4048.00,1.17
4047.00,1.17
4046.00,1.17
4045.00,1.17
4044.00,1.17
4043.00,1.17
4042.00,1.17
4041.00,1.17
4040.00,1.17
4039.00,1.17
4038.00,1.17
4037.00,1.17
4036.00,1.17
4035.00,1.17
4034.00,1.17
4033.00,1.17
4032.00,1.17
4031.00,1.17
4030.00,1.17
4029.00,1.17
4028.00,1.17
4027.00,1.17
4026.00,1.18
4025.00,1.18
4024.00,1.18
4023.00,1.18
4022.00,1.18
4021.00,1.18
4020.00,1.19
4019.00,1.19
4018.00,1.19
4017.00,1.19
4016.00,1.19
4015.00,1.19
4014.00,1.20
4013.00,1.20
4012.00,1.20
4011.00,1.20
4010.00,1.20
4009.00,1.20
4008.00,1.20
4007.00,1.20
4006.00,1.20
4005.00,1.20
4004.00,1.20
4003.00,1.21
4002.00,1.21
4001.00,1.21
4000.00,1.21
