创建为新数据集,样品 159 用户 Administrator 日期 星期六, 七月 21 2018
cm-1,%T
10000.00,1.32
9999.00,1.32
9998.00,1.31
9997.00,1.31
9996.00,1.31
9995.00,1.31
9994.00,1.30
9993.00,1.30
9992.00,1.30
9991.00,1.30
9990.00,1.30
9989.00,1.30
9988.00,1.30
9987.00,1.30
9986.00,1.30
9985.00,1.30
9984.00,1.30
9983.00,1.30
9982.00,1.30
9981.00,1.30
9980.00,1.30
9979.00,1.30
9978.00,1.30
9977.00,1.30
9976.00,1.30
9975.00,1.30
9974.00,1.30
9973.00,1.30
9972.00,1.31
9971.00,1.31
9970.00,1.31
9969.00,1.31
9968.00,1.31
9967.00,1.31
9966.00,1.31
9965.00,1.32
9964.00,1.31
9963.00,1.31
9962.00,1.31
9961.00,1.31
9960.00,1.31
9959.00,1.31
9958.00,1.30
9957.00,1.30
9956.00,1.30
9955.00,1.30
9954.00,1.29
9953.00,1.29
9952.00,1.29
9951.00,1.29
9950.00,1.29
9949.00,1.29
9948.00,1.29
9947.00,1.29
9946.00,1.29
9945.00,1.29
9944.00,1.29
9943.00,1.29
9942.00,1.29
9941.00,1.29
9940.00,1.29
9939.00,1.29
9938.00,1.29
9937.00,1.29
9936.00,1.29
9935.00,1.29
9934.00,1.29
9933.00,1.29
9932.00,1.29
9931.00,1.30
9930.00,1.30
9929.00,1.30
9928.00,1.30
9927.00,1.30
9926.00,1.31
9925.00,1.31
9924.00,1.31
9923.00,1.31
9922.00,1.31
9921.00,1.31
9920.00,1.31
9919.00,1.31
9918.00,1.31
9917.00,1.31
9916.00,1.31
9915.00,1.31
9914.00,1.31
9913.00,1.31
9912.00,1.30
9911.00,1.30
9910.00,1.30
9909.00,1.30
9908.00,1.30
9907.00,1.29
9906.00,1.29
9905.00,1.29
9904.00,1.29
9903.00,1.29
9902.00,1.29
9901.00,1.29
9900.00,1.30
9899.00,1.30
9898.00,1.30
9897.00,1.30
9896.00,1.30
9895.00,1.30
9894.00,1.31
9893.00,1.31
9892.00,1.31
9891.00,1.31
9890.00,1.31
9889.00,1.31
9888.00,1.32
9887.00,1.32
9886.00,1.32
9885.00,1.32
9884.00,1.32
9883.00,1.31
9882.00,1.31
9881.00,1.31
9880.00,1.31
9879.00,1.31
9878.00,1.30
9877.00,1.30
9876.00,1.30
9875.00,1.29
9874.00,1.29
9873.00,1.29
9872.00,1.28
9871.00,1.28
9870.00,1.27
9869.00,1.27
9868.00,1.27
9867.00,1.26
9866.00,1.26
9865.00,1.25
9864.00,1.25
9863.00,1.25
9862.00,1.24
9861.00,1.24
9860.00,1.24
9859.00,1.24
9858.00,1.23
9857.00,1.23
9856.00,1.23
9855.00,1.23
9854.00,1.23
9853.00,1.23
9852.00,1.23
9851.00,1.23
9850.00,1.23
9849.00,1.23
9848.00,1.24
9847.00,1.24
9846.00,1.24
9845.00,1.25
9844.00,1.25
9843.00,1.26
9842.00,1.26
9841.00,1.26
9840.00,1.27
9839.00,1.27
9838.00,1.27
9837.00,1.28
9836.00,1.28
9835.00,1.28
9834.00,1.28
9833.00,1.28
9832.00,1.28
9831.00,1.28
9830.00,1.28
9829.00,1.28
9828.00,1.27
9827.00,1.27
9826.00,1.27
9825.00,1.27
9824.00,1.26
9823.00,1.26
9822.00,1.26
9821.00,1.26
9820.00,1.25
9819.00,1.25
9818.00,1.25
9817.00,1.25
9816.00,1.25
9815.00,1.25
9814.00,1.25
9813.00,1.25
9812.00,1.25
9811.00,1.26
9810.00,1.26
9809.00,1.26
9808.00,1.26
9807.00,1.26
9806.00,1.27
9805.00,1.27
9804.00,1.27
9803.00,1.27
9802.00,1.27
9801.00,1.28
9800.00,1.28
9799.00,1.28
9798.00,1.28
9797.00,1.28
9796.00,1.28
9795.00,1.28
9794.00,1.28
9793.00,1.28
9792.00,1.28
9791.00,1.28
9790.00,1.28
9789.00,1.28
9788.00,1.28
9787.00,1.28
9786.00,1.28
9785.00,1.28
9784.00,1.28
9783.00,1.28
9782.00,1.28
9781.00,1.28
9780.00,1.28
9779.00,1.28
9778.00,1.28
9777.00,1.28
9776.00,1.28
9775.00,1.28
9774.00,1.27
9773.00,1.27
9772.00,1.27
9771.00,1.27
9770.00,1.27
9769.00,1.27
9768.00,1.27
9767.00,1.27
9766.00,1.27
9765.00,1.27
9764.00,1.27
9763.00,1.27
9762.00,1.26
9761.00,1.26
9760.00,1.26
9759.00,1.26
9758.00,1.26
9757.00,1.26
9756.00,1.26
9755.00,1.26
9754.00,1.27
9753.00,1.27
9752.00,1.27
9751.00,1.27
9750.00,1.27
9749.00,1.27
9748.00,1.27
9747.00,1.28
9746.00,1.28
9745.00,1.28
9744.00,1.28
9743.00,1.28
9742.00,1.28
9741.00,1.29
9740.00,1.29
9739.00,1.29
9738.00,1.29
9737.00,1.29
9736.00,1.29
9735.00,1.29
9734.00,1.30
9733.00,1.30
9732.00,1.30
9731.00,1.30
9730.00,1.30
9729.00,1.30
9728.00,1.30
9727.00,1.30
9726.00,1.31
9725.00,1.31
9724.00,1.31
9723.00,1.31
9722.00,1.31
9721.00,1.31
9720.00,1.31
9719.00,1.31
9718.00,1.31
9717.00,1.31
9716.00,1.31
9715.00,1.31
9714.00,1.31
9713.00,1.31
9712.00,1.31
9711.00,1.31
9710.00,1.31
9709.00,1.31
9708.00,1.31
9707.00,1.31
9706.00,1.31
9705.00,1.31
9704.00,1.31
9703.00,1.31
9702.00,1.30
9701.00,1.30
9700.00,1.30
9699.00,1.30
9698.00,1.30
9697.00,1.30
9696.00,1.30
9695.00,1.30
9694.00,1.30
9693.00,1.30
9692.00,1.30
9691.00,1.30
9690.00,1.30
9689.00,1.30
9688.00,1.30
9687.00,1.30
9686.00,1.30
9685.00,1.31
9684.00,1.31
9683.00,1.31
9682.00,1.31
9681.00,1.31
9680.00,1.31
9679.00,1.32
9678.00,1.32
9677.00,1.32
9676.00,1.32
9675.00,1.32
9674.00,1.32
9673.00,1.31
9672.00,1.31
9671.00,1.31
9670.00,1.31
9669.00,1.31
9668.00,1.31
9667.00,1.31
9666.00,1.30
9665.00,1.30
9664.00,1.30
9663.00,1.30
9662.00,1.30
9661.00,1.29
9660.00,1.29
9659.00,1.29
9658.00,1.29
9657.00,1.29
9656.00,1.28
9655.00,1.28
9654.00,1.28
9653.00,1.28
9652.00,1.28
9651.00,1.27
9650.00,1.27
9649.00,1.27
9648.00,1.27
9647.00,1.27
9646.00,1.27
9645.00,1.26
9644.00,1.26
9643.00,1.26
9642.00,1.26
9641.00,1.26
9640.00,1.26
9639.00,1.26
9638.00,1.26
9637.00,1.26
9636.00,1.26
9635.00,1.26
9634.00,1.27
9633.00,1.27
9632.00,1.27
9631.00,1.27
9630.00,1.27
9629.00,1.27
9628.00,1.28
9627.00,1.28
9626.00,1.28
9625.00,1.28
9624.00,1.28
9623.00,1.29
9622.00,1.29
9621.00,1.29
9620.00,1.29
9619.00,1.29
9618.00,1.29
9617.00,1.29
9616.00,1.29
9615.00,1.29
9614.00,1.29
9613.00,1.29
9612.00,1.29
9611.00,1.28
9610.00,1.28
9609.00,1.28
9608.00,1.28
9607.00,1.28
9606.00,1.27
9605.00,1.27
9604.00,1.27
9603.00,1.27
9602.00,1.27
9601.00,1.27
9600.00,1.26
9599.00,1.26
9598.00,1.26
9597.00,1.26
9596.00,1.26
9595.00,1.26
9594.00,1.26
9593.00,1.26
9592.00,1.26
9591.00,1.26
9590.00,1.26
9589.00,1.26
9588.00,1.27
9587.00,1.27
9586.00,1.27
9585.00,1.27
9584.00,1.27
9583.00,1.28
9582.00,1.28
9581.00,1.28
9580.00,1.28
9579.00,1.29
9578.00,1.29
9577.00,1.29
9576.00,1.29
9575.00,1.29
9574.00,1.29
9573.00,1.29
9572.00,1.29
9571.00,1.29
9570.00,1.29
9569.00,1.29
9568.00,1.29
9567.00,1.29
9566.00,1.29
9565.00,1.28
9564.00,1.28
9563.00,1.28
9562.00,1.28
9561.00,1.28
9560.00,1.28
9559.00,1.28
9558.00,1.28
9557.00,1.29
9556.00,1.29
9555.00,1.29
9554.00,1.29
9553.00,1.29
9552.00,1.29
9551.00,1.29
9550.00,1.29
9549.00,1.29
9548.00,1.29
9547.00,1.29
9546.00,1.29
9545.00,1.29
9544.00,1.28
9543.00,1.28
9542.00,1.28
9541.00,1.28
9540.00,1.28
9539.00,1.28
9538.00,1.27
9537.00,1.27
9536.00,1.27
9535.00,1.27
9534.00,1.27
9533.00,1.27
9532.00,1.27
9531.00,1.27
9530.00,1.27
9529.00,1.27
9528.00,1.27
9527.00,1.27
9526.00,1.27
9525.00,1.27
9524.00,1.27
9523.00,1.27
9522.00,1.27
9521.00,1.27
9520.00,1.27
9519.00,1.27
9518.00,1.27
9517.00,1.26
9516.00,1.26
9515.00,1.26
9514.00,1.26
9513.00,1.26
9512.00,1.26
9511.00,1.27
9510.00,1.27
9509.00,1.27
9508.00,1.27
9507.00,1.27
9506.00,1.27
9505.00,1.27
9504.00,1.27
9503.00,1.28
9502.00,1.28
9501.00,1.28
9500.00,1.28
9499.00,1.28
9498.00,1.29
9497.00,1.29
9496.00,1.29
9495.00,1.29
9494.00,1.29
9493.00,1.29
9492.00,1.29
9491.00,1.29
9490.00,1.29
9489.00,1.29
9488.00,1.29
9487.00,1.29
9486.00,1.29
9485.00,1.29
9484.00,1.29
9483.00,1.29
9482.00,1.29
9481.00,1.29
9480.00,1.28
9479.00,1.28
9478.00,1.28
9477.00,1.28
9476.00,1.28
9475.00,1.28
9474.00,1.28
9473.00,1.28
9472.00,1.28
9471.00,1.28
9470.00,1.28
9469.00,1.28
9468.00,1.28
9467.00,1.29
9466.00,1.29
9465.00,1.29
9464.00,1.29
9463.00,1.29
9462.00,1.30
9461.00,1.30
9460.00,1.30
9459.00,1.30
9458.00,1.30
9457.00,1.30
9456.00,1.30
9455.00,1.30
9454.00,1.30
9453.00,1.30
9452.00,1.30
9451.00,1.30
9450.00,1.30
9449.00,1.30
9448.00,1.30
9447.00,1.30
9446.00,1.30
9445.00,1.30
9444.00,1.30
9443.00,1.29
9442.00,1.29
9441.00,1.29
9440.00,1.29
9439.00,1.29
9438.00,1.29
9437.00,1.29
9436.00,1.29
9435.00,1.28
9434.00,1.28
9433.00,1.28
9432.00,1.28
9431.00,1.28
9430.00,1.28
9429.00,1.28
9428.00,1.28
9427.00,1.28
9426.00,1.28
9425.00,1.28
9424.00,1.28
9423.00,1.28
9422.00,1.28
9421.00,1.28
9420.00,1.29
9419.00,1.29
9418.00,1.29
9417.00,1.29
9416.00,1.29
9415.00,1.29
9414.00,1.29
9413.00,1.29
9412.00,1.29
9411.00,1.29
9410.00,1.29
9409.00,1.29
9408.00,1.28
9407.00,1.28
9406.00,1.28
9405.00,1.28
9404.00,1.28
9403.00,1.28
9402.00,1.28
9401.00,1.28
9400.00,1.28
9399.00,1.28
9398.00,1.29
9397.00,1.29
9396.00,1.29
9395.00,1.29
9394.00,1.29
9393.00,1.29
9392.00,1.29
9391.00,1.29
9390.00,1.29
9389.00,1.29
9388.00,1.29
9387.00,1.29
9386.00,1.29
9385.00,1.29
9384.00,1.29
9383.00,1.29
9382.00,1.29
9381.00,1.29
9380.00,1.29
9379.00,1.29
9378.00,1.29
9377.00,1.28
9376.00,1.28
9375.00,1.28
9374.00,1.28
9373.00,1.28
9372.00,1.28
9371.00,1.27
9370.00,1.27
9369.00,1.27
9368.00,1.27
9367.00,1.27
9366.00,1.27
9365.00,1.27
9364.00,1.27
9363.00,1.27
9362.00,1.27
9361.00,1.27
9360.00,1.27
9359.00,1.27
9358.00,1.28
9357.00,1.28
9356.00,1.28
9355.00,1.28
9354.00,1.28
9353.00,1.28
9352.00,1.28
9351.00,1.28
9350.00,1.28
9349.00,1.28
9348.00,1.28
9347.00,1.28
9346.00,1.28
9345.00,1.28
9344.00,1.28
9343.00,1.28
9342.00,1.27
9341.00,1.27
9340.00,1.27
9339.00,1.27
9338.00,1.27
9337.00,1.27
9336.00,1.27
9335.00,1.27
9334.00,1.27
9333.00,1.27
9332.00,1.27
9331.00,1.27
9330.00,1.27
9329.00,1.27
9328.00,1.27
9327.00,1.27
9326.00,1.27
9325.00,1.28
9324.00,1.28
9323.00,1.28
9322.00,1.28
9321.00,1.28
9320.00,1.28
9319.00,1.28
9318.00,1.28
9317.00,1.28
9316.00,1.28
9315.00,1.28
9314.00,1.28
9313.00,1.28
9312.00,1.28
9311.00,1.28
9310.00,1.28
9309.00,1.28
9308.00,1.28
9307.00,1.28
9306.00,1.28
9305.00,1.28
9304.00,1.29
9303.00,1.29
9302.00,1.29
9301.00,1.29
9300.00,1.29
9299.00,1.29
9298.00,1.29
9297.00,1.30
9296.00,1.30
9295.00,1.30
9294.00,1.30
9293.00,1.30
9292.00,1.31
9291.00,1.31
9290.00,1.31
9289.00,1.31
9288.00,1.31
9287.00,1.31
9286.00,1.31
9285.00,1.31
9284.00,1.31
9283.00,1.30
9282.00,1.30
9281.00,1.30
9280.00,1.30
9279.00,1.30
9278.00,1.30
9277.00,1.29
9276.00,1.29
9275.00,1.29
9274.00,1.29
9273.00,1.29
9272.00,1.29
9271.00,1.29
9270.00,1.28
9269.00,1.28
9268.00,1.28
9267.00,1.28
9266.00,1.28
9265.00,1.28
9264.00,1.27
9263.00,1.27
9262.00,1.27
9261.00,1.27
9260.00,1.27
9259.00,1.26
9258.00,1.26
9257.00,1.26
9256.00,1.26
9255.00,1.26
9254.00,1.26
9253.00,1.26
9252.00,1.26
9251.00,1.26
9250.00,1.26
9249.00,1.26
9248.00,1.26
9247.00,1.26
9246.00,1.26
9245.00,1.26
9244.00,1.26
9243.00,1.26
9242.00,1.26
9241.00,1.26
9240.00,1.26
9239.00,1.26
9238.00,1.26
9237.00,1.26
9236.00,1.26
9235.00,1.26
9234.00,1.27
9233.00,1.27
9232.00,1.27
9231.00,1.27
9230.00,1.27
9229.00,1.27
9228.00,1.27
9227.00,1.27
9226.00,1.27
9225.00,1.28
9224.00,1.28
9223.00,1.28
9222.00,1.28
9221.00,1.28
9220.00,1.28
9219.00,1.29
9218.00,1.29
9217.00,1.29
9216.00,1.30
9215.00,1.30
9214.00,1.30
9213.00,1.30
9212.00,1.31
9211.00,1.31
9210.00,1.31
9209.00,1.31
9208.00,1.31
9207.00,1.31
9206.00,1.32
9205.00,1.32
9204.00,1.32
9203.00,1.32
9202.00,1.32
9201.00,1.31
9200.00,1.31
9199.00,1.31
9198.00,1.31
9197.00,1.31
9196.00,1.31
9195.00,1.31
9194.00,1.30
9193.00,1.30
9192.00,1.30
9191.00,1.30
9190.00,1.30
9189.00,1.29
9188.00,1.29
9187.00,1.29
9186.00,1.29
9185.00,1.29
9184.00,1.29
9183.00,1.29
9182.00,1.29
9181.00,1.29
9180.00,1.29
9179.00,1.29
9178.00,1.29
9177.00,1.29
9176.00,1.29
9175.00,1.29
9174.00,1.29
9173.00,1.29
9172.00,1.28
9171.00,1.28
9170.00,1.28
9169.00,1.28
9168.00,1.28
9167.00,1.28
9166.00,1.28
9165.00,1.28
9164.00,1.28
9163.00,1.28
9162.00,1.28
9161.00,1.28
9160.00,1.28
9159.00,1.28
9158.00,1.28
9157.00,1.28
9156.00,1.28
9155.00,1.28
9154.00,1.29
9153.00,1.29
9152.00,1.29
9151.00,1.29
9150.00,1.29
9149.00,1.30
9148.00,1.30
9147.00,1.30
9146.00,1.30
9145.00,1.31
9144.00,1.31
9143.00,1.31
9142.00,1.31
9141.00,1.31
9140.00,1.31
9139.00,1.31
9138.00,1.31
9137.00,1.31
9136.00,1.31
9135.00,1.31
9134.00,1.31
9133.00,1.31
9132.00,1.30
9131.00,1.30
9130.00,1.30
9129.00,1.30
9128.00,1.30
9127.00,1.30
9126.00,1.30
9125.00,1.30
9124.00,1.29
9123.00,1.29
9122.00,1.29
9121.00,1.30
9120.00,1.30
9119.00,1.30
9118.00,1.30
9117.00,1.30
9116.00,1.30
9115.00,1.30
9114.00,1.30
9113.00,1.30
9112.00,1.30
9111.00,1.30
9110.00,1.30
9109.00,1.30
9108.00,1.30
9107.00,1.30
9106.00,1.30
9105.00,1.30
9104.00,1.30
9103.00,1.30
9102.00,1.30
9101.00,1.30
9100.00,1.30
9099.00,1.30
9098.00,1.30
9097.00,1.30
9096.00,1.30
9095.00,1.30
9094.00,1.30
9093.00,1.29
9092.00,1.29
9091.00,1.29
9090.00,1.29
9089.00,1.29
9088.00,1.29
9087.00,1.29
9086.00,1.29
9085.00,1.29
9084.00,1.29
9083.00,1.29
9082.00,1.29
9081.00,1.29
9080.00,1.29
9079.00,1.29
9078.00,1.29
9077.00,1.29
9076.00,1.29
9075.00,1.29
9074.00,1.29
9073.00,1.29
9072.00,1.29
9071.00,1.29
9070.00,1.29
9069.00,1.29
9068.00,1.29
9067.00,1.29
9066.00,1.28
9065.00,1.28
9064.00,1.28
9063.00,1.28
9062.00,1.28
9061.00,1.28
9060.00,1.28
9059.00,1.28
9058.00,1.28
9057.00,1.28
9056.00,1.27
9055.00,1.27
9054.00,1.27
9053.00,1.28
9052.00,1.28
9051.00,1.28
9050.00,1.28
9049.00,1.28
9048.00,1.28
9047.00,1.28
9046.00,1.28
9045.00,1.28
9044.00,1.28
9043.00,1.28
9042.00,1.28
9041.00,1.28
9040.00,1.28
9039.00,1.28
9038.00,1.28
9037.00,1.28
9036.00,1.28
9035.00,1.28
9034.00,1.28
9033.00,1.28
9032.00,1.28
9031.00,1.28
9030.00,1.28
9029.00,1.29
9028.00,1.29
9027.00,1.29
9026.00,1.29
9025.00,1.29
9024.00,1.29
9023.00,1.30
9022.00,1.30
9021.00,1.30
9020.00,1.30
9019.00,1.30
9018.00,1.30
9017.00,1.30
9016.00,1.30
9015.00,1.30
9014.00,1.30
9013.00,1.30
9012.00,1.30
9011.00,1.30
9010.00,1.30
9009.00,1.30
9008.00,1.30
9007.00,1.30
9006.00,1.30
9005.00,1.30
9004.00,1.30
9003.00,1.30
9002.00,1.30
9001.00,1.30
9000.00,1.30
8999.00,1.30
8998.00,1.29
8997.00,1.29
8996.00,1.29
8995.00,1.29
8994.00,1.28
8993.00,1.28
8992.00,1.28
8991.00,1.27
8990.00,1.27
8989.00,1.27
8988.00,1.26
8987.00,1.26
8986.00,1.26
8985.00,1.26
8984.00,1.26
8983.00,1.25
8982.00,1.25
8981.00,1.25
8980.00,1.25
8979.00,1.26
8978.00,1.26
8977.00,1.26
8976.00,1.26
8975.00,1.26
8974.00,1.26
8973.00,1.27
8972.00,1.27
8971.00,1.27
8970.00,1.27
8969.00,1.28
8968.00,1.28
8967.00,1.28
8966.00,1.28
8965.00,1.28
8964.00,1.29
8963.00,1.29
8962.00,1.29
8961.00,1.29
8960.00,1.29
8959.00,1.29
8958.00,1.30
8957.00,1.30
8956.00,1.30
8955.00,1.30
8954.00,1.30
8953.00,1.30
8952.00,1.30
8951.00,1.30
8950.00,1.30
8949.00,1.30
8948.00,1.30
8947.00,1.31
8946.00,1.31
8945.00,1.31
8944.00,1.31
8943.00,1.30
8942.00,1.30
8941.00,1.30
8940.00,1.30
8939.00,1.30
8938.00,1.30
8937.00,1.30
8936.00,1.30
8935.00,1.30
8934.00,1.30
8933.00,1.30
8932.00,1.30
8931.00,1.30
8930.00,1.30
8929.00,1.29
8928.00,1.29
8927.00,1.29
8926.00,1.29
8925.00,1.29
8924.00,1.29
8923.00,1.29
8922.00,1.29
8921.00,1.29
8920.00,1.30
8919.00,1.30
8918.00,1.30
8917.00,1.30
8916.00,1.30
8915.00,1.30
8914.00,1.30
8913.00,1.30
8912.00,1.31
8911.00,1.31
8910.00,1.31
8909.00,1.31
8908.00,1.31
8907.00,1.31
8906.00,1.31
8905.00,1.31
8904.00,1.31
8903.00,1.31
8902.00,1.31
8901.00,1.30
8900.00,1.30
8899.00,1.30
8898.00,1.30
8897.00,1.30
8896.00,1.30
8895.00,1.30
8894.00,1.30
8893.00,1.29
8892.00,1.29
8891.00,1.29
8890.00,1.29
8889.00,1.29
8888.00,1.29
8887.00,1.29
8886.00,1.29
8885.00,1.29
8884.00,1.29
8883.00,1.28
8882.00,1.28
8881.00,1.28
8880.00,1.28
8879.00,1.28
8878.00,1.28
8877.00,1.28
8876.00,1.28
8875.00,1.29
8874.00,1.29
8873.00,1.29
8872.00,1.29
8871.00,1.29
8870.00,1.29
8869.00,1.29
8868.00,1.29
8867.00,1.29
8866.00,1.29
8865.00,1.30
8864.00,1.30
8863.00,1.30
8862.00,1.30
8861.00,1.30
8860.00,1.30
8859.00,1.30
8858.00,1.31
8857.00,1.31
8856.00,1.31
8855.00,1.31
8854.00,1.31
8853.00,1.31
8852.00,1.31
8851.00,1.31
8850.00,1.30
8849.00,1.30
8848.00,1.30
8847.00,1.30
8846.00,1.30
8845.00,1.30
8844.00,1.30
8843.00,1.29
8842.00,1.29
8841.00,1.29
8840.00,1.29
8839.00,1.29
8838.00,1.28
8837.00,1.28
8836.00,1.28
8835.00,1.28
8834.00,1.28
8833.00,1.28
8832.00,1.27
8831.00,1.27
8830.00,1.27
8829.00,1.27
8828.00,1.27
8827.00,1.27
8826.00,1.27
8825.00,1.27
8824.00,1.27
8823.00,1.27
8822.00,1.27
8821.00,1.27
8820.00,1.27
8819.00,1.27
8818.00,1.27
8817.00,1.27
8816.00,1.27
8815.00,1.27
8814.00,1.27
8813.00,1.27
8812.00,1.28
8811.00,1.28
8810.00,1.28
8809.00,1.28
8808.00,1.28
8807.00,1.28
8806.00,1.28
8805.00,1.28
8804.00,1.28
8803.00,1.28
8802.00,1.28
8801.00,1.28
8800.00,1.28
8799.00,1.28
8798.00,1.28
8797.00,1.28
8796.00,1.28
8795.00,1.28
8794.00,1.28
8793.00,1.28
8792.00,1.28
8791.00,1.28
8790.00,1.28
8789.00,1.28
8788.00,1.28
8787.00,1.28
8786.00,1.28
8785.00,1.28
8784.00,1.28
8783.00,1.27
8782.00,1.27
8781.00,1.27
8780.00,1.27
8779.00,1.27
8778.00,1.27
8777.00,1.27
8776.00,1.27
8775.00,1.27
8774.00,1.27
8773.00,1.27
8772.00,1.27
8771.00,1.27
8770.00,1.27
8769.00,1.27
8768.00,1.27
8767.00,1.27
8766.00,1.27
8765.00,1.27
8764.00,1.27
8763.00,1.27
8762.00,1.26
8761.00,1.26
8760.00,1.26
8759.00,1.26
8758.00,1.26
8757.00,1.26
8756.00,1.26
8755.00,1.26
8754.00,1.26
8753.00,1.26
8752.00,1.26
8751.00,1.25
8750.00,1.25
8749.00,1.25
8748.00,1.25
8747.00,1.25
8746.00,1.24
8745.00,1.24
8744.00,1.24
8743.00,1.24
8742.00,1.23
8741.00,1.23
8740.00,1.23
8739.00,1.23
8738.00,1.23
8737.00,1.23
8736.00,1.22
8735.00,1.22
8734.00,1.22
8733.00,1.23
8732.00,1.23
8731.00,1.23
8730.00,1.23
8729.00,1.23
8728.00,1.23
8727.00,1.23
8726.00,1.24
8725.00,1.24
8724.00,1.24
8723.00,1.24
8722.00,1.24
8721.00,1.24
8720.00,1.24
8719.00,1.24
8718.00,1.24
8717.00,1.24
8716.00,1.24
8715.00,1.23
8714.00,1.23
8713.00,1.23
8712.00,1.23
8711.00,1.23
8710.00,1.22
8709.00,1.22
8708.00,1.22
8707.00,1.22
8706.00,1.22
8705.00,1.22
8704.00,1.22
8703.00,1.22
8702.00,1.22
8701.00,1.22
8700.00,1.22
8699.00,1.22
8698.00,1.22
8697.00,1.22
8696.00,1.22
8695.00,1.22
8694.00,1.22
8693.00,1.22
8692.00,1.22
8691.00,1.22
8690.00,1.22
8689.00,1.21
8688.00,1.21
8687.00,1.21
8686.00,1.21
8685.00,1.21
8684.00,1.21
8683.00,1.21
8682.00,1.21
8681.00,1.21
8680.00,1.21
8679.00,1.21
8678.00,1.21
8677.00,1.21
8676.00,1.21
8675.00,1.21
8674.00,1.21
8673.00,1.22
8672.00,1.22
8671.00,1.22
8670.00,1.22
8669.00,1.22
8668.00,1.22
8667.00,1.22
8666.00,1.22
8665.00,1.22
8664.00,1.22
8663.00,1.23
8662.00,1.23
8661.00,1.23
8660.00,1.23
8659.00,1.23
8658.00,1.23
8657.00,1.23
8656.00,1.23
8655.00,1.23
8654.00,1.23
8653.00,1.23
8652.00,1.23
8651.00,1.23
8650.00,1.23
8649.00,1.23
8648.00,1.23
8647.00,1.23
8646.00,1.23
8645.00,1.23
8644.00,1.23
8643.00,1.23
8642.00,1.23
8641.00,1.23
8640.00,1.23
8639.00,1.23
8638.00,1.23
8637.00,1.23
8636.00,1.23
8635.00,1.23
8634.00,1.23
8633.00,1.23
8632.00,1.23
8631.00,1.23
8630.00,1.23
8629.00,1.23
8628.00,1.23
8627.00,1.23
8626.00,1.23
8625.00,1.23
8624.00,1.23
8623.00,1.23
8622.00,1.23
8621.00,1.23
8620.00,1.22
8619.00,1.22
8618.00,1.22
8617.00,1.22
8616.00,1.22
8615.00,1.22
8614.00,1.21
8613.00,1.21
8612.00,1.21
8611.00,1.21
8610.00,1.21
8609.00,1.21
8608.00,1.21
8607.00,1.21
8606.00,1.21
8605.00,1.21
8604.00,1.21
8603.00,1.21
8602.00,1.20
8601.00,1.20
8600.00,1.20
8599.00,1.20
8598.00,1.20
8597.00,1.20
8596.00,1.20
8595.00,1.20
8594.00,1.20
8593.00,1.20
8592.00,1.20
8591.00,1.20
8590.00,1.20
8589.00,1.20
8588.00,1.20
8587.00,1.20
8586.00,1.20
8585.00,1.20
8584.00,1.20
8583.00,1.20
8582.00,1.20
8581.00,1.20
8580.00,1.20
8579.00,1.19
8578.00,1.19
8577.00,1.19
8576.00,1.19
8575.00,1.19
8574.00,1.19
8573.00,1.19
8572.00,1.19
8571.00,1.19
8570.00,1.19
8569.00,1.19
8568.00,1.19
8567.00,1.19
8566.00,1.19
8565.00,1.19
8564.00,1.19
8563.00,1.19
8562.00,1.18
8561.00,1.18
8560.00,1.18
8559.00,1.18
8558.00,1.18
8557.00,1.18
8556.00,1.18
8555.00,1.18
8554.00,1.17
8553.00,1.17
8552.00,1.17
8551.00,1.17
8550.00,1.17
8549.00,1.17
8548.00,1.17
8547.00,1.16
8546.00,1.16
8545.00,1.16
8544.00,1.16
8543.00,1.16
8542.00,1.16
8541.00,1.16
8540.00,1.16
8539.00,1.16
8538.00,1.16
8537.00,1.16
8536.00,1.16
8535.00,1.15
8534.00,1.15
8533.00,1.15
8532.00,1.15
8531.00,1.15
8530.00,1.15
8529.00,1.15
8528.00,1.15
8527.00,1.15
8526.00,1.15
8525.00,1.15
8524.00,1.15
8523.00,1.15
8522.00,1.15
8521.00,1.15
8520.00,1.15
8519.00,1.15
8518.00,1.15
8517.00,1.15
8516.00,1.16
8515.00,1.16
8514.00,1.16
8513.00,1.16
8512.00,1.16
8511.00,1.16
8510.00,1.16
8509.00,1.16
8508.00,1.16
8507.00,1.16
8506.00,1.17
8505.00,1.17
8504.00,1.17
8503.00,1.17
8502.00,1.17
8501.00,1.17
8500.00,1.17
8499.00,1.17
8498.00,1.17
8497.00,1.17
8496.00,1.17
8495.00,1.17
8494.00,1.17
8493.00,1.17
8492.00,1.17
8491.00,1.17
8490.00,1.17
8489.00,1.16
8488.00,1.16
8487.00,1.16
8486.00,1.16
8485.00,1.16
8484.00,1.16
8483.00,1.15
8482.00,1.15
8481.00,1.15
8480.00,1.15
8479.00,1.15
8478.00,1.15
8477.00,1.14
8476.00,1.14
8475.00,1.14
8474.00,1.14
8473.00,1.14
8472.00,1.14
8471.00,1.14
8470.00,1.13
8469.00,1.13
8468.00,1.13
8467.00,1.13
8466.00,1.13
8465.00,1.13
8464.00,1.13
8463.00,1.13
8462.00,1.13
8461.00,1.13
8460.00,1.13
8459.00,1.13
8458.00,1.13
8457.00,1.13
8456.00,1.12
8455.00,1.12
8454.00,1.12
8453.00,1.12
8452.00,1.12
8451.00,1.12
8450.00,1.12
8449.00,1.11
8448.00,1.11
8447.00,1.11
8446.00,1.11
8445.00,1.11
8444.00,1.11
8443.00,1.11
8442.00,1.11
8441.00,1.11
8440.00,1.11
8439.00,1.11
8438.00,1.11
8437.00,1.11
8436.00,1.11
8435.00,1.11
8434.00,1.11
8433.00,1.11
8432.00,1.11
8431.00,1.11
8430.00,1.11
8429.00,1.11
8428.00,1.11
8427.00,1.11
8426.00,1.11
8425.00,1.11
8424.00,1.11
8423.00,1.11
8422.00,1.11
8421.00,1.11
8420.00,1.12
8419.00,1.12
8418.00,1.12
8417.00,1.12
8416.00,1.12
8415.00,1.12
8414.00,1.12
8413.00,1.13
8412.00,1.13
8411.00,1.13
8410.00,1.13
8409.00,1.13
8408.00,1.13
8407.00,1.13
8406.00,1.13
8405.00,1.13
8404.00,1.13
8403.00,1.13
8402.00,1.13
8401.00,1.13
8400.00,1.13
8399.00,1.13
8398.00,1.14
8397.00,1.14
8396.00,1.14
8395.00,1.14
8394.00,1.14
8393.00,1.14
8392.00,1.14
8391.00,1.14
8390.00,1.14
8389.00,1.14
8388.00,1.14
8387.00,1.14
8386.00,1.14
8385.00,1.14
8384.00,1.15
8383.00,1.15
8382.00,1.15
8381.00,1.15
8380.00,1.15
8379.00,1.15
8378.00,1.15
8377.00,1.16
8376.00,1.16
8375.00,1.16
8374.00,1.16
8373.00,1.16
8372.00,1.16
8371.00,1.16
8370.00,1.17
8369.00,1.17
8368.00,1.17
8367.00,1.17
8366.00,1.17
8365.00,1.17
8364.00,1.17
8363.00,1.17
8362.00,1.17
8361.00,1.17
8360.00,1.17
8359.00,1.17
8358.00,1.17
8357.00,1.17
8356.00,1.17
8355.00,1.17
8354.00,1.17
8353.00,1.16
8352.00,1.16
8351.00,1.16
8350.00,1.16
8349.00,1.16
8348.00,1.16
8347.00,1.16
8346.00,1.15
8345.00,1.15
8344.00,1.15
8343.00,1.15
8342.00,1.15
8341.00,1.15
8340.00,1.15
8339.00,1.16
8338.00,1.16
8337.00,1.16
8336.00,1.16
8335.00,1.16
8334.00,1.16
8333.00,1.16
8332.00,1.17
8331.00,1.17
8330.00,1.17
8329.00,1.17
8328.00,1.17
8327.00,1.17
8326.00,1.17
8325.00,1.17
8324.00,1.17
8323.00,1.17
8322.00,1.17
8321.00,1.17
8320.00,1.17
8319.00,1.17
8318.00,1.17
8317.00,1.17
8316.00,1.17
8315.00,1.17
8314.00,1.17
8313.00,1.17
8312.00,1.17
8311.00,1.17
8310.00,1.17
8309.00,1.17
8308.00,1.18
8307.00,1.18
8306.00,1.18
8305.00,1.18
8304.00,1.18
8303.00,1.18
8302.00,1.18
8301.00,1.18
8300.00,1.19
8299.00,1.19
8298.00,1.19
8297.00,1.19
8296.00,1.19
8295.00,1.19
8294.00,1.19
8293.00,1.19
8292.00,1.19
8291.00,1.19
8290.00,1.19
8289.00,1.18
8288.00,1.18
8287.00,1.18
8286.00,1.18
8285.00,1.18
8284.00,1.18
8283.00,1.18
8282.00,1.18
8281.00,1.18
8280.00,1.18
8279.00,1.18
8278.00,1.18
8277.00,1.18
8276.00,1.18
8275.00,1.18
8274.00,1.18
8273.00,1.18
8272.00,1.18
8271.00,1.18
8270.00,1.18
8269.00,1.18
8268.00,1.18
8267.00,1.18
8266.00,1.18
8265.00,1.18
8264.00,1.18
8263.00,1.18
8262.00,1.18
8261.00,1.18
8260.00,1.18
8259.00,1.18
8258.00,1.18
8257.00,1.18
8256.00,1.18
8255.00,1.18
8254.00,1.18
8253.00,1.19
8252.00,1.19
8251.00,1.19
8250.00,1.19
8249.00,1.19
8248.00,1.19
8247.00,1.20
8246.00,1.20
8245.00,1.20
8244.00,1.20
8243.00,1.20
8242.00,1.21
8241.00,1.21
8240.00,1.21
8239.00,1.21
8238.00,1.21
8237.00,1.21
8236.00,1.21
8235.00,1.21
8234.00,1.21
8233.00,1.21
8232.00,1.21
8231.00,1.21
8230.00,1.20
8229.00,1.20
8228.00,1.20
8227.00,1.20
8226.00,1.20
8225.00,1.20
8224.00,1.20
8223.00,1.20
8222.00,1.20
8221.00,1.20
8220.00,1.20
8219.00,1.20
8218.00,1.21
8217.00,1.21
8216.00,1.21
8215.00,1.21
8214.00,1.21
8213.00,1.21
8212.00,1.21
8211.00,1.22
8210.00,1.22
8209.00,1.22
8208.00,1.22
8207.00,1.22
8206.00,1.22
8205.00,1.22
8204.00,1.22
8203.00,1.22
8202.00,1.22
8201.00,1.22
8200.00,1.22
8199.00,1.22
8198.00,1.22
8197.00,1.22
8196.00,1.22
8195.00,1.22
8194.00,1.22
8193.00,1.22
8192.00,1.22
8191.00,1.22
8190.00,1.22
8189.00,1.22
8188.00,1.21
8187.00,1.21
8186.00,1.21
8185.00,1.21
8184.00,1.21
8183.00,1.21
8182.00,1.21
8181.00,1.21
8180.00,1.21
8179.00,1.21
8178.00,1.21
8177.00,1.21
8176.00,1.21
8175.00,1.21
8174.00,1.21
8173.00,1.21
8172.00,1.21
8171.00,1.21
8170.00,1.22
8169.00,1.22
8168.00,1.22
8167.00,1.22
8166.00,1.22
8165.00,1.22
8164.00,1.22
8163.00,1.22
8162.00,1.23
8161.00,1.23
8160.00,1.23
8159.00,1.23
8158.00,1.23
8157.00,1.23
8156.00,1.23
8155.00,1.23
8154.00,1.23
8153.00,1.23
8152.00,1.23
8151.00,1.23
8150.00,1.23
8149.00,1.23
8148.00,1.23
8147.00,1.23
8146.00,1.23
8145.00,1.23
8144.00,1.23
8143.00,1.23
8142.00,1.23
8141.00,1.23
8140.00,1.23
8139.00,1.23
8138.00,1.23
8137.00,1.23
8136.00,1.23
8135.00,1.23
8134.00,1.23
8133.00,1.23
8132.00,1.23
8131.00,1.23
8130.00,1.23
8129.00,1.23
8128.00,1.23
8127.00,1.23
8126.00,1.23
8125.00,1.23
8124.00,1.23
8123.00,1.23
8122.00,1.23
8121.00,1.23
8120.00,1.23
8119.00,1.23
8118.00,1.23
8117.00,1.23
8116.00,1.23
8115.00,1.23
8114.00,1.23
8113.00,1.23
8112.00,1.23
8111.00,1.23
8110.00,1.23
8109.00,1.23
8108.00,1.23
8107.00,1.23
8106.00,1.23
8105.00,1.23
8104.00,1.23
8103.00,1.24
8102.00,1.24
8101.00,1.24
8100.00,1.24
8099.00,1.24
8098.00,1.24
8097.00,1.24
8096.00,1.24
8095.00,1.24
8094.00,1.24
8093.00,1.24
8092.00,1.24
8091.00,1.24
8090.00,1.24
8089.00,1.24
8088.00,1.24
8087.00,1.24
8086.00,1.24
8085.00,1.24
8084.00,1.24
8083.00,1.25
8082.00,1.25
8081.00,1.25
8080.00,1.25
8079.00,1.25
8078.00,1.25
8077.00,1.25
8076.00,1.25
8075.00,1.26
8074.00,1.26
8073.00,1.26
8072.00,1.26
8071.00,1.26
8070.00,1.26
8069.00,1.26
8068.00,1.26
8067.00,1.26
8066.00,1.26
8065.00,1.26
8064.00,1.26
8063.00,1.26
8062.00,1.26
8061.00,1.26
8060.00,1.26
8059.00,1.26
8058.00,1.27
8057.00,1.27
8056.00,1.27
8055.00,1.27
8054.00,1.27
8053.00,1.27
8052.00,1.27
8051.00,1.27
8050.00,1.27
8049.00,1.27
8048.00,1.27
8047.00,1.27
8046.00,1.27
8045.00,1.26
8044.00,1.26
8043.00,1.26
8042.00,1.26
8041.00,1.26
8040.00,1.26
8039.00,1.26
8038.00,1.26
8037.00,1.26
8036.00,1.26
8035.00,1.26
8034.00,1.26
8033.00,1.26
8032.00,1.26
8031.00,1.26
8030.00,1.26
8029.00,1.26
8028.00,1.26
8027.00,1.26
8026.00,1.26
8025.00,1.26
8024.00,1.26
8023.00,1.26
8022.00,1.26
8021.00,1.26
8020.00,1.26
8019.00,1.26
8018.00,1.26
8017.00,1.26
8016.00,1.26
8015.00,1.26
8014.00,1.27
8013.00,1.27
8012.00,1.27
8011.00,1.27
8010.00,1.27
8009.00,1.27
8008.00,1.27
8007.00,1.27
8006.00,1.27
8005.00,1.27
8004.00,1.27
8003.00,1.27
8002.00,1.27
8001.00,1.27
8000.00,1.27
7999.00,1.27
7998.00,1.28
7997.00,1.28
7996.00,1.28
7995.00,1.28
7994.00,1.28
7993.00,1.28
7992.00,1.28
7991.00,1.28
7990.00,1.28
7989.00,1.28
7988.00,1.28
7987.00,1.28
7986.00,1.28
7985.00,1.28
7984.00,1.28
7983.00,1.28
7982.00,1.28
7981.00,1.28
7980.00,1.28
7979.00,1.28
7978.00,1.28
7977.00,1.28
7976.00,1.28
7975.00,1.28
7974.00,1.28
7973.00,1.28
7972.00,1.28
7971.00,1.28
7970.00,1.28
7969.00,1.28
7968.00,1.28
7967.00,1.28
7966.00,1.28
7965.00,1.28
7964.00,1.28
7963.00,1.28
7962.00,1.28
7961.00,1.28
7960.00,1.28
7959.00,1.27
7958.00,1.27
7957.00,1.27
7956.00,1.27
7955.00,1.27
7954.00,1.27
7953.00,1.27
7952.00,1.27
7951.00,1.27
7950.00,1.27
7949.00,1.27
7948.00,1.27
7947.00,1.28
7946.00,1.28
7945.00,1.28
7944.00,1.28
7943.00,1.28
7942.00,1.28
7941.00,1.28
7940.00,1.28
7939.00,1.29
7938.00,1.29
7937.00,1.29
7936.00,1.29
7935.00,1.29
7934.00,1.29
7933.00,1.29
7932.00,1.29
7931.00,1.29
7930.00,1.29
7929.00,1.29
7928.00,1.29
7927.00,1.29
7926.00,1.29
7925.00,1.29
7924.00,1.29
7923.00,1.29
7922.00,1.29
7921.00,1.29
7920.00,1.29
7919.00,1.29
7918.00,1.29
7917.00,1.29
7916.00,1.29
7915.00,1.29
7914.00,1.29
7913.00,1.29
7912.00,1.29
7911.00,1.29
7910.00,1.29
7909.00,1.29
7908.00,1.29
7907.00,1.29
7906.00,1.29
7905.00,1.29
7904.00,1.29
7903.00,1.29
7902.00,1.29
7901.00,1.29
7900.00,1.29
7899.00,1.29
7898.00,1.29
7897.00,1.29
7896.00,1.29
7895.00,1.29
7894.00,1.29
7893.00,1.29
7892.00,1.29
7891.00,1.29
7890.00,1.29
7889.00,1.29
7888.00,1.29
7887.00,1.29
7886.00,1.29
7885.00,1.29
7884.00,1.29
7883.00,1.29
7882.00,1.29
7881.00,1.29
7880.00,1.29
7879.00,1.29
7878.00,1.29
7877.00,1.29
7876.00,1.29
7875.00,1.29
7874.00,1.29
7873.00,1.29
7872.00,1.29
7871.00,1.29
7870.00,1.29
7869.00,1.29
7868.00,1.29
7867.00,1.29
7866.00,1.29
7865.00,1.29
7864.00,1.29
7863.00,1.29
7862.00,1.29
7861.00,1.29
7860.00,1.29
7859.00,1.30
7858.00,1.30
7857.00,1.30
7856.00,1.30
7855.00,1.30
7854.00,1.30
7853.00,1.30
7852.00,1.30
7851.00,1.30
7850.00,1.30
7849.00,1.30
7848.00,1.30
7847.00,1.30
7846.00,1.30
7845.00,1.30
7844.00,1.30
7843.00,1.30
7842.00,1.30
7841.00,1.30
7840.00,1.30
7839.00,1.30
7838.00,1.30
7837.00,1.30
7836.00,1.30
7835.00,1.30
7834.00,1.30
7833.00,1.30
7832.00,1.30
7831.00,1.30
7830.00,1.30
7829.00,1.30
7828.00,1.30
7827.00,1.30
7826.00,1.30
7825.00,1.30
7824.00,1.30
7823.00,1.30
7822.00,1.30
7821.00,1.30
7820.00,1.30
7819.00,1.30
7818.00,1.30
7817.00,1.30
7816.00,1.30
7815.00,1.30
7814.00,1.30
7813.00,1.30
7812.00,1.30
7811.00,1.30
7810.00,1.30
7809.00,1.30
7808.00,1.30
7807.00,1.30
7806.00,1.30
7805.00,1.30
7804.00,1.30
7803.00,1.30
7802.00,1.30
7801.00,1.30
7800.00,1.30
7799.00,1.31
7798.00,1.31
7797.00,1.31
7796.00,1.31
7795.00,1.31
7794.00,1.31
7793.00,1.31
7792.00,1.31
7791.00,1.31
7790.00,1.31
7789.00,1.31
7788.00,1.31
7787.00,1.31
7786.00,1.31
7785.00,1.31
7784.00,1.31
7783.00,1.31
7782.00,1.31
7781.00,1.31
7780.00,1.31
7779.00,1.31
7778.00,1.31
7777.00,1.31
7776.00,1.31
7775.00,1.31
7774.00,1.31
7773.00,1.31
7772.00,1.31
7771.00,1.31
7770.00,1.31
7769.00,1.31
7768.00,1.31
7767.00,1.31
7766.00,1.31
7765.00,1.31
7764.00,1.31
7763.00,1.31
7762.00,1.31
7761.00,1.31
7760.00,1.31
7759.00,1.31
7758.00,1.31
7757.00,1.31
7756.00,1.31
7755.00,1.31
7754.00,1.31
7753.00,1.31
7752.00,1.31
7751.00,1.31
7750.00,1.30
7749.00,1.30
7748.00,1.30
7747.00,1.30
7746.00,1.30
7745.00,1.30
7744.00,1.30
7743.00,1.31
7742.00,1.31
7741.00,1.31
7740.00,1.31
7739.00,1.31
7738.00,1.31
7737.00,1.31
7736.00,1.31
7735.00,1.31
7734.00,1.31
7733.00,1.31
7732.00,1.31
7731.00,1.31
7730.00,1.31
7729.00,1.31
7728.00,1.31
7727.00,1.31
7726.00,1.32
7725.00,1.32
7724.00,1.32
7723.00,1.32
7722.00,1.32
7721.00,1.32
7720.00,1.32
7719.00,1.32
7718.00,1.32
7717.00,1.31
7716.00,1.31
7715.00,1.31
7714.00,1.31
7713.00,1.31
7712.00,1.31
7711.00,1.31
7710.00,1.31
7709.00,1.31
7708.00,1.30
7707.00,1.30
7706.00,1.30
7705.00,1.30
7704.00,1.30
7703.00,1.30
7702.00,1.30
7701.00,1.30
7700.00,1.30
7699.00,1.30
7698.00,1.31
7697.00,1.31
7696.00,1.31
7695.00,1.31
7694.00,1.31
7693.00,1.31
7692.00,1.31
7691.00,1.31
7690.00,1.31
7689.00,1.31
7688.00,1.31
7687.00,1.31
7686.00,1.31
7685.00,1.31
7684.00,1.32
7683.00,1.32
7682.00,1.32
7681.00,1.32
7680.00,1.32
7679.00,1.32
7678.00,1.32
7677.00,1.31
7676.00,1.31
7675.00,1.31
7674.00,1.31
7673.00,1.31
7672.00,1.31
7671.00,1.31
7670.00,1.31
7669.00,1.31
7668.00,1.31
7667.00,1.31
7666.00,1.31
7665.00,1.31
7664.00,1.31
7663.00,1.31
7662.00,1.31
7661.00,1.31
7660.00,1.31
7659.00,1.31
7658.00,1.31
7657.00,1.31
7656.00,1.31
7655.00,1.31
7654.00,1.31
7653.00,1.31
7652.00,1.31
7651.00,1.31
7650.00,1.31
7649.00,1.31
7648.00,1.31
7647.00,1.31
7646.00,1.31
7645.00,1.31
7644.00,1.31
7643.00,1.31
7642.00,1.31
7641.00,1.31
7640.00,1.31
7639.00,1.31
7638.00,1.31
7637.00,1.31
7636.00,1.31
7635.00,1.31
7634.00,1.31
7633.00,1.31
7632.00,1.31
7631.00,1.32
7630.00,1.32
7629.00,1.32
7628.00,1.32
7627.00,1.32
7626.00,1.32
7625.00,1.32
7624.00,1.32
7623.00,1.32
7622.00,1.32
7621.00,1.32
7620.00,1.32
7619.00,1.32
7618.00,1.32
7617.00,1.32
7616.00,1.32
7615.00,1.32
7614.00,1.32
7613.00,1.32
7612.00,1.32
7611.00,1.32
7610.00,1.32
7609.00,1.32
7608.00,1.32
7607.00,1.32
7606.00,1.32
7605.00,1.32
7604.00,1.32
7603.00,1.32
7602.00,1.32
7601.00,1.32
7600.00,1.32
7599.00,1.32
7598.00,1.32
7597.00,1.32
7596.00,1.31
7595.00,1.31
7594.00,1.31
7593.00,1.31
7592.00,1.31
7591.00,1.31
7590.00,1.31
7589.00,1.31
7588.00,1.31
7587.00,1.31
7586.00,1.31
7585.00,1.31
7584.00,1.31
7583.00,1.31
7582.00,1.31
7581.00,1.31
7580.00,1.31
7579.00,1.31
7578.00,1.31
7577.00,1.31
7576.00,1.31
7575.00,1.31
7574.00,1.31
7573.00,1.31
7572.00,1.31
7571.00,1.31
7570.00,1.31
7569.00,1.31
7568.00,1.31
7567.00,1.31
7566.00,1.31
7565.00,1.31
7564.00,1.31
7563.00,1.31
7562.00,1.31
7561.00,1.31
7560.00,1.32
7559.00,1.32
7558.00,1.32
7557.00,1.32
7556.00,1.32
7555.00,1.32
7554.00,1.32
7553.00,1.32
7552.00,1.32
7551.00,1.32
7550.00,1.32
7549.00,1.31
7548.00,1.31
7547.00,1.31
7546.00,1.31
7545.00,1.31
7544.00,1.31
7543.00,1.31
7542.00,1.31
7541.00,1.31
7540.00,1.31
7539.00,1.30
7538.00,1.30
7537.00,1.30
7536.00,1.30
7535.00,1.30
7534.00,1.30
7533.00,1.30
7532.00,1.30
7531.00,1.30
7530.00,1.30
7529.00,1.30
7528.00,1.30
7527.00,1.30
7526.00,1.30
7525.00,1.30
7524.00,1.30
7523.00,1.30
7522.00,1.30
7521.00,1.30
7520.00,1.29
7519.00,1.29
7518.00,1.29
7517.00,1.29
7516.00,1.29
7515.00,1.29
7514.00,1.29
7513.00,1.29
7512.00,1.29
7511.00,1.29
7510.00,1.29
7509.00,1.29
7508.00,1.29
7507.00,1.29
7506.00,1.29
7505.00,1.29
7504.00,1.28
7503.00,1.28
7502.00,1.28
7501.00,1.28
7500.00,1.28
7499.00,1.28
7498.00,1.28
7497.00,1.28
7496.00,1.28
7495.00,1.28
7494.00,1.28
7493.00,1.28
7492.00,1.28
7491.00,1.28
7490.00,1.28
7489.00,1.28
7488.00,1.28
7487.00,1.28
7486.00,1.28
7485.00,1.28
7484.00,1.27
7483.00,1.27
7482.00,1.27
7481.00,1.27
7480.00,1.27
7479.00,1.27
7478.00,1.27
7477.00,1.27
7476.00,1.27
7475.00,1.27
7474.00,1.27
7473.00,1.27
7472.00,1.27
7471.00,1.27
7470.00,1.27
7469.00,1.27
7468.00,1.27
7467.00,1.27
7466.00,1.27
7465.00,1.27
7464.00,1.27
7463.00,1.27
7462.00,1.27
7461.00,1.27
7460.00,1.27
7459.00,1.27
7458.00,1.27
7457.00,1.27
7456.00,1.27
7455.00,1.27
7454.00,1.27
7453.00,1.27
7452.00,1.27
7451.00,1.27
7450.00,1.27
7449.00,1.27
7448.00,1.27
7447.00,1.26
7446.00,1.26
7445.00,1.26
7444.00,1.26
7443.00,1.26
7442.00,1.26
7441.00,1.26
7440.00,1.26
7439.00,1.26
7438.00,1.26
7437.00,1.26
7436.00,1.26
7435.00,1.26
7434.00,1.26
7433.00,1.26
7432.00,1.26
7431.00,1.26
7430.00,1.26
7429.00,1.26
7428.00,1.26
7427.00,1.26
7426.00,1.26
7425.00,1.26
7424.00,1.26
7423.00,1.26
7422.00,1.25
7421.00,1.25
7420.00,1.25
7419.00,1.25
7418.00,1.25
7417.00,1.25
7416.00,1.25
7415.00,1.25
7414.00,1.25
7413.00,1.25
7412.00,1.24
7411.00,1.24
7410.00,1.24
7409.00,1.24
7408.00,1.24
7407.00,1.23
7406.00,1.23
7405.00,1.23
7404.00,1.23
7403.00,1.23
7402.00,1.23
7401.00,1.22
7400.00,1.22
7399.00,1.22
7398.00,1.22
7397.00,1.22
7396.00,1.22
7395.00,1.22
7394.00,1.22
7393.00,1.21
7392.00,1.21
7391.00,1.21
7390.00,1.21
7389.00,1.21
7388.00,1.21
7387.00,1.21
7386.00,1.20
7385.00,1.20
7384.00,1.20
7383.00,1.20
7382.00,1.20
7381.00,1.20
7380.00,1.20
7379.00,1.19
7378.00,1.19
7377.00,1.19
7376.00,1.19
7375.00,1.19
7374.00,1.19
7373.00,1.19
7372.00,1.19
7371.00,1.19
7370.00,1.19
7369.00,1.19
7368.00,1.19
7367.00,1.19
7366.00,1.19
7365.00,1.19
7364.00,1.19
7363.00,1.19
7362.00,1.19
7361.00,1.19
7360.00,1.19
7359.00,1.19
7358.00,1.19
7357.00,1.19
7356.00,1.19
7355.00,1.19
7354.00,1.19
7353.00,1.19
7352.00,1.19
7351.00,1.19
7350.00,1.18
7349.00,1.18
7348.00,1.18
7347.00,1.18
7346.00,1.18
7345.00,1.18
7344.00,1.18
7343.00,1.18
7342.00,1.18
7341.00,1.18
7340.00,1.18
7339.00,1.17
7338.00,1.17
7337.00,1.17
7336.00,1.17
7335.00,1.17
7334.00,1.17
7333.00,1.17
7332.00,1.17
7331.00,1.17
7330.00,1.17
7329.00,1.17
7328.00,1.17
7327.00,1.17
7326.00,1.17
7325.00,1.17
7324.00,1.17
7323.00,1.17
7322.00,1.17
7321.00,1.17
7320.00,1.17
7319.00,1.17
7318.00,1.17
7317.00,1.17
7316.00,1.17
7315.00,1.17
7314.00,1.17
7313.00,1.17
7312.00,1.17
7311.00,1.17
7310.00,1.17
7309.00,1.17
7308.00,1.17
7307.00,1.17
7306.00,1.17
7305.00,1.17
7304.00,1.16
7303.00,1.16
7302.00,1.16
7301.00,1.16
7300.00,1.16
7299.00,1.16
7298.00,1.15
7297.00,1.15
7296.00,1.15
7295.00,1.15
7294.00,1.14
7293.00,1.14
7292.00,1.14
7291.00,1.14
7290.00,1.14
7289.00,1.13
7288.00,1.13
7287.00,1.13
7286.00,1.13
7285.00,1.13
7284.00,1.13
7283.00,1.13
7282.00,1.13
7281.00,1.12
7280.00,1.12
7279.00,1.12
7278.00,1.12
7277.00,1.12
7276.00,1.12
7275.00,1.12
7274.00,1.12
7273.00,1.12
7272.00,1.12
7271.00,1.12
7270.00,1.12
7269.00,1.11
7268.00,1.11
7267.00,1.11
7266.00,1.11
7265.00,1.11
7264.00,1.11
7263.00,1.11
7262.00,1.11
7261.00,1.10
7260.00,1.10
7259.00,1.10
7258.00,1.10
7257.00,1.10
7256.00,1.10
7255.00,1.09
7254.00,1.09
7253.00,1.09
7252.00,1.09
7251.00,1.09
7250.00,1.08
7249.00,1.08
7248.00,1.08
7247.00,1.08
7246.00,1.07
7245.00,1.07
7244.00,1.07
7243.00,1.07
7242.00,1.06
7241.00,1.06
7240.00,1.06
7239.00,1.05
7238.00,1.05
7237.00,1.05
7236.00,1.04
7235.00,1.04
7234.00,1.04
7233.00,1.03
7232.00,1.03
7231.00,1.03
7230.00,1.02
7229.00,1.02
7228.00,1.02
7227.00,1.02
7226.00,1.01
7225.00,1.01
7224.00,1.01
7223.00,1.00
7222.00,1.00
7221.00,1.00
7220.00,1.00
7219.00,0.99
7218.00,0.99
7217.00,0.99
7216.00,0.98
7215.00,0.98
7214.00,0.98
7213.00,0.97
7212.00,0.97
7211.00,0.97
7210.00,0.96
7209.00,0.96
7208.00,0.96
7207.00,0.95
7206.00,0.95
7205.00,0.94
7204.00,0.94
7203.00,0.94
7202.00,0.93
7201.00,0.93
7200.00,0.93
7199.00,0.92
7198.00,0.92
7197.00,0.91
7196.00,0.91
7195.00,0.91
7194.00,0.91
7193.00,0.90
7192.00,0.90
7191.00,0.90
7190.00,0.89
7189.00,0.89
7188.00,0.89
7187.00,0.89
7186.00,0.88
7185.00,0.88
7184.00,0.88
7183.00,0.88
7182.00,0.87
7181.00,0.87
7180.00,0.87
7179.00,0.87
7178.00,0.86
7177.00,0.86
7176.00,0.86
7175.00,0.85
7174.00,0.85
7173.00,0.85
7172.00,0.84
7171.00,0.84
7170.00,0.84
7169.00,0.84
7168.00,0.83
7167.00,0.83
7166.00,0.83
7165.00,0.83
7164.00,0.82
7163.00,0.82
7162.00,0.82
7161.00,0.82
7160.00,0.81
7159.00,0.81
7158.00,0.81
7157.00,0.81
7156.00,0.81
7155.00,0.81
7154.00,0.80
7153.00,0.80
7152.00,0.80
7151.00,0.80
7150.00,0.80
7149.00,0.80
7148.00,0.80
7147.00,0.79
7146.00,0.79
7145.00,0.79
7144.00,0.79
7143.00,0.79
7142.00,0.78
7141.00,0.78
7140.00,0.78
7139.00,0.78
7138.00,0.78
7137.00,0.77
7136.00,0.77
7135.00,0.77
7134.00,0.77
7133.00,0.76
7132.00,0.76
7131.00,0.76
7130.00,0.75
7129.00,0.75
7128.00,0.75
7127.00,0.75
7126.00,0.74
7125.00,0.74
7124.00,0.74
7123.00,0.74
7122.00,0.73
7121.00,0.73
7120.00,0.73
7119.00,0.73
7118.00,0.72
7117.00,0.72
7116.00,0.72
7115.00,0.72
7114.00,0.72
7113.00,0.71
7112.00,0.71
7111.00,0.71
7110.00,0.71
7109.00,0.71
7108.00,0.71
7107.00,0.70
7106.00,0.70
7105.00,0.70
7104.00,0.70
7103.00,0.70
7102.00,0.70
7101.00,0.69
7100.00,0.69
7099.00,0.69
7098.00,0.69
7097.00,0.69
7096.00,0.68
7095.00,0.68
7094.00,0.68
7093.00,0.68
7092.00,0.68
7091.00,0.67
7090.00,0.67
7089.00,0.67
7088.00,0.67
7087.00,0.67
7086.00,0.67
7085.00,0.66
7084.00,0.66
7083.00,0.66
7082.00,0.66
7081.00,0.66
7080.00,0.66
7079.00,0.66
7078.00,0.65
7077.00,0.65
7076.00,0.65
7075.00,0.65
7074.00,0.65
7073.00,0.65
7072.00,0.65
7071.00,0.65
7070.00,0.64
7069.00,0.64
7068.00,0.64
7067.00,0.64
7066.00,0.64
7065.00,0.64
7064.00,0.64
7063.00,0.64
7062.00,0.64
7061.00,0.63
7060.00,0.63
7059.00,0.63
7058.00,0.63
7057.00,0.63
7056.00,0.63
7055.00,0.63
7054.00,0.63
7053.00,0.63
7052.00,0.63
7051.00,0.63
7050.00,0.62
7049.00,0.62
7048.00,0.62
7047.00,0.62
7046.00,0.62
7045.00,0.62
7044.00,0.62
7043.00,0.62
7042.00,0.62
7041.00,0.62
7040.00,0.62
7039.00,0.62
7038.00,0.62
7037.00,0.62
7036.00,0.62
7035.00,0.62
7034.00,0.62
7033.00,0.61
7032.00,0.61
7031.00,0.61
7030.00,0.61
7029.00,0.61
7028.00,0.61
7027.00,0.61
7026.00,0.61
7025.00,0.60
7024.00,0.60
7023.00,0.60
7022.00,0.60
7021.00,0.60
7020.00,0.60
7019.00,0.60
7018.00,0.60
7017.00,0.60
7016.00,0.59
7015.00,0.59
7014.00,0.59
7013.00,0.59
7012.00,0.59
7011.00,0.59
7010.00,0.59
7009.00,0.59
7008.00,0.59
7007.00,0.59
7006.00,0.59
7005.00,0.59
7004.00,0.59
7003.00,0.59
7002.00,0.59
7001.00,0.59
7000.00,0.59
6999.00,0.59
6998.00,0.59
6997.00,0.59
6996.00,0.59
6995.00,0.59
6994.00,0.59
6993.00,0.59
6992.00,0.59
6991.00,0.59
6990.00,0.59
6989.00,0.59
6988.00,0.59
6987.00,0.59
6986.00,0.59
6985.00,0.59
6984.00,0.59
6983.00,0.59
6982.00,0.59
6981.00,0.59
6980.00,0.59
6979.00,0.59
6978.00,0.59
6977.00,0.59
6976.00,0.59
6975.00,0.59
6974.00,0.58
6973.00,0.58
6972.00,0.58
6971.00,0.58
6970.00,0.58
6969.00,0.58
6968.00,0.58
6967.00,0.58
6966.00,0.58
6965.00,0.58
6964.00,0.58
6963.00,0.58
6962.00,0.58
6961.00,0.58
6960.00,0.58
6959.00,0.58
6958.00,0.58
6957.00,0.58
6956.00,0.58
6955.00,0.58
6954.00,0.58
6953.00,0.58
6952.00,0.59
6951.00,0.59
6950.00,0.59
6949.00,0.59
6948.00,0.59
6947.00,0.59
6946.00,0.59
6945.00,0.58
6944.00,0.58
6943.00,0.58
6942.00,0.58
6941.00,0.58
6940.00,0.58
6939.00,0.58
6938.00,0.58
6937.00,0.58
6936.00,0.58
6935.00,0.58
6934.00,0.58
6933.00,0.58
6932.00,0.58
6931.00,0.58
6930.00,0.58
6929.00,0.58
6928.00,0.58
6927.00,0.58
6926.00,0.58
6925.00,0.58
6924.00,0.58
6923.00,0.58
6922.00,0.58
6921.00,0.58
6920.00,0.58
6919.00,0.58
6918.00,0.58
6917.00,0.58
6916.00,0.58
6915.00,0.58
6914.00,0.58
6913.00,0.58
6912.00,0.58
6911.00,0.58
6910.00,0.58
6909.00,0.58
6908.00,0.58
6907.00,0.58
6906.00,0.58
6905.00,0.58
6904.00,0.58
6903.00,0.58
6902.00,0.58
6901.00,0.58
6900.00,0.58
6899.00,0.58
6898.00,0.58
6897.00,0.58
6896.00,0.58
6895.00,0.58
6894.00,0.58
6893.00,0.58
6892.00,0.58
6891.00,0.58
6890.00,0.58
6889.00,0.58
6888.00,0.58
6887.00,0.58
6886.00,0.58
6885.00,0.58
6884.00,0.58
6883.00,0.58
6882.00,0.58
6881.00,0.57
6880.00,0.57
6879.00,0.57
6878.00,0.57
6877.00,0.57
6876.00,0.57
6875.00,0.57
6874.00,0.57
6873.00,0.57
6872.00,0.57
6871.00,0.57
6870.00,0.57
6869.00,0.57
6868.00,0.57
6867.00,0.57
6866.00,0.57
6865.00,0.58
6864.00,0.58
6863.00,0.58
6862.00,0.58
6861.00,0.58
6860.00,0.58
6859.00,0.58
6858.00,0.58
6857.00,0.58
6856.00,0.58
6855.00,0.58
6854.00,0.58
6853.00,0.58
6852.00,0.58
6851.00,0.58
6850.00,0.58
6849.00,0.58
6848.00,0.58
6847.00,0.58
6846.00,0.58
6845.00,0.58
6844.00,0.58
6843.00,0.58
6842.00,0.58
6841.00,0.58
6840.00,0.58
6839.00,0.58
6838.00,0.58
6837.00,0.58
6836.00,0.58
6835.00,0.58
6834.00,0.58
6833.00,0.58
6832.00,0.58
6831.00,0.59
6830.00,0.59
6829.00,0.59
6828.00,0.59
6827.00,0.59
6826.00,0.59
6825.00,0.59
6824.00,0.59
6823.00,0.59
6822.00,0.59
6821.00,0.59
6820.00,0.59
6819.00,0.59
6818.00,0.59
6817.00,0.59
6816.00,0.59
6815.00,0.59
6814.00,0.59
6813.00,0.59
6812.00,0.59
6811.00,0.59
6810.00,0.59
6809.00,0.59
6808.00,0.59
6807.00,0.59
6806.00,0.59
6805.00,0.59
6804.00,0.59
6803.00,0.59
6802.00,0.59
6801.00,0.59
6800.00,0.59
6799.00,0.59
6798.00,0.59
6797.00,0.59
6796.00,0.59
6795.00,0.59
6794.00,0.59
6793.00,0.59
6792.00,0.59
6791.00,0.59
6790.00,0.59
6789.00,0.59
6788.00,0.59
6787.00,0.59
6786.00,0.59
6785.00,0.59
6784.00,0.60
6783.00,0.60
6782.00,0.60
6781.00,0.60
6780.00,0.60
6779.00,0.60
6778.00,0.60
6777.00,0.60
6776.00,0.60
6775.00,0.60
6774.00,0.60
6773.00,0.60
6772.00,0.60
6771.00,0.60
6770.00,0.60
6769.00,0.60
6768.00,0.60
6767.00,0.60
6766.00,0.60
6765.00,0.60
6764.00,0.60
6763.00,0.60
6762.00,0.60
6761.00,0.60
6760.00,0.60
6759.00,0.60
6758.00,0.60
6757.00,0.60
6756.00,0.60
6755.00,0.60
6754.00,0.60
6753.00,0.60
6752.00,0.60
6751.00,0.60
6750.00,0.60
6749.00,0.60
6748.00,0.61
6747.00,0.61
6746.00,0.61
6745.00,0.61
6744.00,0.61
6743.00,0.61
6742.00,0.61
6741.00,0.61
6740.00,0.61
6739.00,0.62
6738.00,0.62
6737.00,0.62
6736.00,0.62
6735.00,0.62
6734.00,0.62
6733.00,0.62
6732.00,0.62
6731.00,0.62
6730.00,0.62
6729.00,0.62
6728.00,0.62
6727.00,0.63
6726.00,0.63
6725.00,0.63
6724.00,0.63
6723.00,0.63
6722.00,0.63
6721.00,0.63
6720.00,0.63
6719.00,0.63
6718.00,0.63
6717.00,0.63
6716.00,0.63
6715.00,0.63
6714.00,0.63
6713.00,0.63
6712.00,0.63
6711.00,0.63
6710.00,0.63
6709.00,0.64
6708.00,0.64
6707.00,0.64
6706.00,0.64
6705.00,0.64
6704.00,0.64
6703.00,0.64
6702.00,0.64
6701.00,0.64
6700.00,0.64
6699.00,0.64
6698.00,0.64
6697.00,0.64
6696.00,0.64
6695.00,0.64
6694.00,0.64
6693.00,0.64
6692.00,0.64
6691.00,0.64
6690.00,0.64
6689.00,0.64
6688.00,0.64
6687.00,0.64
6686.00,0.65
6685.00,0.65
6684.00,0.65
6683.00,0.65
6682.00,0.65
6681.00,0.65
6680.00,0.65
6679.00,0.65
6678.00,0.65
6677.00,0.65
6676.00,0.65
6675.00,0.65
6674.00,0.65
6673.00,0.65
6672.00,0.65
6671.00,0.65
6670.00,0.65
6669.00,0.65
6668.00,0.65
6667.00,0.65
6666.00,0.65
6665.00,0.65
6664.00,0.65
6663.00,0.65
6662.00,0.65
6661.00,0.65
6660.00,0.65
6659.00,0.66
6658.00,0.66
6657.00,0.66
6656.00,0.66
6655.00,0.66
6654.00,0.66
6653.00,0.66
6652.00,0.66
6651.00,0.67
6650.00,0.67
6649.00,0.67
6648.00,0.67
6647.00,0.67
6646.00,0.67
6645.00,0.68
6644.00,0.68
6643.00,0.68
6642.00,0.68
6641.00,0.68
6640.00,0.68
6639.00,0.68
6638.00,0.68
6637.00,0.69
6636.00,0.69
6635.00,0.69
6634.00,0.69
6633.00,0.69
6632.00,0.69
6631.00,0.69
6630.00,0.69
6629.00,0.69
6628.00,0.69
6627.00,0.69
6626.00,0.69
6625.00,0.69
6624.00,0.69
6623.00,0.69
6622.00,0.70
6621.00,0.70
6620.00,0.70
6619.00,0.70
6618.00,0.70
6617.00,0.70
6616.00,0.70
6615.00,0.70
6614.00,0.70
6613.00,0.70
6612.00,0.70
6611.00,0.70
6610.00,0.71
6609.00,0.71
6608.00,0.71
6607.00,0.71
6606.00,0.71
6605.00,0.71
6604.00,0.71
6603.00,0.71
6602.00,0.71
6601.00,0.71
6600.00,0.71
6599.00,0.71
6598.00,0.71
6597.00,0.71
6596.00,0.71
6595.00,0.71
6594.00,0.71
6593.00,0.72
6592.00,0.72
6591.00,0.72
6590.00,0.72
6589.00,0.72
6588.00,0.72
6587.00,0.72
6586.00,0.72
6585.00,0.72
6584.00,0.72
6583.00,0.73
6582.00,0.73
6581.00,0.73
6580.00,0.73
6579.00,0.73
6578.00,0.73
6577.00,0.73
6576.00,0.73
6575.00,0.73
6574.00,0.73
6573.00,0.73
6572.00,0.73
6571.00,0.74
6570.00,0.74
6569.00,0.74
6568.00,0.74
6567.00,0.74
6566.00,0.74
6565.00,0.74
6564.00,0.74
6563.00,0.74
6562.00,0.74
6561.00,0.74
6560.00,0.74
6559.00,0.74
6558.00,0.74
6557.00,0.74
6556.00,0.75
6555.00,0.75
6554.00,0.75
6553.00,0.75
6552.00,0.75
6551.00,0.75
6550.00,0.75
6549.00,0.75
6548.00,0.75
6547.00,0.75
6546.00,0.75
6545.00,0.75
6544.00,0.76
6543.00,0.76
6542.00,0.76
6541.00,0.76
6540.00,0.76
6539.00,0.76
6538.00,0.76
6537.00,0.76
6536.00,0.76
6535.00,0.76
6534.00,0.76
6533.00,0.76
6532.00,0.76
6531.00,0.76
6530.00,0.76
6529.00,0.76
6528.00,0.77
6527.00,0.77
6526.00,0.77
6525.00,0.77
6524.00,0.77
6523.00,0.77
6522.00,0.77
6521.00,0.77
6520.00,0.77
6519.00,0.77
6518.00,0.77
6517.00,0.77
6516.00,0.77
6515.00,0.77
6514.00,0.77
6513.00,0.77
6512.00,0.78
6511.00,0.78
6510.00,0.78
6509.00,0.78
6508.00,0.78
6507.00,0.78
6506.00,0.78
6505.00,0.78
6504.00,0.78
6503.00,0.78
6502.00,0.78
6501.00,0.78
6500.00,0.78
6499.00,0.79
6498.00,0.79
6497.00,0.79
6496.00,0.79
6495.00,0.79
6494.00,0.79
6493.00,0.79
6492.00,0.79
6491.00,0.79
6490.00,0.79
6489.00,0.79
6488.00,0.79
6487.00,0.79
6486.00,0.79
6485.00,0.79
6484.00,0.79
6483.00,0.79
6482.00,0.79
6481.00,0.79
6480.00,0.79
6479.00,0.79
6478.00,0.79
6477.00,0.79
6476.00,0.79
6475.00,0.79
6474.00,0.79
6473.00,0.79
6472.00,0.79
6471.00,0.80
6470.00,0.80
6469.00,0.80
6468.00,0.80
6467.00,0.80
6466.00,0.80
6465.00,0.80
6464.00,0.80
6463.00,0.80
6462.00,0.80
6461.00,0.81
6460.00,0.81
6459.00,0.81
6458.00,0.81
6457.00,0.81
6456.00,0.81
6455.00,0.81
6454.00,0.81
6453.00,0.81
6452.00,0.81
6451.00,0.81
6450.00,0.81
6449.00,0.81
6448.00,0.81
6447.00,0.81
6446.00,0.81
6445.00,0.81
6444.00,0.81
6443.00,0.81
6442.00,0.82
6441.00,0.82
6440.00,0.82
6439.00,0.82
6438.00,0.82
6437.00,0.82
6436.00,0.82
6435.00,0.82
6434.00,0.82
6433.00,0.82
6432.00,0.82
6431.00,0.82
6430.00,0.82
6429.00,0.82
6428.00,0.82
6427.00,0.82
6426.00,0.82
6425.00,0.82
6424.00,0.82
6423.00,0.82
6422.00,0.82
6421.00,0.82
6420.00,0.83
6419.00,0.83
6418.00,0.83
6417.00,0.83
6416.00,0.83
6415.00,0.83
6414.00,0.83
6413.00,0.83
6412.00,0.83
6411.00,0.83
6410.00,0.83
6409.00,0.83
6408.00,0.83
6407.00,0.83
6406.00,0.83
6405.00,0.83
6404.00,0.83
6403.00,0.83
6402.00,0.83
6401.00,0.83
6400.00,0.83
6399.00,0.83
6398.00,0.83
6397.00,0.83
6396.00,0.83
6395.00,0.84
6394.00,0.84
6393.00,0.84
6392.00,0.84
6391.00,0.84
6390.00,0.84
6389.00,0.84
6388.00,0.84
6387.00,0.84
6386.00,0.84
6385.00,0.84
6384.00,0.84
6383.00,0.84
6382.00,0.84
6381.00,0.84
6380.00,0.84
6379.00,0.85
6378.00,0.85
6377.00,0.85
6376.00,0.85
6375.00,0.85
6374.00,0.85
6373.00,0.85
6372.00,0.85
6371.00,0.86
6370.00,0.86
6369.00,0.86
6368.00,0.86
6367.00,0.86
6366.00,0.86
6365.00,0.86
6364.00,0.86
6363.00,0.87
6362.00,0.87
6361.00,0.87
6360.00,0.87
6359.00,0.87
6358.00,0.87
6357.00,0.87
6356.00,0.87
6355.00,0.87
6354.00,0.87
6353.00,0.88
6352.00,0.88
6351.00,0.88
6350.00,0.88
6349.00,0.88
6348.00,0.88
6347.00,0.88
6346.00,0.88
6345.00,0.88
6344.00,0.88
6343.00,0.88
6342.00,0.88
6341.00,0.88
6340.00,0.88
6339.00,0.88
6338.00,0.88
6337.00,0.89
6336.00,0.89
6335.00,0.89
6334.00,0.89
6333.00,0.89
6332.00,0.89
6331.00,0.89
6330.00,0.89
6329.00,0.89
6328.00,0.89
6327.00,0.89
6326.00,0.89
6325.00,0.89
6324.00,0.89
6323.00,0.89
6322.00,0.89
6321.00,0.90
6320.00,0.90
6319.00,0.90
6318.00,0.90
6317.00,0.90
6316.00,0.90
6315.00,0.90
6314.00,0.90
6313.00,0.90
6312.00,0.90
6311.00,0.90
6310.00,0.91
6309.00,0.91
6308.00,0.91
6307.00,0.91
6306.00,0.91
6305.00,0.91
6304.00,0.91
6303.00,0.91
6302.00,0.91
6301.00,0.91
6300.00,0.91
6299.00,0.92
6298.00,0.92
6297.00,0.92
6296.00,0.92
6295.00,0.92
6294.00,0.92
6293.00,0.92
6292.00,0.92
6291.00,0.92
6290.00,0.92
6289.00,0.93
6288.00,0.93
6287.00,0.93
6286.00,0.93
6285.00,0.93
6284.00,0.93
6283.00,0.93
6282.00,0.93
6281.00,0.93
6280.00,0.94
6279.00,0.94
6278.00,0.94
6277.00,0.94
6276.00,0.94
6275.00,0.94
6274.00,0.94
6273.00,0.94
6272.00,0.94
6271.00,0.95
6270.00,0.95
6269.00,0.95
6268.00,0.95
6267.00,0.95
6266.00,0.95
6265.00,0.95
6264.00,0.95
6263.00,0.95
6262.00,0.95
6261.00,0.96
6260.00,0.96
6259.00,0.96
6258.00,0.96
6257.00,0.96
6256.00,0.96
6255.00,0.96
6254.00,0.96
6253.00,0.96
6252.00,0.96
6251.00,0.96
6250.00,0.96
6249.00,0.96
6248.00,0.96
6247.00,0.96
6246.00,0.96
6245.00,0.96
6244.00,0.96
6243.00,0.96
6242.00,0.96
6241.00,0.97
6240.00,0.97
6239.00,0.97
6238.00,0.97
6237.00,0.97
6236.00,0.97
6235.00,0.97
6234.00,0.97
6233.00,0.98
6232.00,0.98
6231.00,0.98
6230.00,0.98
6229.00,0.98
6228.00,0.98
6227.00,0.99
6226.00,0.99
6225.00,0.99
6224.00,0.99
6223.00,0.99
6222.00,0.99
6221.00,1.00
6220.00,1.00
6219.00,1.00
6218.00,1.00
6217.00,1.00
6216.00,1.00
6215.00,1.00
6214.00,1.00
6213.00,1.01
6212.00,1.01
6211.00,1.01
6210.00,1.01
6209.00,1.01
6208.00,1.01
6207.00,1.01
6206.00,1.01
6205.00,1.01
6204.00,1.01
6203.00,1.01
6202.00,1.01
6201.00,1.02
6200.00,1.02
6199.00,1.02
6198.00,1.02
6197.00,1.02
6196.00,1.02
6195.00,1.02
6194.00,1.03
6193.00,1.03
6192.00,1.03
6191.00,1.03
6190.00,1.03
6189.00,1.03
6188.00,1.03
6187.00,1.04
6186.00,1.04
6185.00,1.04
6184.00,1.04
6183.00,1.04
6182.00,1.04
6181.00,1.04
6180.00,1.04
6179.00,1.05
6178.00,1.05
6177.00,1.05
6176.00,1.05
6175.00,1.05
6174.00,1.05
6173.00,1.05
6172.00,1.05
6171.00,1.06
6170.00,1.06
6169.00,1.06
6168.00,1.06
6167.00,1.06
6166.00,1.06
6165.00,1.07
6164.00,1.07
6163.00,1.07
6162.00,1.07
6161.00,1.07
6160.00,1.08
6159.00,1.08
6158.00,1.08
6157.00,1.08
6156.00,1.08
6155.00,1.08
6154.00,1.09
6153.00,1.09
6152.00,1.09
6151.00,1.09
6150.00,1.09
6149.00,1.09
6148.00,1.09
6147.00,1.09
6146.00,1.09
6145.00,1.09
6144.00,1.10
6143.00,1.10
6142.00,1.10
6141.00,1.10
6140.00,1.10
6139.00,1.10
6138.00,1.10
6137.00,1.10
6136.00,1.10
6135.00,1.11
6134.00,1.11
6133.00,1.11
6132.00,1.11
6131.00,1.11
6130.00,1.11
6129.00,1.11
6128.00,1.12
6127.00,1.12
6126.00,1.12
6125.00,1.12
6124.00,1.12
6123.00,1.12
6122.00,1.12
6121.00,1.12
6120.00,1.13
6119.00,1.13
6118.00,1.13
6117.00,1.13
6116.00,1.13
6115.00,1.13
6114.00,1.13
6113.00,1.13
6112.00,1.14
6111.00,1.14
6110.00,1.14
6109.00,1.14
6108.00,1.14
6107.00,1.14
6106.00,1.15
6105.00,1.15
6104.00,1.15
6103.00,1.15
6102.00,1.15
6101.00,1.15
6100.00,1.16
6099.00,1.16
6098.00,1.16
6097.00,1.16
6096.00,1.16
6095.00,1.17
6094.00,1.17
6093.00,1.17
6092.00,1.17
6091.00,1.17
6090.00,1.17
6089.00,1.17
6088.00,1.18
6087.00,1.18
6086.00,1.18
6085.00,1.18
6084.00,1.18
6083.00,1.18
6082.00,1.18
6081.00,1.18
6080.00,1.18
6079.00,1.19
6078.00,1.19
6077.00,1.19
6076.00,1.19
6075.00,1.19
6074.00,1.19
6073.00,1.19
6072.00,1.19
6071.00,1.19
6070.00,1.19
6069.00,1.19
6068.00,1.19
6067.00,1.19
6066.00,1.19
6065.00,1.20
6064.00,1.20
6063.00,1.20
6062.00,1.20
6061.00,1.20
6060.00,1.20
6059.00,1.20
6058.00,1.20
6057.00,1.20
6056.00,1.20
6055.00,1.20
6054.00,1.21
6053.00,1.21
6052.00,1.21
6051.00,1.21
6050.00,1.21
6049.00,1.21
6048.00,1.21
6047.00,1.21
6046.00,1.21
6045.00,1.21
6044.00,1.22
6043.00,1.22
6042.00,1.22
6041.00,1.22
6040.00,1.22
6039.00,1.22
6038.00,1.22
6037.00,1.22
6036.00,1.22
6035.00,1.22
6034.00,1.22
6033.00,1.22
6032.00,1.22
6031.00,1.22
6030.00,1.22
6029.00,1.22
6028.00,1.22
6027.00,1.22
6026.00,1.22
6025.00,1.22
6024.00,1.22
6023.00,1.22
6022.00,1.22
6021.00,1.22
6020.00,1.23
6019.00,1.23
6018.00,1.23
6017.00,1.23
6016.00,1.23
6015.00,1.23
6014.00,1.23
6013.00,1.23
6012.00,1.23
6011.00,1.23
6010.00,1.23
6009.00,1.23
6008.00,1.23
6007.00,1.22
6006.00,1.22
6005.00,1.22
6004.00,1.22
6003.00,1.22
6002.00,1.22
6001.00,1.22
6000.00,1.22
5999.00,1.22
5998.00,1.22
5997.00,1.22
5996.00,1.22
5995.00,1.22
5994.00,1.22
5993.00,1.22
5992.00,1.22
5991.00,1.21
5990.00,1.21
5989.00,1.21
5988.00,1.21
5987.00,1.21
5986.00,1.21
5985.00,1.20
5984.00,1.20
5983.00,1.20
5982.00,1.19
5981.00,1.19
5980.00,1.19
5979.00,1.18
5978.00,1.18
5977.00,1.17
5976.00,1.17
5975.00,1.17
5974.00,1.16
5973.00,1.16
5972.00,1.15
5971.00,1.14
5970.00,1.14
5969.00,1.13
5968.00,1.13
5967.00,1.12
5966.00,1.11
5965.00,1.11
5964.00,1.10
5963.00,1.10
5962.00,1.09
5961.00,1.08
5960.00,1.08
5959.00,1.07
5958.00,1.07
5957.00,1.06
5956.00,1.05
5955.00,1.05
5954.00,1.04
5953.00,1.04
5952.00,1.03
5951.00,1.03
5950.00,1.02
5949.00,1.02
5948.00,1.02
5947.00,1.01
5946.00,1.01
5945.00,1.01
5944.00,1.00
5943.00,1.00
5942.00,1.00
5941.00,1.00
5940.00,1.00
5939.00,0.99
5938.00,0.99
5937.00,0.99
5936.00,0.99
5935.00,0.99
5934.00,0.99
5933.00,0.99
5932.00,0.99
5931.00,0.99
5930.00,0.98
5929.00,0.98
5928.00,0.98
5927.00,0.98
5926.00,0.98
5925.00,0.98
5924.00,0.97
5923.00,0.97
5922.00,0.97
5921.00,0.97
5920.00,0.97
5919.00,0.96
5918.00,0.96
5917.00,0.96
5916.00,0.96
5915.00,0.95
5914.00,0.95
5913.00,0.95
5912.00,0.95
5911.00,0.94
5910.00,0.94
5909.00,0.94
5908.00,0.94
5907.00,0.94
5906.00,0.94
5905.00,0.94
5904.00,0.94
5903.00,0.94
5902.00,0.94
5901.00,0.94
5900.00,0.94
5899.00,0.94
5898.00,0.94
5897.00,0.94
5896.00,0.94
5895.00,0.94
5894.00,0.94
5893.00,0.95
5892.00,0.95
5891.00,0.95
5890.00,0.95
5889.00,0.95
5888.00,0.95
5887.00,0.96
5886.00,0.96
5885.00,0.96
5884.00,0.96
5883.00,0.97
5882.00,0.97
5881.00,0.97
5880.00,0.97
5879.00,0.98
5878.00,0.98
5877.00,0.98
5876.00,0.98
5875.00,0.99
5874.00,0.99
5873.00,0.99
5872.00,0.99
5871.00,0.99
5870.00,1.00
5869.00,1.00
5868.00,1.00
5867.00,1.00
5866.00,1.00
5865.00,1.01
5864.00,1.01
5863.00,1.01
5862.00,1.01
5861.00,1.01
5860.00,1.01
5859.00,1.02
5858.00,1.02
5857.00,1.02
5856.00,1.02
5855.00,1.02
5854.00,1.02
5853.00,1.02
5852.00,1.02
5851.00,1.02
5850.00,1.02
5849.00,1.02
5848.00,1.02
5847.00,1.02
5846.00,1.03
5845.00,1.03
5844.00,1.03
5843.00,1.03
5842.00,1.03
5841.00,1.02
5840.00,1.02
5839.00,1.02
5838.00,1.02
5837.00,1.02
5836.00,1.02
5835.00,1.02
5834.00,1.02
5833.00,1.02
5832.00,1.02
5831.00,1.02
5830.00,1.02
5829.00,1.02
5828.00,1.02
5827.00,1.02
5826.00,1.02
5825.00,1.02
5824.00,1.02
5823.00,1.02
5822.00,1.02
5821.00,1.02
5820.00,1.02
5819.00,1.02
5818.00,1.02
5817.00,1.02
5816.00,1.02
5815.00,1.02
5814.00,1.03
5813.00,1.03
5812.00,1.03
5811.00,1.03
5810.00,1.03
5809.00,1.03
5808.00,1.03
5807.00,1.03
5806.00,1.03
5805.00,1.03
5804.00,1.03
5803.00,1.03
5802.00,1.03
5801.00,1.02
5800.00,1.02
5799.00,1.02
5798.00,1.02
5797.00,1.02
5796.00,1.02
5795.00,1.02
5794.00,1.02
5793.00,1.01
5792.00,1.01
5791.00,1.01
5790.00,1.01
5789.00,1.00
5788.00,1.00
5787.00,1.00
5786.00,1.00
5785.00,0.99
5784.00,0.99
5783.00,0.99
5782.00,0.99
5781.00,0.99
5780.00,0.98
5779.00,0.98
5778.00,0.98
5777.00,0.98
5776.00,0.98
5775.00,0.98
5774.00,0.98
5773.00,0.98
5772.00,0.98
5771.00,0.98
5770.00,0.98
5769.00,0.98
5768.00,0.98
5767.00,0.98
5766.00,0.99
5765.00,0.99
5764.00,0.99
5763.00,0.99
5762.00,0.99
5761.00,1.00
5760.00,1.00
5759.00,1.00
5758.00,1.00
5757.00,1.01
5756.00,1.01
5755.00,1.01
5754.00,1.02
5753.00,1.02
5752.00,1.02
5751.00,1.03
5750.00,1.03
5749.00,1.03
5748.00,1.04
5747.00,1.04
5746.00,1.04
5745.00,1.04
5744.00,1.05
5743.00,1.05
5742.00,1.05
5741.00,1.05
5740.00,1.06
5739.00,1.06
5738.00,1.06
5737.00,1.06
5736.00,1.07
5735.00,1.07
5734.00,1.07
5733.00,1.07
5732.00,1.07
5731.00,1.07
5730.00,1.08
5729.00,1.08
5728.00,1.08
5727.00,1.08
5726.00,1.08
5725.00,1.08
5724.00,1.08
5723.00,1.08
5722.00,1.08
5721.00,1.08
5720.00,1.08
5719.00,1.08
5718.00,1.09
5717.00,1.09
5716.00,1.09
5715.00,1.09
5714.00,1.09
5713.00,1.08
5712.00,1.08
5711.00,1.08
5710.00,1.08
5709.00,1.08
5708.00,1.08
5707.00,1.08
5706.00,1.08
5705.00,1.08
5704.00,1.08
5703.00,1.08
5702.00,1.08
5701.00,1.08
5700.00,1.08
5699.00,1.08
5698.00,1.07
5697.00,1.07
5696.00,1.07
5695.00,1.07
5694.00,1.07
5693.00,1.07
5692.00,1.07
5691.00,1.07
5690.00,1.06
5689.00,1.06
5688.00,1.06
5687.00,1.06
5686.00,1.06
5685.00,1.06
5684.00,1.05
5683.00,1.05
5682.00,1.05
5681.00,1.05
5680.00,1.05
5679.00,1.05
5678.00,1.05
5677.00,1.05
5676.00,1.04
5675.00,1.04
5674.00,1.04
5673.00,1.04
5672.00,1.04
5671.00,1.04
5670.00,1.04
5669.00,1.04
5668.00,1.05
5667.00,1.05
5666.00,1.05
5665.00,1.05
5664.00,1.05
5663.00,1.05
5662.00,1.05
5661.00,1.06
5660.00,1.06
5659.00,1.06
5658.00,1.06
5657.00,1.06
5656.00,1.07
5655.00,1.07
5654.00,1.07
5653.00,1.07
5652.00,1.07
5651.00,1.07
5650.00,1.08
5649.00,1.08
5648.00,1.08
5647.00,1.08
5646.00,1.08
5645.00,1.08
5644.00,1.09
5643.00,1.09
5642.00,1.09
5641.00,1.09
5640.00,1.09
5639.00,1.09
5638.00,1.09
5637.00,1.10
5636.00,1.10
5635.00,1.10
5634.00,1.10
5633.00,1.10
5632.00,1.10
5631.00,1.11
5630.00,1.11
5629.00,1.11
5628.00,1.11
5627.00,1.11
5626.00,1.11
5625.00,1.11
5624.00,1.11
5623.00,1.12
5622.00,1.12
5621.00,1.12
5620.00,1.12
5619.00,1.12
5618.00,1.12
5617.00,1.12
5616.00,1.13
5615.00,1.13
5614.00,1.13
5613.00,1.13
5612.00,1.13
5611.00,1.13
5610.00,1.13
5609.00,1.14
5608.00,1.14
5607.00,1.14
5606.00,1.14
5605.00,1.14
5604.00,1.14
5603.00,1.15
5602.00,1.15
5601.00,1.15
5600.00,1.15
5599.00,1.15
5598.00,1.16
5597.00,1.16
5596.00,1.16
5595.00,1.16
5594.00,1.16
5593.00,1.16
5592.00,1.16
5591.00,1.17
5590.00,1.17
5589.00,1.17
5588.00,1.17
5587.00,1.17
5586.00,1.17
5585.00,1.18
5584.00,1.18
5583.00,1.18
5582.00,1.18
5581.00,1.18
5580.00,1.18
5579.00,1.19
5578.00,1.19
5577.00,1.19
5576.00,1.19
5575.00,1.19
5574.00,1.19
5573.00,1.19
5572.00,1.20
5571.00,1.20
5570.00,1.20
5569.00,1.20
5568.00,1.20
5567.00,1.20
5566.00,1.20
5565.00,1.21
5564.00,1.21
5563.00,1.21
5562.00,1.21
5561.00,1.21
5560.00,1.21
5559.00,1.21
5558.00,1.21
5557.00,1.22
5556.00,1.22
5555.00,1.22
5554.00,1.22
5553.00,1.22
5552.00,1.22
5551.00,1.22
5550.00,1.22
5549.00,1.22
5548.00,1.23
5547.00,1.23
5546.00,1.23
5545.00,1.23
5544.00,1.23
5543.00,1.23
5542.00,1.23
5541.00,1.23
5540.00,1.23
5539.00,1.23
5538.00,1.24
5537.00,1.24
5536.00,1.24
5535.00,1.24
5534.00,1.24
5533.00,1.24
5532.00,1.24
5531.00,1.24
5530.00,1.24
5529.00,1.25
5528.00,1.25
5527.00,1.25
5526.00,1.25
5525.00,1.25
5524.00,1.25
5523.00,1.25
5522.00,1.25
5521.00,1.25
5520.00,1.25
5519.00,1.25
5518.00,1.25
5517.00,1.26
5516.00,1.26
5515.00,1.26
5514.00,1.26
5513.00,1.26
5512.00,1.26
5511.00,1.26
5510.00,1.26
5509.00,1.26
5508.00,1.26
5507.00,1.26
5506.00,1.26
5505.00,1.26
5504.00,1.26
5503.00,1.26
5502.00,1.26
5501.00,1.26
5500.00,1.26
5499.00,1.26
5498.00,1.26
5497.00,1.26
5496.00,1.26
5495.00,1.26
5494.00,1.26
5493.00,1.27
5492.00,1.27
5491.00,1.27
5490.00,1.27
5489.00,1.27
5488.00,1.27
5487.00,1.27
5486.00,1.28
5485.00,1.28
5484.00,1.28
5483.00,1.28
5482.00,1.28
5481.00,1.28
5480.00,1.29
5479.00,1.29
5478.00,1.29
5477.00,1.29
5476.00,1.29
5475.00,1.29
5474.00,1.30
5473.00,1.30
5472.00,1.30
5471.00,1.30
5470.00,1.30
5469.00,1.30
5468.00,1.30
5467.00,1.30
5466.00,1.31
5465.00,1.31
5464.00,1.31
5463.00,1.31
5462.00,1.31
5461.00,1.31
5460.00,1.31
5459.00,1.31
5458.00,1.31
5457.00,1.31
5456.00,1.31
5455.00,1.31
5454.00,1.31
5453.00,1.31
5452.00,1.31
5451.00,1.31
5450.00,1.31
5449.00,1.31
5448.00,1.31
5447.00,1.31
5446.00,1.31
5445.00,1.31
5444.00,1.31
5443.00,1.31
5442.00,1.31
5441.00,1.31
5440.00,1.31
5439.00,1.31
5438.00,1.31
5437.00,1.31
5436.00,1.31
5435.00,1.31
5434.00,1.31
5433.00,1.32
5432.00,1.32
5431.00,1.32
5430.00,1.32
5429.00,1.32
5428.00,1.32
5427.00,1.32
5426.00,1.32
5425.00,1.32
5424.00,1.32
5423.00,1.32
5422.00,1.32
5421.00,1.32
5420.00,1.32
5419.00,1.32
5418.00,1.32
5417.00,1.32
5416.00,1.32
5415.00,1.32
5414.00,1.32
5413.00,1.32
5412.00,1.31
5411.00,1.31
5410.00,1.31
5409.00,1.31
5408.00,1.31
5407.00,1.31
5406.00,1.31
5405.00,1.31
5404.00,1.31
5403.00,1.31
5402.00,1.31
5401.00,1.31
5400.00,1.31
5399.00,1.31
5398.00,1.31
5397.00,1.31
5396.00,1.31
5395.00,1.30
5394.00,1.30
5393.00,1.30
5392.00,1.30
5391.00,1.30
5390.00,1.30
5389.00,1.30
5388.00,1.30
5387.00,1.29
5386.00,1.29
5385.00,1.29
5384.00,1.29
5383.00,1.29
5382.00,1.28
5381.00,1.28
5380.00,1.28
5379.00,1.28
5378.00,1.27
5377.00,1.27
5376.00,1.27
5375.00,1.26
5374.00,1.26
5373.00,1.25
5372.00,1.25
5371.00,1.24
5370.00,1.24
5369.00,1.23
5368.00,1.23
5367.00,1.22
5366.00,1.22
5365.00,1.21
5364.00,1.20
5363.00,1.20
5362.00,1.19
5361.00,1.19
5360.00,1.18
5359.00,1.17
5358.00,1.16
5357.00,1.16
5356.00,1.15
5355.00,1.14
5354.00,1.14
5353.00,1.13
5352.00,1.12
5351.00,1.11
5350.00,1.11
5349.00,1.10
5348.00,1.09
5347.00,1.08
5346.00,1.07
5345.00,1.07
5344.00,1.06
5343.00,1.05
5342.00,1.04
5341.00,1.03
5340.00,1.03
5339.00,1.02
5338.00,1.01
5337.00,1.00
5336.00,0.99
5335.00,0.98
5334.00,0.98
5333.00,0.97
5332.00,0.96
5331.00,0.95
5330.00,0.94
5329.00,0.94
5328.00,0.93
5327.00,0.92
5326.00,0.91
5325.00,0.90
5324.00,0.90
5323.00,0.89
5322.00,0.88
5321.00,0.87
5320.00,0.87
5319.00,0.86
5318.00,0.85
5317.00,0.84
5316.00,0.84
5315.00,0.83
5314.00,0.82
5313.00,0.82
5312.00,0.81
5311.00,0.81
5310.00,0.80
5309.00,0.80
5308.00,0.79
5307.00,0.79
5306.00,0.78
5305.00,0.78
5304.00,0.77
5303.00,0.77
5302.00,0.77
5301.00,0.76
5300.00,0.76
5299.00,0.76
5298.00,0.76
5297.00,0.75
5296.00,0.75
5295.00,0.75
5294.00,0.75
5293.00,0.75
5292.00,0.75
5291.00,0.75
5290.00,0.74
5289.00,0.74
5288.00,0.74
5287.00,0.74
5286.00,0.74
5285.00,0.74
5284.00,0.74
5283.00,0.74
5282.00,0.74
5281.00,0.74
5280.00,0.74
5279.00,0.74
5278.00,0.74
5277.00,0.74
5276.00,0.74
5275.00,0.74
5274.00,0.74
5273.00,0.74
5272.00,0.74
5271.00,0.74
5270.00,0.74
5269.00,0.74
5268.00,0.74
5267.00,0.73
5266.00,0.73
5265.00,0.73
5264.00,0.73
5263.00,0.73
5262.00,0.73
5261.00,0.73
5260.00,0.73
5259.00,0.73
5258.00,0.73
5257.00,0.73
5256.00,0.73
5255.00,0.73
5254.00,0.73
5253.00,0.73
5252.00,0.73
5251.00,0.73
5250.00,0.73
5249.00,0.73
5248.00,0.73
5247.00,0.73
5246.00,0.73
5245.00,0.73
5244.00,0.73
5243.00,0.73
5242.00,0.74
5241.00,0.74
5240.00,0.74
5239.00,0.74
5238.00,0.74
5237.00,0.74
5236.00,0.74
5235.00,0.74
5234.00,0.74
5233.00,0.74
5232.00,0.75
5231.00,0.75
5230.00,0.75
5229.00,0.75
5228.00,0.75
5227.00,0.75
5226.00,0.75
5225.00,0.75
5224.00,0.75
5223.00,0.75
5222.00,0.75
5221.00,0.75
5220.00,0.75
5219.00,0.75
5218.00,0.75
5217.00,0.75
5216.00,0.75
5215.00,0.75
5214.00,0.75
5213.00,0.75
5212.00,0.75
5211.00,0.75
5210.00,0.75
5209.00,0.75
5208.00,0.75
5207.00,0.75
5206.00,0.75
5205.00,0.75
5204.00,0.75
5203.00,0.75
5202.00,0.75
5201.00,0.75
5200.00,0.75
5199.00,0.75
5198.00,0.75
5197.00,0.75
5196.00,0.75
5195.00,0.75
5194.00,0.75
5193.00,0.75
5192.00,0.75
5191.00,0.75
5190.00,0.75
5189.00,0.75
5188.00,0.75
5187.00,0.75
5186.00,0.75
5185.00,0.75
5184.00,0.76
5183.00,0.76
5182.00,0.76
5181.00,0.76
5180.00,0.76
5179.00,0.76
5178.00,0.76
5177.00,0.76
5176.00,0.76
5175.00,0.76
5174.00,0.76
5173.00,0.77
5172.00,0.77
5171.00,0.77
5170.00,0.77
5169.00,0.77
5168.00,0.77
5167.00,0.77
5166.00,0.77
5165.00,0.77
5164.00,0.77
5163.00,0.77
5162.00,0.77
5161.00,0.77
5160.00,0.77
5159.00,0.77
5158.00,0.77
5157.00,0.77
5156.00,0.77
5155.00,0.77
5154.00,0.77
5153.00,0.77
5152.00,0.77
5151.00,0.77
5150.00,0.77
5149.00,0.77
5148.00,0.77
5147.00,0.77
5146.00,0.77
5145.00,0.77
5144.00,0.77
5143.00,0.77
5142.00,0.77
5141.00,0.77
5140.00,0.77
5139.00,0.77
5138.00,0.77
5137.00,0.77
5136.00,0.77
5135.00,0.77
5134.00,0.77
5133.00,0.77
5132.00,0.78
5131.00,0.78
5130.00,0.78
5129.00,0.78
5128.00,0.78
5127.00,0.78
5126.00,0.78
5125.00,0.78
5124.00,0.78
5123.00,0.78
5122.00,0.78
5121.00,0.78
5120.00,0.78
5119.00,0.78
5118.00,0.78
5117.00,0.78
5116.00,0.78
5115.00,0.78
5114.00,0.78
5113.00,0.78
5112.00,0.78
5111.00,0.79
5110.00,0.79
5109.00,0.79
5108.00,0.79
5107.00,0.79
5106.00,0.79
5105.00,0.79
5104.00,0.79
5103.00,0.79
5102.00,0.79
5101.00,0.79
5100.00,0.79
5099.00,0.79
5098.00,0.79
5097.00,0.79
5096.00,0.79
5095.00,0.79
5094.00,0.79
5093.00,0.79
5092.00,0.79
5091.00,0.79
5090.00,0.79
5089.00,0.80
5088.00,0.80
5087.00,0.80
5086.00,0.80
5085.00,0.80
5084.00,0.80
5083.00,0.80
5082.00,0.80
5081.00,0.80
5080.00,0.80
5079.00,0.80
5078.00,0.80
5077.00,0.80
5076.00,0.80
5075.00,0.80
5074.00,0.80
5073.00,0.80
5072.00,0.80
5071.00,0.81
5070.00,0.81
5069.00,0.81
5068.00,0.81
5067.00,0.81
5066.00,0.81
5065.00,0.81
5064.00,0.81
5063.00,0.81
5062.00,0.81
5061.00,0.81
5060.00,0.81
5059.00,0.81
5058.00,0.81
5057.00,0.81
5056.00,0.81
5055.00,0.82
5054.00,0.82
5053.00,0.82
5052.00,0.82
5051.00,0.82
5050.00,0.82
5049.00,0.82
5048.00,0.82
5047.00,0.82
5046.00,0.82
5045.00,0.82
5044.00,0.82
5043.00,0.82
5042.00,0.82
5041.00,0.82
5040.00,0.82
5039.00,0.82
5038.00,0.82
5037.00,0.82
5036.00,0.82
5035.00,0.82
5034.00,0.82
5033.00,0.82
5032.00,0.82
5031.00,0.82
5030.00,0.83
5029.00,0.83
5028.00,0.83
5027.00,0.83
5026.00,0.83
5025.00,0.83
5024.00,0.83
5023.00,0.83
5022.00,0.83
5021.00,0.83
5020.00,0.83
5019.00,0.83
5018.00,0.83
5017.00,0.83
5016.00,0.83
5015.00,0.84
5014.00,0.84
5013.00,0.84
5012.00,0.84
5011.00,0.84
5010.00,0.84
5009.00,0.84
5008.00,0.84
5007.00,0.84
5006.00,0.84
5005.00,0.84
5004.00,0.84
5003.00,0.84
5002.00,0.84
5001.00,0.84
5000.00,0.84
4999.00,0.84
4998.00,0.84
4997.00,0.84
4996.00,0.84
4995.00,0.84
4994.00,0.84
4993.00,0.84
4992.00,0.84
4991.00,0.84
4990.00,0.85
4989.00,0.85
4988.00,0.85
4987.00,0.85
4986.00,0.85
4985.00,0.85
4984.00,0.85
4983.00,0.85
4982.00,0.85
4981.00,0.85
4980.00,0.85
4979.00,0.86
4978.00,0.86
4977.00,0.86
4976.00,0.86
4975.00,0.86
4974.00,0.86
4973.00,0.86
4972.00,0.86
4971.00,0.86
4970.00,0.86
4969.00,0.86
4968.00,0.86
4967.00,0.86
4966.00,0.86
4965.00,0.86
4964.00,0.86
4963.00,0.86
4962.00,0.86
4961.00,0.86
4960.00,0.86
4959.00,0.86
4958.00,0.86
4957.00,0.86
4956.00,0.86
4955.00,0.86
4954.00,0.86
4953.00,0.87
4952.00,0.87
4951.00,0.87
4950.00,0.87
4949.00,0.87
4948.00,0.87
4947.00,0.87
4946.00,0.87
4945.00,0.87
4944.00,0.87
4943.00,0.87
4942.00,0.87
4941.00,0.88
4940.00,0.88
4939.00,0.88
4938.00,0.88
4937.00,0.88
4936.00,0.88
4935.00,0.88
4934.00,0.88
4933.00,0.88
4932.00,0.88
4931.00,0.88
4930.00,0.89
4929.00,0.89
4928.00,0.89
4927.00,0.89
4926.00,0.89
4925.00,0.89
4924.00,0.89
4923.00,0.89
4922.00,0.89
4921.00,0.89
4920.00,0.89
4919.00,0.89
4918.00,0.89
4917.00,0.89
4916.00,0.89
4915.00,0.89
4914.00,0.89
4913.00,0.89
4912.00,0.89
4911.00,0.89
4910.00,0.89
4909.00,0.89
4908.00,0.89
4907.00,0.90
4906.00,0.90
4905.00,0.90
4904.00,0.90
4903.00,0.90
4902.00,0.90
4901.00,0.90
4900.00,0.90
4899.00,0.90
4898.00,0.90
4897.00,0.90
4896.00,0.90
4895.00,0.90
4894.00,0.90
4893.00,0.90
4892.00,0.90
4891.00,0.90
4890.00,0.90
4889.00,0.90
4888.00,0.90
4887.00,0.90
4886.00,0.90
4885.00,0.90
4884.00,0.90
4883.00,0.90
4882.00,0.91
4881.00,0.91
4880.00,0.91
4879.00,0.91
4878.00,0.91
4877.00,0.91
4876.00,0.91
4875.00,0.91
4874.00,0.91
4873.00,0.91
4872.00,0.91
4871.00,0.91
4870.00,0.91
4869.00,0.91
4868.00,0.91
4867.00,0.91
4866.00,0.91
4865.00,0.91
4864.00,0.91
4863.00,0.92
4862.00,0.92
4861.00,0.92
4860.00,0.92
4859.00,0.92
4858.00,0.92
4857.00,0.92
4856.00,0.92
4855.00,0.92
4854.00,0.92
4853.00,0.92
4852.00,0.92
4851.00,0.92
4850.00,0.92
4849.00,0.92
4848.00,0.92
4847.00,0.92
4846.00,0.92
4845.00,0.92
4844.00,0.92
4843.00,0.93
4842.00,0.93
4841.00,0.93
4840.00,0.93
4839.00,0.93
4838.00,0.93
4837.00,0.93
4836.00,0.93
4835.00,0.93
4834.00,0.93
4833.00,0.93
4832.00,0.93
4831.00,0.93
4830.00,0.93
4829.00,0.93
4828.00,0.94
4827.00,0.94
4826.00,0.94
4825.00,0.94
4824.00,0.94
4823.00,0.94
4822.00,0.94
4821.00,0.94
4820.00,0.94
4819.00,0.94
4818.00,0.94
4817.00,0.94
4816.00,0.94
4815.00,0.94
4814.00,0.94
4813.00,0.95
4812.00,0.95
4811.00,0.95
4810.00,0.95
4809.00,0.95
4808.00,0.95
4807.00,0.95
4806.00,0.95
4805.00,0.95
4804.00,0.95
4803.00,0.95
4802.00,0.95
4801.00,0.95
4800.00,0.95
4799.00,0.95
4798.00,0.95
4797.00,0.95
4796.00,0.95
4795.00,0.95
4794.00,0.95
4793.00,0.95
4792.00,0.95
4791.00,0.95
4790.00,0.95
4789.00,0.95
4788.00,0.95
4787.00,0.96
4786.00,0.96
4785.00,0.96
4784.00,0.96
4783.00,0.96
4782.00,0.96
4781.00,0.96
4780.00,0.96
4779.00,0.96
4778.00,0.96
4777.00,0.96
4776.00,0.97
4775.00,0.97
4774.00,0.97
4773.00,0.97
4772.00,0.97
4771.00,0.97
4770.00,0.97
4769.00,0.97
4768.00,0.98
4767.00,0.98
4766.00,0.98
4765.00,0.98
4764.00,0.98
4763.00,0.98
4762.00,0.99
4761.00,0.99
4760.00,0.99
4759.00,0.99
4758.00,0.99
4757.00,0.99
4756.00,0.99
4755.00,0.99
4754.00,0.99
4753.00,0.99
4752.00,0.99
4751.00,0.99
4750.00,0.99
4749.00,0.99
4748.00,1.00
4747.00,1.00
4746.00,1.00
4745.00,1.00
4744.00,1.00
4743.00,1.00
4742.00,1.00
4741.00,1.00
4740.00,1.00
4739.00,1.00
4738.00,1.00
4737.00,1.00
4736.00,1.00
4735.00,1.00
4734.00,1.01
4733.00,1.01
4732.00,1.01
4731.00,1.01
4730.00,1.01
4729.00,1.01
4728.00,1.01
4727.00,1.01
4726.00,1.01
4725.00,1.01
4724.00,1.01
4723.00,1.01
4722.00,1.01
4721.00,1.02
4720.00,1.02
4719.00,1.02
4718.00,1.02
4717.00,1.02
4716.00,1.02
4715.00,1.03
4714.00,1.03
4713.00,1.03
4712.00,1.03
4711.00,1.03
4710.00,1.03
4709.00,1.04
4708.00,1.04
4707.00,1.04
4706.00,1.04
4705.00,1.04
4704.00,1.04
4703.00,1.04
4702.00,1.04
4701.00,1.04
4700.00,1.05
4699.00,1.05
4698.00,1.05
4697.00,1.05
4696.00,1.05
4695.00,1.05
4694.00,1.05
4693.00,1.05
4692.00,1.05
4691.00,1.05
4690.00,1.05
4689.00,1.05
4688.00,1.05
4687.00,1.05
4686.00,1.06
4685.00,1.06
4684.00,1.06
4683.00,1.06
4682.00,1.06
4681.00,1.06
4680.00,1.06
4679.00,1.06
4678.00,1.06
4677.00,1.06
4676.00,1.06
4675.00,1.06
4674.00,1.06
4673.00,1.07
4672.00,1.07
4671.00,1.07
4670.00,1.07
4669.00,1.07
4668.00,1.07
4667.00,1.07
4666.00,1.07
4665.00,1.08
4664.00,1.08
4663.00,1.08
4662.00,1.08
4661.00,1.08
4660.00,1.08
4659.00,1.08
4658.00,1.09
4657.00,1.09
4656.00,1.09
4655.00,1.09
4654.00,1.09
4653.00,1.09
4652.00,1.09
4651.00,1.10
4650.00,1.10
4649.00,1.10
4648.00,1.10
4647.00,1.10
4646.00,1.10
4645.00,1.10
4644.00,1.10
4643.00,1.10
4642.00,1.11
4641.00,1.11
4640.00,1.11
4639.00,1.11
4638.00,1.11
4637.00,1.11
4636.00,1.11
4635.00,1.11
4634.00,1.11
4633.00,1.11
4632.00,1.11
4631.00,1.11
4630.00,1.11
4629.00,1.11
4628.00,1.11
4627.00,1.11
4626.00,1.12
4625.00,1.12
4624.00,1.12
4623.00,1.12
4622.00,1.12
4621.00,1.12
4620.00,1.12
4619.00,1.12
4618.00,1.12
4617.00,1.12
4616.00,1.12
4615.00,1.12
4614.00,1.12
4613.00,1.12
4612.00,1.12
4611.00,1.12
4610.00,1.12
4609.00,1.12
4608.00,1.13
4607.00,1.13
4606.00,1.13
4605.00,1.13
4604.00,1.13
4603.00,1.13
4602.00,1.13
4601.00,1.13
4600.00,1.13
4599.00,1.13
4598.00,1.13
4597.00,1.13
4596.00,1.13
4595.00,1.13
4594.00,1.13
4593.00,1.14
4592.00,1.14
4591.00,1.14
4590.00,1.14
4589.00,1.14
4588.00,1.14
4587.00,1.14
4586.00,1.14
4585.00,1.14
4584.00,1.14
4583.00,1.14
4582.00,1.14
4581.00,1.14
4580.00,1.14
4579.00,1.14
4578.00,1.14
4577.00,1.15
4576.00,1.15
4575.00,1.15
4574.00,1.15
4573.00,1.15
4572.00,1.15
4571.00,1.15
4570.00,1.15
4569.00,1.15
4568.00,1.15
4567.00,1.15
4566.00,1.15
4565.00,1.15
4564.00,1.15
4563.00,1.15
4562.00,1.15
4561.00,1.15
4560.00,1.15
4559.00,1.15
4558.00,1.15
4557.00,1.15
4556.00,1.15
4555.00,1.15
4554.00,1.15
4553.00,1.15
4552.00,1.15
4551.00,1.15
4550.00,1.16
4549.00,1.16
4548.00,1.16
4547.00,1.16
4546.00,1.16
4545.00,1.16
4544.00,1.16
4543.00,1.16
4542.00,1.16
4541.00,1.16
4540.00,1.16
4539.00,1.16
4538.00,1.16
4537.00,1.16
4536.00,1.16
4535.00,1.16
4534.00,1.16
4533.00,1.16
4532.00,1.17
4531.00,1.17
4530.00,1.17
4529.00,1.17
4528.00,1.17
4527.00,1.17
4526.00,1.17
4525.00,1.17
4524.00,1.17
4523.00,1.17
4522.00,1.17
4521.00,1.17
4520.00,1.17
4519.00,1.17
4518.00,1.18
4517.00,1.18
4516.00,1.18
4515.00,1.18
4514.00,1.18
4513.00,1.18
4512.00,1.18
4511.00,1.18
4510.00,1.18
4509.00,1.18
4508.00,1.18
4507.00,1.18
4506.00,1.17
4505.00,1.17
4504.00,1.17
4503.00,1.17
4502.00,1.17
4501.00,1.17
4500.00,1.17
4499.00,1.17
4498.00,1.17
4497.00,1.17
4496.00,1.17
4495.00,1.17
4494.00,1.17
4493.00,1.17
4492.00,1.17
4491.00,1.17
4490.00,1.17
4489.00,1.17
4488.00,1.17
4487.00,1.17
4486.00,1.17
4485.00,1.17
4484.00,1.17
4483.00,1.17
4482.00,1.17
4481.00,1.17
4480.00,1.17
4479.00,1.16
4478.00,1.16
4477.00,1.16
4476.00,1.16
4475.00,1.16
4474.00,1.16
4473.00,1.16
4472.00,1.16
4471.00,1.16
4470.00,1.15
4469.00,1.15
4468.00,1.15
4467.00,1.15
4466.00,1.15
4465.00,1.15
4464.00,1.14
4463.00,1.14
4462.00,1.14
4461.00,1.14
4460.00,1.14
4459.00,1.14
4458.00,1.13
4457.00,1.13
4456.00,1.13
4455.00,1.13
4454.00,1.13
4453.00,1.12
4452.00,1.12
4451.00,1.12
4450.00,1.12
4449.00,1.12
4448.00,1.11
4447.00,1.11
4446.00,1.11
4445.00,1.11
4444.00,1.11
4443.00,1.11
4442.00,1.11
4441.00,1.11
4440.00,1.10
4439.00,1.10
4438.00,1.10
4437.00,1.10
4436.00,1.10
4435.00,1.10
4434.00,1.10
4433.00,1.10
4432.00,1.09
4431.00,1.09
4430.00,1.09
4429.00,1.09
4428.00,1.09
4427.00,1.09
4426.00,1.09
4425.00,1.09
4424.00,1.08
4423.00,1.08
4422.00,1.08
4421.00,1.08
4420.00,1.08
4419.00,1.08
4418.00,1.08
4417.00,1.08
4416.00,1.08
4415.00,1.08
4414.00,1.08
4413.00,1.08
4412.00,1.08
4411.00,1.08
4410.00,1.08
4409.00,1.08
4408.00,1.08
4407.00,1.08
4406.00,1.09
4405.00,1.09
4404.00,1.09
4403.00,1.09
4402.00,1.09
4401.00,1.09
4400.00,1.09
4399.00,1.09
4398.00,1.09
4397.00,1.09
4396.00,1.09
4395.00,1.10
4394.00,1.10
4393.00,1.10
4392.00,1.10
4391.00,1.10
4390.00,1.10
4389.00,1.10
4388.00,1.10
4387.00,1.10
4386.00,1.10
4385.00,1.10
4384.00,1.10
4383.00,1.10
4382.00,1.10
4381.00,1.10
4380.00,1.10
4379.00,1.10
4378.00,1.10
4377.00,1.10
4376.00,1.11
4375.00,1.11
4374.00,1.11
4373.00,1.11
4372.00,1.11
4371.00,1.11
4370.00,1.11
4369.00,1.11
4368.00,1.11
4367.00,1.11
4366.00,1.11
4365.00,1.12
4364.00,1.12
4363.00,1.12
4362.00,1.12
4361.00,1.12
4360.00,1.12
4359.00,1.12
4358.00,1.12
4357.00,1.12
4356.00,1.12
4355.00,1.12
4354.00,1.12
4353.00,1.12
4352.00,1.12
4351.00,1.12
4350.00,1.12
4349.00,1.12
4348.00,1.12
4347.00,1.12
4346.00,1.12
4345.00,1.12
4344.00,1.12
4343.00,1.12
4342.00,1.12
4341.00,1.12
4340.00,1.12
4339.00,1.12
4338.00,1.12
4337.00,1.12
4336.00,1.12
4335.00,1.12
4334.00,1.12
4333.00,1.12
4332.00,1.12
4331.00,1.12
4330.00,1.12
4329.00,1.12
4328.00,1.13
4327.00,1.13
4326.00,1.13
4325.00,1.13
4324.00,1.13
4323.00,1.13
4322.00,1.13
4321.00,1.14
4320.00,1.14
4319.00,1.14
4318.00,1.14
4317.00,1.14
4316.00,1.14
4315.00,1.14
4314.00,1.14
4313.00,1.14
4312.00,1.14
4311.00,1.14
4310.00,1.14
4309.00,1.14
4308.00,1.14
4307.00,1.14
4306.00,1.14
4305.00,1.14
4304.00,1.14
4303.00,1.14
4302.00,1.14
4301.00,1.14
4300.00,1.15
4299.00,1.15
4298.00,1.15
4297.00,1.15
4296.00,1.15
4295.00,1.15
4294.00,1.15
4293.00,1.15
4292.00,1.15
4291.00,1.16
4290.00,1.16
4289.00,1.16
4288.00,1.16
4287.00,1.16
4286.00,1.16
4285.00,1.16
4284.00,1.16
4283.00,1.16
4282.00,1.17
4281.00,1.17
4280.00,1.17
4279.00,1.17
4278.00,1.17
4277.00,1.17
4276.00,1.17
4275.00,1.17
4274.00,1.17
4273.00,1.17
4272.00,1.17
4271.00,1.17
4270.00,1.17
4269.00,1.17
4268.00,1.17
4267.00,1.17
4266.00,1.17
4265.00,1.17
4264.00,1.17
4263.00,1.17
4262.00,1.17
4261.00,1.17
4260.00,1.17
4259.00,1.17
4258.00,1.17
4257.00,1.17
4256.00,1.17
4255.00,1.17
4254.00,1.17
4253.00,1.17
4252.00,1.17
4251.00,1.17
4250.00,1.18
4249.00,1.18
4248.00,1.18
4247.00,1.18
4246.00,1.18
4245.00,1.18
4244.00,1.18
4243.00,1.18
4242.00,1.18
4241.00,1.18
4240.00,1.18
4239.00,1.18
4238.00,1.18
4237.00,1.18
4236.00,1.18
4235.00,1.19
4234.00,1.19
4233.00,1.19
4232.00,1.19
4231.00,1.19
4230.00,1.19
4229.00,1.19
4228.00,1.19
4227.00,1.19
4226.00,1.19
4225.00,1.19
4224.00,1.20
4223.00,1.20
4222.00,1.20
4221.00,1.20
4220.00,1.20
4219.00,1.20
4218.00,1.20
4217.00,1.20
4216.00,1.20
4215.00,1.21
4214.00,1.21
4213.00,1.21
4212.00,1.21
4211.00,1.21
4210.00,1.21
4209.00,1.21
4208.00,1.21
4207.00,1.21
4206.00,1.21
4205.00,1.21
4204.00,1.21
4203.00,1.21
4202.00,1.21
4201.00,1.21
4200.00,1.21
4199.00,1.21
4198.00,1.21
4197.00,1.21
4196.00,1.21
4195.00,1.21
4194.00,1.21
4193.00,1.21
4192.00,1.21
4191.00,1.21
4190.00,1.22
4189.00,1.22
4188.00,1.22
4187.00,1.22
4186.00,1.22
4185.00,1.22
4184.00,1.22
4183.00,1.22
4182.00,1.22
4181.00,1.22
4180.00,1.23
4179.00,1.23
4178.00,1.23
4177.00,1.23
4176.00,1.23
4175.00,1.23
4174.00,1.23
4173.00,1.23
4172.00,1.23
4171.00,1.23
4170.00,1.23
4169.00,1.23
4168.00,1.23
4167.00,1.23
4166.00,1.23
4165.00,1.23
4164.00,1.23
4163.00,1.23
4162.00,1.23
4161.00,1.23
4160.00,1.23
4159.00,1.23
4158.00,1.23
4157.00,1.23
4156.00,1.23
4155.00,1.23
4154.00,1.23
4153.00,1.23
4152.00,1.23
4151.00,1.23
4150.00,1.23
4149.00,1.23
4148.00,1.23
4147.00,1.23
4146.00,1.23
4145.00,1.23
4144.00,1.23
4143.00,1.23
4142.00,1.23
4141.00,1.23
4140.00,1.23
4139.00,1.23
4138.00,1.23
4137.00,1.23
4136.00,1.23
4135.00,1.24
4134.00,1.24
4133.00,1.24
4132.00,1.24
4131.00,1.24
4130.00,1.24
4129.00,1.24
4128.00,1.25
4127.00,1.25
4126.00,1.25
4125.00,1.25
4124.00,1.25
4123.00,1.25
4122.00,1.25
4121.00,1.25
4120.00,1.25
4119.00,1.25
4118.00,1.25
4117.00,1.25
4116.00,1.25
4115.00,1.25
4114.00,1.25
4113.00,1.25
4112.00,1.25
4111.00,1.25
4110.00,1.25
4109.00,1.25
4108.00,1.25
4107.00,1.25
4106.00,1.25
4105.00,1.25
4104.00,1.25
4103.00,1.25
4102.00,1.25
4101.00,1.26
4100.00,1.26
4099.00,1.26
4098.00,1.26
4097.00,1.26
4096.00,1.26
4095.00,1.26
4094.00,1.26
4093.00,1.26
4092.00,1.26
4091.00,1.26
4090.00,1.26
4089.00,1.26
4088.00,1.26
4087.00,1.26
4086.00,1.26
4085.00,1.26
4084.00,1.26
4083.00,1.26
4082.00,1.26
4081.00,1.26
4080.00,1.26
4079.00,1.26
4078.00,1.26
4077.00,1.26
4076.00,1.26
4075.00,1.27
4074.00,1.27
4073.00,1.27
4072.00,1.27
4071.00,1.27
4070.00,1.27
4069.00,1.27
4068.00,1.27
4067.00,1.27
4066.00,1.27
4065.00,1.27
4064.00,1.27
4063.00,1.28
4062.00,1.28
4061.00,1.28
4060.00,1.28
4059.00,1.28
4058.00,1.28
4057.00,1.28
4056.00,1.29
4055.00,1.29
4054.00,1.29
4053.00,1.29
4052.00,1.29
4051.00,1.29
4050.00,1.29
4049.00,1.29
4048.00,1.29
4047.00,1.29
4046.00,1.29
4045.00,1.29
4044.00,1.29
4043.00,1.29
4042.00,1.29
4041.00,1.29
4040.00,1.29
4039.00,1.29
4038.00,1.29
4037.00,1.29
4036.00,1.29
4035.00,1.29
4034.00,1.29
4033.00,1.29
4032.00,1.29
4031.00,1.29
4030.00,1.29
4029.00,1.30
4028.00,1.30
4027.00,1.30
4026.00,1.30
4025.00,1.30
4024.00,1.30
4023.00,1.30
4022.00,1.30
4021.00,1.30
4020.00,1.30
4019.00,1.30
4018.00,1.30
4017.00,1.30
4016.00,1.31
4015.00,1.31
4014.00,1.31
4013.00,1.31
4012.00,1.31
4011.00,1.31
4010.00,1.31
4009.00,1.31
4008.00,1.31
4007.00,1.31
4006.00,1.31
4005.00,1.31
4004.00,1.31
4003.00,1.32
4002.00,1.32
4001.00,1.32
4000.00,1.32
