创建为新数据集,样品 163 用户 Administrator 日期 星期六, 七月 21 2018
cm-1,%T
10000.00,1.29
9999.00,1.29
9998.00,1.29
9997.00,1.29
9996.00,1.29
9995.00,1.29
9994.00,1.29
9993.00,1.29
9992.00,1.29
9991.00,1.29
9990.00,1.29
9989.00,1.29
9988.00,1.29
9987.00,1.29
9986.00,1.29
9985.00,1.29
9984.00,1.29
9983.00,1.29
9982.00,1.29
9981.00,1.28
9980.00,1.28
9979.00,1.28
9978.00,1.28
9977.00,1.27
9976.00,1.27
9975.00,1.27
9974.00,1.27
9973.00,1.26
9972.00,1.26
9971.00,1.26
9970.00,1.26
9969.00,1.26
9968.00,1.26
9967.00,1.26
9966.00,1.26
9965.00,1.26
9964.00,1.26
9963.00,1.26
9962.00,1.26
9961.00,1.26
9960.00,1.26
9959.00,1.27
9958.00,1.27
9957.00,1.27
9956.00,1.27
9955.00,1.27
9954.00,1.28
9953.00,1.28
9952.00,1.28
9951.00,1.28
9950.00,1.28
9949.00,1.28
9948.00,1.28
9947.00,1.28
9946.00,1.28
9945.00,1.28
9944.00,1.28
9943.00,1.28
9942.00,1.28
9941.00,1.27
9940.00,1.27
9939.00,1.27
9938.00,1.26
9937.00,1.26
9936.00,1.25
9935.00,1.25
9934.00,1.25
9933.00,1.24
9932.00,1.24
9931.00,1.24
9930.00,1.24
9929.00,1.24
9928.00,1.23
9927.00,1.23
9926.00,1.23
9925.00,1.23
9924.00,1.23
9923.00,1.24
9922.00,1.24
9921.00,1.24
9920.00,1.24
9919.00,1.24
9918.00,1.25
9917.00,1.25
9916.00,1.25
9915.00,1.25
9914.00,1.26
9913.00,1.26
9912.00,1.26
9911.00,1.26
9910.00,1.26
9909.00,1.26
9908.00,1.26
9907.00,1.26
9906.00,1.26
9905.00,1.26
9904.00,1.25
9903.00,1.25
9902.00,1.25
9901.00,1.25
9900.00,1.25
9899.00,1.25
9898.00,1.25
9897.00,1.25
9896.00,1.25
9895.00,1.25
9894.00,1.25
9893.00,1.25
9892.00,1.25
9891.00,1.25
9890.00,1.25
9889.00,1.26
9888.00,1.26
9887.00,1.26
9886.00,1.26
9885.00,1.26
9884.00,1.26
9883.00,1.26
9882.00,1.26
9881.00,1.26
9880.00,1.26
9879.00,1.26
9878.00,1.26
9877.00,1.26
9876.00,1.26
9875.00,1.27
9874.00,1.27
9873.00,1.27
9872.00,1.27
9871.00,1.27
9870.00,1.27
9869.00,1.28
9868.00,1.28
9867.00,1.28
9866.00,1.28
9865.00,1.28
9864.00,1.29
9863.00,1.29
9862.00,1.29
9861.00,1.29
9860.00,1.29
9859.00,1.29
9858.00,1.29
9857.00,1.29
9856.00,1.29
9855.00,1.29
9854.00,1.29
9853.00,1.29
9852.00,1.28
9851.00,1.28
9850.00,1.28
9849.00,1.28
9848.00,1.28
9847.00,1.28
9846.00,1.28
9845.00,1.28
9844.00,1.28
9843.00,1.28
9842.00,1.28
9841.00,1.28
9840.00,1.28
9839.00,1.28
9838.00,1.28
9837.00,1.28
9836.00,1.28
9835.00,1.28
9834.00,1.28
9833.00,1.28
9832.00,1.27
9831.00,1.27
9830.00,1.27
9829.00,1.27
9828.00,1.27
9827.00,1.27
9826.00,1.27
9825.00,1.27
9824.00,1.27
9823.00,1.27
9822.00,1.27
9821.00,1.27
9820.00,1.27
9819.00,1.27
9818.00,1.27
9817.00,1.27
9816.00,1.27
9815.00,1.27
9814.00,1.27
9813.00,1.27
9812.00,1.27
9811.00,1.27
9810.00,1.27
9809.00,1.27
9808.00,1.27
9807.00,1.27
9806.00,1.27
9805.00,1.28
9804.00,1.28
9803.00,1.28
9802.00,1.28
9801.00,1.28
9800.00,1.28
9799.00,1.28
9798.00,1.28
9797.00,1.28
9796.00,1.28
9795.00,1.28
9794.00,1.28
9793.00,1.28
9792.00,1.28
9791.00,1.28
9790.00,1.28
9789.00,1.28
9788.00,1.28
9787.00,1.28
9786.00,1.28
9785.00,1.28
9784.00,1.28
9783.00,1.28
9782.00,1.28
9781.00,1.28
9780.00,1.28
9779.00,1.28
9778.00,1.28
9777.00,1.28
9776.00,1.28
9775.00,1.28
9774.00,1.28
9773.00,1.28
9772.00,1.27
9771.00,1.27
9770.00,1.27
9769.00,1.27
9768.00,1.27
9767.00,1.27
9766.00,1.27
9765.00,1.27
9764.00,1.27
9763.00,1.27
9762.00,1.27
9761.00,1.27
9760.00,1.26
9759.00,1.26
9758.00,1.26
9757.00,1.26
9756.00,1.26
9755.00,1.26
9754.00,1.26
9753.00,1.26
9752.00,1.26
9751.00,1.26
9750.00,1.26
9749.00,1.26
9748.00,1.26
9747.00,1.26
9746.00,1.26
9745.00,1.26
9744.00,1.26
9743.00,1.27
9742.00,1.27
9741.00,1.27
9740.00,1.27
9739.00,1.27
9738.00,1.27
9737.00,1.27
9736.00,1.28
9735.00,1.28
9734.00,1.28
9733.00,1.28
9732.00,1.28
9731.00,1.28
9730.00,1.29
9729.00,1.29
9728.00,1.29
9727.00,1.29
9726.00,1.29
9725.00,1.29
9724.00,1.29
9723.00,1.29
9722.00,1.29
9721.00,1.28
9720.00,1.28
9719.00,1.28
9718.00,1.28
9717.00,1.28
9716.00,1.27
9715.00,1.27
9714.00,1.27
9713.00,1.27
9712.00,1.27
9711.00,1.27
9710.00,1.26
9709.00,1.26
9708.00,1.26
9707.00,1.26
9706.00,1.26
9705.00,1.26
9704.00,1.26
9703.00,1.26
9702.00,1.26
9701.00,1.26
9700.00,1.26
9699.00,1.26
9698.00,1.26
9697.00,1.26
9696.00,1.26
9695.00,1.26
9694.00,1.27
9693.00,1.27
9692.00,1.27
9691.00,1.27
9690.00,1.27
9689.00,1.27
9688.00,1.27
9687.00,1.27
9686.00,1.27
9685.00,1.27
9684.00,1.27
9683.00,1.27
9682.00,1.27
9681.00,1.26
9680.00,1.26
9679.00,1.26
9678.00,1.26
9677.00,1.26
9676.00,1.26
9675.00,1.26
9674.00,1.26
9673.00,1.26
9672.00,1.26
9671.00,1.26
9670.00,1.25
9669.00,1.25
9668.00,1.25
9667.00,1.25
9666.00,1.25
9665.00,1.26
9664.00,1.26
9663.00,1.26
9662.00,1.26
9661.00,1.26
9660.00,1.26
9659.00,1.26
9658.00,1.26
9657.00,1.26
9656.00,1.26
9655.00,1.27
9654.00,1.27
9653.00,1.27
9652.00,1.27
9651.00,1.27
9650.00,1.27
9649.00,1.27
9648.00,1.28
9647.00,1.28
9646.00,1.28
9645.00,1.28
9644.00,1.28
9643.00,1.28
9642.00,1.28
9641.00,1.28
9640.00,1.28
9639.00,1.28
9638.00,1.28
9637.00,1.28
9636.00,1.28
9635.00,1.28
9634.00,1.28
9633.00,1.28
9632.00,1.28
9631.00,1.28
9630.00,1.28
9629.00,1.28
9628.00,1.27
9627.00,1.27
9626.00,1.27
9625.00,1.27
9624.00,1.27
9623.00,1.27
9622.00,1.27
9621.00,1.26
9620.00,1.26
9619.00,1.26
9618.00,1.26
9617.00,1.26
9616.00,1.26
9615.00,1.26
9614.00,1.26
9613.00,1.26
9612.00,1.26
9611.00,1.26
9610.00,1.26
9609.00,1.26
9608.00,1.26
9607.00,1.26
9606.00,1.26
9605.00,1.26
9604.00,1.27
9603.00,1.27
9602.00,1.27
9601.00,1.27
9600.00,1.27
9599.00,1.27
9598.00,1.27
9597.00,1.27
9596.00,1.28
9595.00,1.28
9594.00,1.28
9593.00,1.28
9592.00,1.28
9591.00,1.28
9590.00,1.28
9589.00,1.28
9588.00,1.28
9587.00,1.28
9586.00,1.28
9585.00,1.28
9584.00,1.28
9583.00,1.28
9582.00,1.28
9581.00,1.27
9580.00,1.27
9579.00,1.27
9578.00,1.27
9577.00,1.27
9576.00,1.27
9575.00,1.27
9574.00,1.27
9573.00,1.27
9572.00,1.27
9571.00,1.27
9570.00,1.27
9569.00,1.27
9568.00,1.27
9567.00,1.27
9566.00,1.27
9565.00,1.27
9564.00,1.27
9563.00,1.27
9562.00,1.27
9561.00,1.27
9560.00,1.27
9559.00,1.27
9558.00,1.27
9557.00,1.27
9556.00,1.27
9555.00,1.27
9554.00,1.27
9553.00,1.26
9552.00,1.26
9551.00,1.26
9550.00,1.26
9549.00,1.26
9548.00,1.26
9547.00,1.25
9546.00,1.25
9545.00,1.25
9544.00,1.25
9543.00,1.25
9542.00,1.25
9541.00,1.25
9540.00,1.25
9539.00,1.25
9538.00,1.25
9537.00,1.25
9536.00,1.25
9535.00,1.26
9534.00,1.26
9533.00,1.26
9532.00,1.26
9531.00,1.26
9530.00,1.26
9529.00,1.26
9528.00,1.27
9527.00,1.27
9526.00,1.27
9525.00,1.27
9524.00,1.27
9523.00,1.27
9522.00,1.27
9521.00,1.27
9520.00,1.27
9519.00,1.27
9518.00,1.27
9517.00,1.27
9516.00,1.27
9515.00,1.27
9514.00,1.27
9513.00,1.27
9512.00,1.26
9511.00,1.26
9510.00,1.26
9509.00,1.26
9508.00,1.26
9507.00,1.26
9506.00,1.26
9505.00,1.26
9504.00,1.26
9503.00,1.26
9502.00,1.26
9501.00,1.26
9500.00,1.26
9499.00,1.26
9498.00,1.26
9497.00,1.26
9496.00,1.26
9495.00,1.26
9494.00,1.26
9493.00,1.26
9492.00,1.26
9491.00,1.26
9490.00,1.26
9489.00,1.26
9488.00,1.26
9487.00,1.26
9486.00,1.26
9485.00,1.27
9484.00,1.27
9483.00,1.27
9482.00,1.27
9481.00,1.27
9480.00,1.27
9479.00,1.27
9478.00,1.27
9477.00,1.27
9476.00,1.27
9475.00,1.27
9474.00,1.28
9473.00,1.28
9472.00,1.28
9471.00,1.28
9470.00,1.28
9469.00,1.28
9468.00,1.28
9467.00,1.28
9466.00,1.27
9465.00,1.27
9464.00,1.27
9463.00,1.27
9462.00,1.27
9461.00,1.27
9460.00,1.27
9459.00,1.27
9458.00,1.27
9457.00,1.27
9456.00,1.27
9455.00,1.27
9454.00,1.27
9453.00,1.27
9452.00,1.26
9451.00,1.26
9450.00,1.26
9449.00,1.26
9448.00,1.26
9447.00,1.25
9446.00,1.25
9445.00,1.25
9444.00,1.25
9443.00,1.25
9442.00,1.25
9441.00,1.24
9440.00,1.24
9439.00,1.24
9438.00,1.24
9437.00,1.24
9436.00,1.24
9435.00,1.24
9434.00,1.24
9433.00,1.24
9432.00,1.25
9431.00,1.25
9430.00,1.25
9429.00,1.25
9428.00,1.25
9427.00,1.25
9426.00,1.25
9425.00,1.25
9424.00,1.26
9423.00,1.26
9422.00,1.26
9421.00,1.26
9420.00,1.26
9419.00,1.26
9418.00,1.27
9417.00,1.27
9416.00,1.27
9415.00,1.27
9414.00,1.27
9413.00,1.27
9412.00,1.27
9411.00,1.27
9410.00,1.27
9409.00,1.27
9408.00,1.27
9407.00,1.27
9406.00,1.27
9405.00,1.27
9404.00,1.27
9403.00,1.28
9402.00,1.28
9401.00,1.28
9400.00,1.28
9399.00,1.28
9398.00,1.28
9397.00,1.28
9396.00,1.28
9395.00,1.28
9394.00,1.28
9393.00,1.28
9392.00,1.28
9391.00,1.28
9390.00,1.28
9389.00,1.28
9388.00,1.28
9387.00,1.28
9386.00,1.28
9385.00,1.28
9384.00,1.28
9383.00,1.28
9382.00,1.28
9381.00,1.28
9380.00,1.28
9379.00,1.28
9378.00,1.28
9377.00,1.28
9376.00,1.28
9375.00,1.28
9374.00,1.28
9373.00,1.28
9372.00,1.28
9371.00,1.27
9370.00,1.27
9369.00,1.27
9368.00,1.27
9367.00,1.27
9366.00,1.27
9365.00,1.27
9364.00,1.27
9363.00,1.27
9362.00,1.27
9361.00,1.27
9360.00,1.27
9359.00,1.27
9358.00,1.27
9357.00,1.27
9356.00,1.27
9355.00,1.27
9354.00,1.28
9353.00,1.28
9352.00,1.28
9351.00,1.28
9350.00,1.28
9349.00,1.28
9348.00,1.28
9347.00,1.28
9346.00,1.28
9345.00,1.28
9344.00,1.28
9343.00,1.27
9342.00,1.27
9341.00,1.27
9340.00,1.27
9339.00,1.27
9338.00,1.26
9337.00,1.26
9336.00,1.26
9335.00,1.26
9334.00,1.25
9333.00,1.25
9332.00,1.25
9331.00,1.25
9330.00,1.25
9329.00,1.25
9328.00,1.25
9327.00,1.25
9326.00,1.25
9325.00,1.25
9324.00,1.25
9323.00,1.26
9322.00,1.26
9321.00,1.26
9320.00,1.26
9319.00,1.26
9318.00,1.26
9317.00,1.26
9316.00,1.27
9315.00,1.27
9314.00,1.27
9313.00,1.27
9312.00,1.27
9311.00,1.27
9310.00,1.27
9309.00,1.27
9308.00,1.27
9307.00,1.27
9306.00,1.27
9305.00,1.27
9304.00,1.27
9303.00,1.28
9302.00,1.28
9301.00,1.28
9300.00,1.28
9299.00,1.28
9298.00,1.28
9297.00,1.28
9296.00,1.28
9295.00,1.28
9294.00,1.28
9293.00,1.28
9292.00,1.28
9291.00,1.28
9290.00,1.28
9289.00,1.28
9288.00,1.28
9287.00,1.28
9286.00,1.28
9285.00,1.28
9284.00,1.28
9283.00,1.28
9282.00,1.28
9281.00,1.28
9280.00,1.28
9279.00,1.28
9278.00,1.28
9277.00,1.28
9276.00,1.28
9275.00,1.28
9274.00,1.28
9273.00,1.28
9272.00,1.28
9271.00,1.28
9270.00,1.27
9269.00,1.27
9268.00,1.27
9267.00,1.27
9266.00,1.27
9265.00,1.27
9264.00,1.26
9263.00,1.26
9262.00,1.26
9261.00,1.26
9260.00,1.26
9259.00,1.26
9258.00,1.25
9257.00,1.25
9256.00,1.25
9255.00,1.25
9254.00,1.25
9253.00,1.25
9252.00,1.25
9251.00,1.25
9250.00,1.25
9249.00,1.25
9248.00,1.26
9247.00,1.26
9246.00,1.26
9245.00,1.26
9244.00,1.27
9243.00,1.27
9242.00,1.27
9241.00,1.27
9240.00,1.28
9239.00,1.28
9238.00,1.28
9237.00,1.28
9236.00,1.28
9235.00,1.28
9234.00,1.28
9233.00,1.28
9232.00,1.28
9231.00,1.28
9230.00,1.28
9229.00,1.28
9228.00,1.28
9227.00,1.28
9226.00,1.27
9225.00,1.27
9224.00,1.27
9223.00,1.27
9222.00,1.27
9221.00,1.27
9220.00,1.27
9219.00,1.27
9218.00,1.27
9217.00,1.27
9216.00,1.27
9215.00,1.27
9214.00,1.27
9213.00,1.27
9212.00,1.27
9211.00,1.27
9210.00,1.27
9209.00,1.27
9208.00,1.27
9207.00,1.27
9206.00,1.27
9205.00,1.27
9204.00,1.27
9203.00,1.27
9202.00,1.27
9201.00,1.26
9200.00,1.26
9199.00,1.26
9198.00,1.26
9197.00,1.26
9196.00,1.26
9195.00,1.26
9194.00,1.26
9193.00,1.26
9192.00,1.26
9191.00,1.26
9190.00,1.26
9189.00,1.26
9188.00,1.26
9187.00,1.25
9186.00,1.25
9185.00,1.25
9184.00,1.25
9183.00,1.25
9182.00,1.25
9181.00,1.25
9180.00,1.25
9179.00,1.25
9178.00,1.25
9177.00,1.25
9176.00,1.25
9175.00,1.25
9174.00,1.25
9173.00,1.25
9172.00,1.25
9171.00,1.25
9170.00,1.25
9169.00,1.25
9168.00,1.25
9167.00,1.25
9166.00,1.25
9165.00,1.25
9164.00,1.25
9163.00,1.25
9162.00,1.25
9161.00,1.26
9160.00,1.26
9159.00,1.26
9158.00,1.26
9157.00,1.26
9156.00,1.26
9155.00,1.26
9154.00,1.26
9153.00,1.26
9152.00,1.26
9151.00,1.25
9150.00,1.25
9149.00,1.25
9148.00,1.25
9147.00,1.25
9146.00,1.25
9145.00,1.25
9144.00,1.25
9143.00,1.25
9142.00,1.25
9141.00,1.25
9140.00,1.25
9139.00,1.25
9138.00,1.25
9137.00,1.25
9136.00,1.25
9135.00,1.25
9134.00,1.25
9133.00,1.25
9132.00,1.26
9131.00,1.26
9130.00,1.26
9129.00,1.26
9128.00,1.26
9127.00,1.26
9126.00,1.27
9125.00,1.27
9124.00,1.27
9123.00,1.27
9122.00,1.28
9121.00,1.28
9120.00,1.28
9119.00,1.28
9118.00,1.28
9117.00,1.29
9116.00,1.29
9115.00,1.29
9114.00,1.29
9113.00,1.29
9112.00,1.29
9111.00,1.29
9110.00,1.29
9109.00,1.29
9108.00,1.29
9107.00,1.28
9106.00,1.28
9105.00,1.28
9104.00,1.28
9103.00,1.28
9102.00,1.28
9101.00,1.27
9100.00,1.27
9099.00,1.27
9098.00,1.27
9097.00,1.26
9096.00,1.26
9095.00,1.26
9094.00,1.26
9093.00,1.25
9092.00,1.25
9091.00,1.25
9090.00,1.25
9089.00,1.25
9088.00,1.25
9087.00,1.25
9086.00,1.25
9085.00,1.24
9084.00,1.24
9083.00,1.24
9082.00,1.24
9081.00,1.24
9080.00,1.24
9079.00,1.25
9078.00,1.25
9077.00,1.25
9076.00,1.25
9075.00,1.25
9074.00,1.25
9073.00,1.25
9072.00,1.25
9071.00,1.25
9070.00,1.26
9069.00,1.26
9068.00,1.26
9067.00,1.26
9066.00,1.26
9065.00,1.26
9064.00,1.26
9063.00,1.26
9062.00,1.26
9061.00,1.26
9060.00,1.26
9059.00,1.26
9058.00,1.25
9057.00,1.25
9056.00,1.25
9055.00,1.25
9054.00,1.25
9053.00,1.25
9052.00,1.25
9051.00,1.25
9050.00,1.25
9049.00,1.25
9048.00,1.25
9047.00,1.26
9046.00,1.26
9045.00,1.26
9044.00,1.26
9043.00,1.26
9042.00,1.26
9041.00,1.26
9040.00,1.27
9039.00,1.27
9038.00,1.27
9037.00,1.27
9036.00,1.27
9035.00,1.27
9034.00,1.27
9033.00,1.27
9032.00,1.27
9031.00,1.27
9030.00,1.27
9029.00,1.27
9028.00,1.27
9027.00,1.27
9026.00,1.27
9025.00,1.27
9024.00,1.27
9023.00,1.27
9022.00,1.27
9021.00,1.28
9020.00,1.28
9019.00,1.28
9018.00,1.28
9017.00,1.28
9016.00,1.28
9015.00,1.28
9014.00,1.28
9013.00,1.28
9012.00,1.28
9011.00,1.28
9010.00,1.28
9009.00,1.28
9008.00,1.28
9007.00,1.28
9006.00,1.28
9005.00,1.28
9004.00,1.28
9003.00,1.28
9002.00,1.28
9001.00,1.27
9000.00,1.27
8999.00,1.27
8998.00,1.27
8997.00,1.27
8996.00,1.26
8995.00,1.26
8994.00,1.26
8993.00,1.26
8992.00,1.26
8991.00,1.26
8990.00,1.26
8989.00,1.26
8988.00,1.26
8987.00,1.26
8986.00,1.26
8985.00,1.26
8984.00,1.26
8983.00,1.26
8982.00,1.26
8981.00,1.26
8980.00,1.26
8979.00,1.27
8978.00,1.27
8977.00,1.27
8976.00,1.27
8975.00,1.27
8974.00,1.27
8973.00,1.27
8972.00,1.27
8971.00,1.27
8970.00,1.26
8969.00,1.26
8968.00,1.26
8967.00,1.26
8966.00,1.26
8965.00,1.26
8964.00,1.26
8963.00,1.25
8962.00,1.25
8961.00,1.25
8960.00,1.25
8959.00,1.25
8958.00,1.25
8957.00,1.25
8956.00,1.24
8955.00,1.24
8954.00,1.24
8953.00,1.24
8952.00,1.24
8951.00,1.24
8950.00,1.25
8949.00,1.25
8948.00,1.25
8947.00,1.25
8946.00,1.25
8945.00,1.25
8944.00,1.26
8943.00,1.26
8942.00,1.26
8941.00,1.26
8940.00,1.26
8939.00,1.27
8938.00,1.27
8937.00,1.27
8936.00,1.27
8935.00,1.27
8934.00,1.27
8933.00,1.27
8932.00,1.27
8931.00,1.27
8930.00,1.27
8929.00,1.27
8928.00,1.27
8927.00,1.27
8926.00,1.27
8925.00,1.27
8924.00,1.27
8923.00,1.27
8922.00,1.27
8921.00,1.27
8920.00,1.27
8919.00,1.27
8918.00,1.27
8917.00,1.27
8916.00,1.27
8915.00,1.27
8914.00,1.27
8913.00,1.27
8912.00,1.27
8911.00,1.27
8910.00,1.27
8909.00,1.28
8908.00,1.28
8907.00,1.28
8906.00,1.28
8905.00,1.28
8904.00,1.28
8903.00,1.28
8902.00,1.28
8901.00,1.28
8900.00,1.28
8899.00,1.28
8898.00,1.28
8897.00,1.28
8896.00,1.27
8895.00,1.27
8894.00,1.27
8893.00,1.27
8892.00,1.27
8891.00,1.27
8890.00,1.26
8889.00,1.26
8888.00,1.26
8887.00,1.26
8886.00,1.26
8885.00,1.26
8884.00,1.26
8883.00,1.26
8882.00,1.26
8881.00,1.26
8880.00,1.26
8879.00,1.26
8878.00,1.26
8877.00,1.26
8876.00,1.27
8875.00,1.27
8874.00,1.27
8873.00,1.27
8872.00,1.27
8871.00,1.27
8870.00,1.27
8869.00,1.27
8868.00,1.27
8867.00,1.27
8866.00,1.27
8865.00,1.26
8864.00,1.26
8863.00,1.26
8862.00,1.26
8861.00,1.26
8860.00,1.26
8859.00,1.26
8858.00,1.25
8857.00,1.25
8856.00,1.25
8855.00,1.25
8854.00,1.25
8853.00,1.25
8852.00,1.25
8851.00,1.25
8850.00,1.25
8849.00,1.25
8848.00,1.25
8847.00,1.25
8846.00,1.25
8845.00,1.25
8844.00,1.25
8843.00,1.25
8842.00,1.25
8841.00,1.25
8840.00,1.25
8839.00,1.24
8838.00,1.24
8837.00,1.24
8836.00,1.24
8835.00,1.24
8834.00,1.24
8833.00,1.23
8832.00,1.23
8831.00,1.23
8830.00,1.23
8829.00,1.23
8828.00,1.23
8827.00,1.23
8826.00,1.23
8825.00,1.23
8824.00,1.23
8823.00,1.23
8822.00,1.23
8821.00,1.23
8820.00,1.23
8819.00,1.23
8818.00,1.23
8817.00,1.23
8816.00,1.23
8815.00,1.23
8814.00,1.23
8813.00,1.23
8812.00,1.24
8811.00,1.24
8810.00,1.24
8809.00,1.24
8808.00,1.24
8807.00,1.24
8806.00,1.24
8805.00,1.24
8804.00,1.24
8803.00,1.24
8802.00,1.24
8801.00,1.24
8800.00,1.23
8799.00,1.23
8798.00,1.23
8797.00,1.23
8796.00,1.23
8795.00,1.23
8794.00,1.23
8793.00,1.23
8792.00,1.23
8791.00,1.23
8790.00,1.23
8789.00,1.23
8788.00,1.23
8787.00,1.23
8786.00,1.23
8785.00,1.23
8784.00,1.23
8783.00,1.23
8782.00,1.23
8781.00,1.23
8780.00,1.23
8779.00,1.23
8778.00,1.23
8777.00,1.23
8776.00,1.23
8775.00,1.23
8774.00,1.22
8773.00,1.22
8772.00,1.22
8771.00,1.22
8770.00,1.22
8769.00,1.21
8768.00,1.21
8767.00,1.21
8766.00,1.21
8765.00,1.21
8764.00,1.20
8763.00,1.20
8762.00,1.20
8761.00,1.20
8760.00,1.20
8759.00,1.20
8758.00,1.20
8757.00,1.20
8756.00,1.20
8755.00,1.20
8754.00,1.20
8753.00,1.20
8752.00,1.20
8751.00,1.20
8750.00,1.21
8749.00,1.21
8748.00,1.21
8747.00,1.21
8746.00,1.21
8745.00,1.21
8744.00,1.21
8743.00,1.21
8742.00,1.21
8741.00,1.21
8740.00,1.21
8739.00,1.21
8738.00,1.21
8737.00,1.21
8736.00,1.21
8735.00,1.21
8734.00,1.21
8733.00,1.21
8732.00,1.21
8731.00,1.21
8730.00,1.21
8729.00,1.20
8728.00,1.20
8727.00,1.20
8726.00,1.20
8725.00,1.20
8724.00,1.19
8723.00,1.19
8722.00,1.19
8721.00,1.19
8720.00,1.19
8719.00,1.19
8718.00,1.19
8717.00,1.19
8716.00,1.19
8715.00,1.19
8714.00,1.19
8713.00,1.19
8712.00,1.19
8711.00,1.19
8710.00,1.19
8709.00,1.19
8708.00,1.19
8707.00,1.19
8706.00,1.19
8705.00,1.19
8704.00,1.19
8703.00,1.20
8702.00,1.20
8701.00,1.20
8700.00,1.20
8699.00,1.20
8698.00,1.20
8697.00,1.20
8696.00,1.20
8695.00,1.19
8694.00,1.19
8693.00,1.19
8692.00,1.19
8691.00,1.19
8690.00,1.19
8689.00,1.19
8688.00,1.19
8687.00,1.19
8686.00,1.18
8685.00,1.18
8684.00,1.18
8683.00,1.18
8682.00,1.18
8681.00,1.18
8680.00,1.18
8679.00,1.18
8678.00,1.18
8677.00,1.18
8676.00,1.18
8675.00,1.18
8674.00,1.18
8673.00,1.18
8672.00,1.18
8671.00,1.18
8670.00,1.18
8669.00,1.18
8668.00,1.18
8667.00,1.18
8666.00,1.18
8665.00,1.18
8664.00,1.18
8663.00,1.18
8662.00,1.18
8661.00,1.18
8660.00,1.18
8659.00,1.18
8658.00,1.18
8657.00,1.18
8656.00,1.18
8655.00,1.17
8654.00,1.17
8653.00,1.17
8652.00,1.17
8651.00,1.17
8650.00,1.17
8649.00,1.17
8648.00,1.17
8647.00,1.17
8646.00,1.17
8645.00,1.17
8644.00,1.17
8643.00,1.17
8642.00,1.17
8641.00,1.17
8640.00,1.16
8639.00,1.16
8638.00,1.16
8637.00,1.16
8636.00,1.16
8635.00,1.16
8634.00,1.16
8633.00,1.15
8632.00,1.15
8631.00,1.15
8630.00,1.15
8629.00,1.15
8628.00,1.15
8627.00,1.15
8626.00,1.14
8625.00,1.14
8624.00,1.14
8623.00,1.14
8622.00,1.14
8621.00,1.14
8620.00,1.14
8619.00,1.14
8618.00,1.14
8617.00,1.14
8616.00,1.14
8615.00,1.15
8614.00,1.15
8613.00,1.15
8612.00,1.15
8611.00,1.15
8610.00,1.15
8609.00,1.15
8608.00,1.15
8607.00,1.15
8606.00,1.15
8605.00,1.15
8604.00,1.15
8603.00,1.15
8602.00,1.15
8601.00,1.15
8600.00,1.15
8599.00,1.15
8598.00,1.15
8597.00,1.15
8596.00,1.15
8595.00,1.15
8594.00,1.15
8593.00,1.14
8592.00,1.14
8591.00,1.14
8590.00,1.14
8589.00,1.14
8588.00,1.13
8587.00,1.13
8586.00,1.13
8585.00,1.13
8584.00,1.12
8583.00,1.12
8582.00,1.12
8581.00,1.12
8580.00,1.12
8579.00,1.11
8578.00,1.11
8577.00,1.11
8576.00,1.11
8575.00,1.11
8574.00,1.11
8573.00,1.11
8572.00,1.11
8571.00,1.11
8570.00,1.11
8569.00,1.12
8568.00,1.12
8567.00,1.12
8566.00,1.12
8565.00,1.12
8564.00,1.12
8563.00,1.12
8562.00,1.12
8561.00,1.13
8560.00,1.13
8559.00,1.13
8558.00,1.13
8557.00,1.13
8556.00,1.13
8555.00,1.13
8554.00,1.13
8553.00,1.12
8552.00,1.12
8551.00,1.12
8550.00,1.12
8549.00,1.12
8548.00,1.12
8547.00,1.11
8546.00,1.11
8545.00,1.11
8544.00,1.11
8543.00,1.11
8542.00,1.10
8541.00,1.10
8540.00,1.10
8539.00,1.10
8538.00,1.09
8537.00,1.09
8536.00,1.09
8535.00,1.09
8534.00,1.09
8533.00,1.09
8532.00,1.09
8531.00,1.09
8530.00,1.09
8529.00,1.09
8528.00,1.09
8527.00,1.09
8526.00,1.09
8525.00,1.09
8524.00,1.09
8523.00,1.09
8522.00,1.09
8521.00,1.09
8520.00,1.09
8519.00,1.09
8518.00,1.09
8517.00,1.09
8516.00,1.09
8515.00,1.09
8514.00,1.09
8513.00,1.09
8512.00,1.09
8511.00,1.09
8510.00,1.09
8509.00,1.08
8508.00,1.08
8507.00,1.08
8506.00,1.08
8505.00,1.08
8504.00,1.08
8503.00,1.08
8502.00,1.08
8501.00,1.08
8500.00,1.08
8499.00,1.08
8498.00,1.08
8497.00,1.08
8496.00,1.08
8495.00,1.08
8494.00,1.08
8493.00,1.07
8492.00,1.07
8491.00,1.07
8490.00,1.07
8489.00,1.07
8488.00,1.07
8487.00,1.06
8486.00,1.06
8485.00,1.06
8484.00,1.06
8483.00,1.06
8482.00,1.06
8481.00,1.06
8480.00,1.05
8479.00,1.05
8478.00,1.05
8477.00,1.05
8476.00,1.05
8475.00,1.05
8474.00,1.05
8473.00,1.05
8472.00,1.05
8471.00,1.05
8470.00,1.05
8469.00,1.05
8468.00,1.04
8467.00,1.04
8466.00,1.04
8465.00,1.04
8464.00,1.04
8463.00,1.04
8462.00,1.04
8461.00,1.04
8460.00,1.04
8459.00,1.04
8458.00,1.04
8457.00,1.04
8456.00,1.04
8455.00,1.04
8454.00,1.03
8453.00,1.03
8452.00,1.03
8451.00,1.03
8450.00,1.03
8449.00,1.03
8448.00,1.03
8447.00,1.03
8446.00,1.02
8445.00,1.02
8444.00,1.02
8443.00,1.02
8442.00,1.02
8441.00,1.02
8440.00,1.01
8439.00,1.01
8438.00,1.01
8437.00,1.01
8436.00,1.01
8435.00,1.01
8434.00,1.01
8433.00,1.01
8432.00,1.01
8431.00,1.01
8430.00,1.01
8429.00,1.01
8428.00,1.01
8427.00,1.01
8426.00,1.01
8425.00,1.01
8424.00,1.02
8423.00,1.02
8422.00,1.02
8421.00,1.02
8420.00,1.02
8419.00,1.03
8418.00,1.03
8417.00,1.03
8416.00,1.03
8415.00,1.03
8414.00,1.03
8413.00,1.04
8412.00,1.04
8411.00,1.04
8410.00,1.04
8409.00,1.04
8408.00,1.04
8407.00,1.04
8406.00,1.04
8405.00,1.04
8404.00,1.04
8403.00,1.05
8402.00,1.05
8401.00,1.05
8400.00,1.05
8399.00,1.05
8398.00,1.05
8397.00,1.05
8396.00,1.05
8395.00,1.06
8394.00,1.06
8393.00,1.06
8392.00,1.06
8391.00,1.06
8390.00,1.06
8389.00,1.06
8388.00,1.07
8387.00,1.07
8386.00,1.07
8385.00,1.07
8384.00,1.07
8383.00,1.07
8382.00,1.07
8381.00,1.07
8380.00,1.08
8379.00,1.08
8378.00,1.08
8377.00,1.08
8376.00,1.08
8375.00,1.08
8374.00,1.08
8373.00,1.08
8372.00,1.08
8371.00,1.09
8370.00,1.09
8369.00,1.09
8368.00,1.09
8367.00,1.09
8366.00,1.09
8365.00,1.09
8364.00,1.09
8363.00,1.09
8362.00,1.10
8361.00,1.10
8360.00,1.10
8359.00,1.10
8358.00,1.10
8357.00,1.10
8356.00,1.10
8355.00,1.10
8354.00,1.10
8353.00,1.10
8352.00,1.10
8351.00,1.10
8350.00,1.10
8349.00,1.10
8348.00,1.10
8347.00,1.10
8346.00,1.10
8345.00,1.10
8344.00,1.10
8343.00,1.10
8342.00,1.10
8341.00,1.10
8340.00,1.10
8339.00,1.10
8338.00,1.10
8337.00,1.10
8336.00,1.10
8335.00,1.10
8334.00,1.10
8333.00,1.10
8332.00,1.10
8331.00,1.10
8330.00,1.10
8329.00,1.10
8328.00,1.10
8327.00,1.10
8326.00,1.10
8325.00,1.10
8324.00,1.10
8323.00,1.10
8322.00,1.10
8321.00,1.09
8320.00,1.09
8319.00,1.09
8318.00,1.09
8317.00,1.09
8316.00,1.09
8315.00,1.09
8314.00,1.09
8313.00,1.09
8312.00,1.09
8311.00,1.09
8310.00,1.09
8309.00,1.09
8308.00,1.09
8307.00,1.09
8306.00,1.09
8305.00,1.09
8304.00,1.09
8303.00,1.09
8302.00,1.10
8301.00,1.10
8300.00,1.10
8299.00,1.10
8298.00,1.10
8297.00,1.10
8296.00,1.10
8295.00,1.10
8294.00,1.10
8293.00,1.10
8292.00,1.11
8291.00,1.11
8290.00,1.11
8289.00,1.11
8288.00,1.11
8287.00,1.11
8286.00,1.11
8285.00,1.10
8284.00,1.10
8283.00,1.10
8282.00,1.10
8281.00,1.10
8280.00,1.10
8279.00,1.10
8278.00,1.10
8277.00,1.10
8276.00,1.10
8275.00,1.10
8274.00,1.10
8273.00,1.10
8272.00,1.10
8271.00,1.10
8270.00,1.10
8269.00,1.11
8268.00,1.11
8267.00,1.11
8266.00,1.11
8265.00,1.11
8264.00,1.11
8263.00,1.11
8262.00,1.11
8261.00,1.11
8260.00,1.11
8259.00,1.12
8258.00,1.12
8257.00,1.12
8256.00,1.12
8255.00,1.12
8254.00,1.12
8253.00,1.12
8252.00,1.12
8251.00,1.12
8250.00,1.12
8249.00,1.12
8248.00,1.11
8247.00,1.11
8246.00,1.11
8245.00,1.11
8244.00,1.11
8243.00,1.11
8242.00,1.11
8241.00,1.11
8240.00,1.11
8239.00,1.11
8238.00,1.12
8237.00,1.12
8236.00,1.12
8235.00,1.12
8234.00,1.12
8233.00,1.12
8232.00,1.12
8231.00,1.12
8230.00,1.12
8229.00,1.12
8228.00,1.12
8227.00,1.13
8226.00,1.13
8225.00,1.13
8224.00,1.13
8223.00,1.13
8222.00,1.13
8221.00,1.13
8220.00,1.13
8219.00,1.13
8218.00,1.13
8217.00,1.13
8216.00,1.13
8215.00,1.13
8214.00,1.13
8213.00,1.13
8212.00,1.13
8211.00,1.13
8210.00,1.13
8209.00,1.13
8208.00,1.13
8207.00,1.13
8206.00,1.13
8205.00,1.13
8204.00,1.14
8203.00,1.14
8202.00,1.14
8201.00,1.14
8200.00,1.14
8199.00,1.14
8198.00,1.14
8197.00,1.14
8196.00,1.14
8195.00,1.14
8194.00,1.14
8193.00,1.15
8192.00,1.15
8191.00,1.15
8190.00,1.15
8189.00,1.15
8188.00,1.15
8187.00,1.15
8186.00,1.15
8185.00,1.15
8184.00,1.15
8183.00,1.15
8182.00,1.15
8181.00,1.15
8180.00,1.15
8179.00,1.15
8178.00,1.15
8177.00,1.15
8176.00,1.15
8175.00,1.15
8174.00,1.15
8173.00,1.15
8172.00,1.15
8171.00,1.15
8170.00,1.15
8169.00,1.15
8168.00,1.15
8167.00,1.15
8166.00,1.15
8165.00,1.15
8164.00,1.15
8163.00,1.15
8162.00,1.15
8161.00,1.15
8160.00,1.16
8159.00,1.16
8158.00,1.16
8157.00,1.16
8156.00,1.16
8155.00,1.16
8154.00,1.16
8153.00,1.16
8152.00,1.17
8151.00,1.17
8150.00,1.17
8149.00,1.17
8148.00,1.17
8147.00,1.17
8146.00,1.17
8145.00,1.18
8144.00,1.18
8143.00,1.18
8142.00,1.18
8141.00,1.18
8140.00,1.18
8139.00,1.18
8138.00,1.18
8137.00,1.18
8136.00,1.18
8135.00,1.18
8134.00,1.18
8133.00,1.18
8132.00,1.18
8131.00,1.18
8130.00,1.18
8129.00,1.18
8128.00,1.18
8127.00,1.18
8126.00,1.18
8125.00,1.18
8124.00,1.19
8123.00,1.19
8122.00,1.19
8121.00,1.19
8120.00,1.19
8119.00,1.19
8118.00,1.19
8117.00,1.19
8116.00,1.19
8115.00,1.19
8114.00,1.20
8113.00,1.20
8112.00,1.20
8111.00,1.20
8110.00,1.20
8109.00,1.20
8108.00,1.20
8107.00,1.20
8106.00,1.20
8105.00,1.20
8104.00,1.20
8103.00,1.19
8102.00,1.19
8101.00,1.19
8100.00,1.19
8099.00,1.19
8098.00,1.19
8097.00,1.19
8096.00,1.19
8095.00,1.19
8094.00,1.19
8093.00,1.19
8092.00,1.19
8091.00,1.19
8090.00,1.19
8089.00,1.19
8088.00,1.19
8087.00,1.19
8086.00,1.19
8085.00,1.19
8084.00,1.20
8083.00,1.20
8082.00,1.20
8081.00,1.20
8080.00,1.20
8079.00,1.20
8078.00,1.21
8077.00,1.21
8076.00,1.21
8075.00,1.21
8074.00,1.21
8073.00,1.21
8072.00,1.21
8071.00,1.22
8070.00,1.22
8069.00,1.22
8068.00,1.22
8067.00,1.22
8066.00,1.22
8065.00,1.22
8064.00,1.22
8063.00,1.22
8062.00,1.22
8061.00,1.22
8060.00,1.22
8059.00,1.22
8058.00,1.22
8057.00,1.22
8056.00,1.22
8055.00,1.21
8054.00,1.21
8053.00,1.21
8052.00,1.21
8051.00,1.21
8050.00,1.21
8049.00,1.21
8048.00,1.21
8047.00,1.21
8046.00,1.21
8045.00,1.21
8044.00,1.21
8043.00,1.21
8042.00,1.22
8041.00,1.22
8040.00,1.22
8039.00,1.22
8038.00,1.22
8037.00,1.22
8036.00,1.22
8035.00,1.22
8034.00,1.22
8033.00,1.22
8032.00,1.22
8031.00,1.22
8030.00,1.22
8029.00,1.23
8028.00,1.23
8027.00,1.23
8026.00,1.23
8025.00,1.23
8024.00,1.23
8023.00,1.23
8022.00,1.23
8021.00,1.23
8020.00,1.23
8019.00,1.23
8018.00,1.23
8017.00,1.23
8016.00,1.23
8015.00,1.23
8014.00,1.23
8013.00,1.23
8012.00,1.23
8011.00,1.23
8010.00,1.23
8009.00,1.23
8008.00,1.23
8007.00,1.23
8006.00,1.23
8005.00,1.23
8004.00,1.23
8003.00,1.23
8002.00,1.23
8001.00,1.23
8000.00,1.23
7999.00,1.23
7998.00,1.23
7997.00,1.23
7996.00,1.23
7995.00,1.24
7994.00,1.24
7993.00,1.24
7992.00,1.24
7991.00,1.24
7990.00,1.24
7989.00,1.24
7988.00,1.24
7987.00,1.24
7986.00,1.24
7985.00,1.24
7984.00,1.24
7983.00,1.24
7982.00,1.25
7981.00,1.25
7980.00,1.25
7979.00,1.25
7978.00,1.25
7977.00,1.25
7976.00,1.24
7975.00,1.24
7974.00,1.24
7973.00,1.24
7972.00,1.24
7971.00,1.24
7970.00,1.24
7969.00,1.24
7968.00,1.24
7967.00,1.24
7966.00,1.24
7965.00,1.23
7964.00,1.23
7963.00,1.23
7962.00,1.23
7961.00,1.23
7960.00,1.23
7959.00,1.23
7958.00,1.23
7957.00,1.23
7956.00,1.23
7955.00,1.23
7954.00,1.23
7953.00,1.23
7952.00,1.23
7951.00,1.23
7950.00,1.23
7949.00,1.23
7948.00,1.23
7947.00,1.23
7946.00,1.24
7945.00,1.24
7944.00,1.24
7943.00,1.24
7942.00,1.24
7941.00,1.24
7940.00,1.24
7939.00,1.25
7938.00,1.25
7937.00,1.25
7936.00,1.25
7935.00,1.25
7934.00,1.25
7933.00,1.25
7932.00,1.25
7931.00,1.25
7930.00,1.25
7929.00,1.25
7928.00,1.25
7927.00,1.25
7926.00,1.25
7925.00,1.25
7924.00,1.25
7923.00,1.25
7922.00,1.25
7921.00,1.25
7920.00,1.25
7919.00,1.25
7918.00,1.25
7917.00,1.25
7916.00,1.25
7915.00,1.25
7914.00,1.25
7913.00,1.25
7912.00,1.25
7911.00,1.25
7910.00,1.25
7909.00,1.25
7908.00,1.25
7907.00,1.25
7906.00,1.25
7905.00,1.25
7904.00,1.25
7903.00,1.25
7902.00,1.25
7901.00,1.25
7900.00,1.25
7899.00,1.25
7898.00,1.25
7897.00,1.25
7896.00,1.25
7895.00,1.25
7894.00,1.25
7893.00,1.25
7892.00,1.25
7891.00,1.25
7890.00,1.25
7889.00,1.25
7888.00,1.25
7887.00,1.25
7886.00,1.25
7885.00,1.25
7884.00,1.25
7883.00,1.25
7882.00,1.25
7881.00,1.25
7880.00,1.25
7879.00,1.25
7878.00,1.25
7877.00,1.25
7876.00,1.25
7875.00,1.25
7874.00,1.25
7873.00,1.25
7872.00,1.25
7871.00,1.26
7870.00,1.26
7869.00,1.26
7868.00,1.26
7867.00,1.26
7866.00,1.26
7865.00,1.26
7864.00,1.26
7863.00,1.26
7862.00,1.26
7861.00,1.26
7860.00,1.27
7859.00,1.27
7858.00,1.27
7857.00,1.27
7856.00,1.27
7855.00,1.27
7854.00,1.27
7853.00,1.27
7852.00,1.27
7851.00,1.27
7850.00,1.27
7849.00,1.27
7848.00,1.27
7847.00,1.27
7846.00,1.27
7845.00,1.27
7844.00,1.26
7843.00,1.26
7842.00,1.26
7841.00,1.26
7840.00,1.26
7839.00,1.26
7838.00,1.26
7837.00,1.26
7836.00,1.26
7835.00,1.26
7834.00,1.26
7833.00,1.26
7832.00,1.26
7831.00,1.26
7830.00,1.26
7829.00,1.26
7828.00,1.26
7827.00,1.26
7826.00,1.26
7825.00,1.26
7824.00,1.26
7823.00,1.26
7822.00,1.26
7821.00,1.26
7820.00,1.26
7819.00,1.26
7818.00,1.26
7817.00,1.26
7816.00,1.26
7815.00,1.27
7814.00,1.27
7813.00,1.27
7812.00,1.27
7811.00,1.27
7810.00,1.27
7809.00,1.27
7808.00,1.27
7807.00,1.27
7806.00,1.27
7805.00,1.27
7804.00,1.27
7803.00,1.27
7802.00,1.27
7801.00,1.27
7800.00,1.27
7799.00,1.27
7798.00,1.27
7797.00,1.27
7796.00,1.27
7795.00,1.27
7794.00,1.27
7793.00,1.27
7792.00,1.27
7791.00,1.27
7790.00,1.27
7789.00,1.27
7788.00,1.28
7787.00,1.28
7786.00,1.28
7785.00,1.28
7784.00,1.28
7783.00,1.28
7782.00,1.28
7781.00,1.28
7780.00,1.28
7779.00,1.28
7778.00,1.28
7777.00,1.28
7776.00,1.28
7775.00,1.28
7774.00,1.28
7773.00,1.28
7772.00,1.28
7771.00,1.28
7770.00,1.28
7769.00,1.28
7768.00,1.28
7767.00,1.28
7766.00,1.28
7765.00,1.28
7764.00,1.28
7763.00,1.28
7762.00,1.28
7761.00,1.28
7760.00,1.28
7759.00,1.28
7758.00,1.28
7757.00,1.28
7756.00,1.28
7755.00,1.28
7754.00,1.28
7753.00,1.28
7752.00,1.28
7751.00,1.28
7750.00,1.28
7749.00,1.28
7748.00,1.28
7747.00,1.28
7746.00,1.28
7745.00,1.28
7744.00,1.28
7743.00,1.28
7742.00,1.28
7741.00,1.28
7740.00,1.28
7739.00,1.28
7738.00,1.29
7737.00,1.29
7736.00,1.29
7735.00,1.29
7734.00,1.29
7733.00,1.29
7732.00,1.29
7731.00,1.29
7730.00,1.29
7729.00,1.29
7728.00,1.29
7727.00,1.28
7726.00,1.28
7725.00,1.28
7724.00,1.28
7723.00,1.28
7722.00,1.28
7721.00,1.28
7720.00,1.28
7719.00,1.28
7718.00,1.28
7717.00,1.28
7716.00,1.27
7715.00,1.27
7714.00,1.27
7713.00,1.27
7712.00,1.27
7711.00,1.27
7710.00,1.27
7709.00,1.27
7708.00,1.27
7707.00,1.27
7706.00,1.27
7705.00,1.27
7704.00,1.27
7703.00,1.27
7702.00,1.27
7701.00,1.27
7700.00,1.28
7699.00,1.28
7698.00,1.28
7697.00,1.28
7696.00,1.28
7695.00,1.28
7694.00,1.28
7693.00,1.28
7692.00,1.28
7691.00,1.28
7690.00,1.28
7689.00,1.28
7688.00,1.28
7687.00,1.28
7686.00,1.28
7685.00,1.28
7684.00,1.28
7683.00,1.28
7682.00,1.28
7681.00,1.28
7680.00,1.28
7679.00,1.28
7678.00,1.28
7677.00,1.28
7676.00,1.28
7675.00,1.28
7674.00,1.28
7673.00,1.28
7672.00,1.28
7671.00,1.28
7670.00,1.28
7669.00,1.28
7668.00,1.28
7667.00,1.28
7666.00,1.28
7665.00,1.28
7664.00,1.28
7663.00,1.28
7662.00,1.28
7661.00,1.28
7660.00,1.28
7659.00,1.28
7658.00,1.28
7657.00,1.28
7656.00,1.28
7655.00,1.28
7654.00,1.28
7653.00,1.28
7652.00,1.28
7651.00,1.28
7650.00,1.28
7649.00,1.28
7648.00,1.28
7647.00,1.28
7646.00,1.28
7645.00,1.28
7644.00,1.28
7643.00,1.28
7642.00,1.28
7641.00,1.29
7640.00,1.29
7639.00,1.29
7638.00,1.29
7637.00,1.29
7636.00,1.29
7635.00,1.29
7634.00,1.29
7633.00,1.29
7632.00,1.29
7631.00,1.29
7630.00,1.29
7629.00,1.29
7628.00,1.29
7627.00,1.28
7626.00,1.28
7625.00,1.28
7624.00,1.28
7623.00,1.28
7622.00,1.28
7621.00,1.28
7620.00,1.28
7619.00,1.27
7618.00,1.27
7617.00,1.27
7616.00,1.27
7615.00,1.27
7614.00,1.27
7613.00,1.27
7612.00,1.27
7611.00,1.27
7610.00,1.27
7609.00,1.27
7608.00,1.27
7607.00,1.27
7606.00,1.27
7605.00,1.27
7604.00,1.27
7603.00,1.27
7602.00,1.27
7601.00,1.27
7600.00,1.27
7599.00,1.27
7598.00,1.27
7597.00,1.27
7596.00,1.27
7595.00,1.27
7594.00,1.27
7593.00,1.27
7592.00,1.27
7591.00,1.27
7590.00,1.27
7589.00,1.27
7588.00,1.27
7587.00,1.27
7586.00,1.27
7585.00,1.27
7584.00,1.27
7583.00,1.27
7582.00,1.27
7581.00,1.27
7580.00,1.27
7579.00,1.27
7578.00,1.27
7577.00,1.27
7576.00,1.27
7575.00,1.27
7574.00,1.27
7573.00,1.27
7572.00,1.27
7571.00,1.27
7570.00,1.27
7569.00,1.27
7568.00,1.27
7567.00,1.27
7566.00,1.27
7565.00,1.27
7564.00,1.27
7563.00,1.27
7562.00,1.27
7561.00,1.27
7560.00,1.27
7559.00,1.27
7558.00,1.27
7557.00,1.27
7556.00,1.27
7555.00,1.27
7554.00,1.27
7553.00,1.27
7552.00,1.27
7551.00,1.27
7550.00,1.27
7549.00,1.27
7548.00,1.27
7547.00,1.27
7546.00,1.27
7545.00,1.27
7544.00,1.27
7543.00,1.26
7542.00,1.26
7541.00,1.26
7540.00,1.26
7539.00,1.26
7538.00,1.26
7537.00,1.26
7536.00,1.26
7535.00,1.26
7534.00,1.26
7533.00,1.26
7532.00,1.26
7531.00,1.26
7530.00,1.26
7529.00,1.26
7528.00,1.26
7527.00,1.25
7526.00,1.25
7525.00,1.25
7524.00,1.25
7523.00,1.25
7522.00,1.25
7521.00,1.25
7520.00,1.25
7519.00,1.25
7518.00,1.25
7517.00,1.24
7516.00,1.24
7515.00,1.24
7514.00,1.24
7513.00,1.24
7512.00,1.24
7511.00,1.24
7510.00,1.24
7509.00,1.24
7508.00,1.24
7507.00,1.23
7506.00,1.23
7505.00,1.23
7504.00,1.23
7503.00,1.23
7502.00,1.23
7501.00,1.23
7500.00,1.23
7499.00,1.23
7498.00,1.23
7497.00,1.23
7496.00,1.23
7495.00,1.23
7494.00,1.23
7493.00,1.23
7492.00,1.23
7491.00,1.23
7490.00,1.23
7489.00,1.23
7488.00,1.23
7487.00,1.23
7486.00,1.23
7485.00,1.23
7484.00,1.23
7483.00,1.23
7482.00,1.23
7481.00,1.23
7480.00,1.23
7479.00,1.23
7478.00,1.23
7477.00,1.22
7476.00,1.22
7475.00,1.22
7474.00,1.22
7473.00,1.22
7472.00,1.22
7471.00,1.22
7470.00,1.22
7469.00,1.21
7468.00,1.21
7467.00,1.21
7466.00,1.21
7465.00,1.21
7464.00,1.21
7463.00,1.21
7462.00,1.21
7461.00,1.20
7460.00,1.20
7459.00,1.20
7458.00,1.20
7457.00,1.20
7456.00,1.20
7455.00,1.20
7454.00,1.20
7453.00,1.20
7452.00,1.20
7451.00,1.20
7450.00,1.20
7449.00,1.20
7448.00,1.20
7447.00,1.19
7446.00,1.19
7445.00,1.19
7444.00,1.19
7443.00,1.19
7442.00,1.19
7441.00,1.19
7440.00,1.19
7439.00,1.19
7438.00,1.19
7437.00,1.19
7436.00,1.19
7435.00,1.19
7434.00,1.19
7433.00,1.19
7432.00,1.19
7431.00,1.19
7430.00,1.19
7429.00,1.18
7428.00,1.18
7427.00,1.18
7426.00,1.18
7425.00,1.18
7424.00,1.18
7423.00,1.18
7422.00,1.18
7421.00,1.18
7420.00,1.18
7419.00,1.18
7418.00,1.17
7417.00,1.17
7416.00,1.17
7415.00,1.17
7414.00,1.17
7413.00,1.17
7412.00,1.17
7411.00,1.16
7410.00,1.16
7409.00,1.16
7408.00,1.16
7407.00,1.16
7406.00,1.16
7405.00,1.16
7404.00,1.15
7403.00,1.15
7402.00,1.15
7401.00,1.15
7400.00,1.15
7399.00,1.15
7398.00,1.14
7397.00,1.14
7396.00,1.14
7395.00,1.14
7394.00,1.14
7393.00,1.13
7392.00,1.13
7391.00,1.13
7390.00,1.13
7389.00,1.13
7388.00,1.12
7387.00,1.12
7386.00,1.12
7385.00,1.12
7384.00,1.12
7383.00,1.12
7382.00,1.12
7381.00,1.11
7380.00,1.11
7379.00,1.11
7378.00,1.11
7377.00,1.11
7376.00,1.11
7375.00,1.11
7374.00,1.11
7373.00,1.11
7372.00,1.11
7371.00,1.11
7370.00,1.11
7369.00,1.11
7368.00,1.11
7367.00,1.11
7366.00,1.11
7365.00,1.11
7364.00,1.11
7363.00,1.11
7362.00,1.11
7361.00,1.11
7360.00,1.11
7359.00,1.11
7358.00,1.11
7357.00,1.11
7356.00,1.11
7355.00,1.11
7354.00,1.10
7353.00,1.10
7352.00,1.10
7351.00,1.10
7350.00,1.10
7349.00,1.10
7348.00,1.10
7347.00,1.10
7346.00,1.10
7345.00,1.10
7344.00,1.10
7343.00,1.09
7342.00,1.09
7341.00,1.09
7340.00,1.09
7339.00,1.09
7338.00,1.09
7337.00,1.09
7336.00,1.09
7335.00,1.09
7334.00,1.09
7333.00,1.09
7332.00,1.09
7331.00,1.09
7330.00,1.09
7329.00,1.09
7328.00,1.09
7327.00,1.09
7326.00,1.09
7325.00,1.09
7324.00,1.09
7323.00,1.09
7322.00,1.09
7321.00,1.09
7320.00,1.09
7319.00,1.09
7318.00,1.09
7317.00,1.09
7316.00,1.09
7315.00,1.09
7314.00,1.08
7313.00,1.08
7312.00,1.08
7311.00,1.08
7310.00,1.08
7309.00,1.08
7308.00,1.08
7307.00,1.08
7306.00,1.08
7305.00,1.07
7304.00,1.07
7303.00,1.07
7302.00,1.07
7301.00,1.07
7300.00,1.07
7299.00,1.07
7298.00,1.06
7297.00,1.06
7296.00,1.06
7295.00,1.06
7294.00,1.06
7293.00,1.06
7292.00,1.06
7291.00,1.06
7290.00,1.06
7289.00,1.05
7288.00,1.05
7287.00,1.05
7286.00,1.05
7285.00,1.05
7284.00,1.05
7283.00,1.05
7282.00,1.05
7281.00,1.05
7280.00,1.05
7279.00,1.04
7278.00,1.04
7277.00,1.04
7276.00,1.04
7275.00,1.04
7274.00,1.04
7273.00,1.03
7272.00,1.03
7271.00,1.03
7270.00,1.03
7269.00,1.02
7268.00,1.02
7267.00,1.02
7266.00,1.02
7265.00,1.02
7264.00,1.01
7263.00,1.01
7262.00,1.01
7261.00,1.01
7260.00,1.01
7259.00,1.00
7258.00,1.00
7257.00,1.00
7256.00,1.00
7255.00,1.00
7254.00,0.99
7253.00,0.99
7252.00,0.99
7251.00,0.99
7250.00,0.98
7249.00,0.98
7248.00,0.98
7247.00,0.98
7246.00,0.97
7245.00,0.97
7244.00,0.97
7243.00,0.96
7242.00,0.96
7241.00,0.96
7240.00,0.95
7239.00,0.95
7238.00,0.95
7237.00,0.94
7236.00,0.94
7235.00,0.94
7234.00,0.93
7233.00,0.93
7232.00,0.93
7231.00,0.92
7230.00,0.92
7229.00,0.92
7228.00,0.91
7227.00,0.91
7226.00,0.91
7225.00,0.90
7224.00,0.90
7223.00,0.90
7222.00,0.89
7221.00,0.89
7220.00,0.89
7219.00,0.88
7218.00,0.88
7217.00,0.88
7216.00,0.87
7215.00,0.87
7214.00,0.87
7213.00,0.86
7212.00,0.86
7211.00,0.86
7210.00,0.85
7209.00,0.85
7208.00,0.85
7207.00,0.84
7206.00,0.84
7205.00,0.84
7204.00,0.83
7203.00,0.83
7202.00,0.83
7201.00,0.82
7200.00,0.82
7199.00,0.82
7198.00,0.81
7197.00,0.81
7196.00,0.81
7195.00,0.80
7194.00,0.80
7193.00,0.80
7192.00,0.79
7191.00,0.79
7190.00,0.79
7189.00,0.78
7188.00,0.78
7187.00,0.78
7186.00,0.77
7185.00,0.77
7184.00,0.77
7183.00,0.77
7182.00,0.76
7181.00,0.76
7180.00,0.76
7179.00,0.76
7178.00,0.75
7177.00,0.75
7176.00,0.75
7175.00,0.75
7174.00,0.74
7173.00,0.74
7172.00,0.74
7171.00,0.74
7170.00,0.74
7169.00,0.74
7168.00,0.73
7167.00,0.73
7166.00,0.73
7165.00,0.73
7164.00,0.73
7163.00,0.72
7162.00,0.72
7161.00,0.72
7160.00,0.72
7159.00,0.71
7158.00,0.71
7157.00,0.71
7156.00,0.71
7155.00,0.71
7154.00,0.70
7153.00,0.70
7152.00,0.70
7151.00,0.70
7150.00,0.69
7149.00,0.69
7148.00,0.69
7147.00,0.69
7146.00,0.69
7145.00,0.69
7144.00,0.68
7143.00,0.68
7142.00,0.68
7141.00,0.68
7140.00,0.68
7139.00,0.68
7138.00,0.67
7137.00,0.67
7136.00,0.67
7135.00,0.67
7134.00,0.67
7133.00,0.67
7132.00,0.66
7131.00,0.66
7130.00,0.66
7129.00,0.66
7128.00,0.66
7127.00,0.65
7126.00,0.65
7125.00,0.65
7124.00,0.65
7123.00,0.65
7122.00,0.64
7121.00,0.64
7120.00,0.64
7119.00,0.64
7118.00,0.63
7117.00,0.63
7116.00,0.63
7115.00,0.63
7114.00,0.62
7113.00,0.62
7112.00,0.62
7111.00,0.62
7110.00,0.61
7109.00,0.61
7108.00,0.61
7107.00,0.61
7106.00,0.61
7105.00,0.61
7104.00,0.61
7103.00,0.60
7102.00,0.60
7101.00,0.60
7100.00,0.60
7099.00,0.60
7098.00,0.60
7097.00,0.60
7096.00,0.60
7095.00,0.60
7094.00,0.60
7093.00,0.59
7092.00,0.59
7091.00,0.59
7090.00,0.59
7089.00,0.59
7088.00,0.59
7087.00,0.58
7086.00,0.58
7085.00,0.58
7084.00,0.58
7083.00,0.58
7082.00,0.57
7081.00,0.57
7080.00,0.57
7079.00,0.57
7078.00,0.57
7077.00,0.57
7076.00,0.57
7075.00,0.57
7074.00,0.56
7073.00,0.56
7072.00,0.56
7071.00,0.56
7070.00,0.56
7069.00,0.56
7068.00,0.56
7067.00,0.56
7066.00,0.56
7065.00,0.56
7064.00,0.56
7063.00,0.56
7062.00,0.56
7061.00,0.56
7060.00,0.56
7059.00,0.56
7058.00,0.56
7057.00,0.56
7056.00,0.55
7055.00,0.55
7054.00,0.55
7053.00,0.55
7052.00,0.55
7051.00,0.55
7050.00,0.55
7049.00,0.55
7048.00,0.55
7047.00,0.55
7046.00,0.55
7045.00,0.55
7044.00,0.55
7043.00,0.55
7042.00,0.54
7041.00,0.54
7040.00,0.54
7039.00,0.54
7038.00,0.54
7037.00,0.54
7036.00,0.54
7035.00,0.54
7034.00,0.54
7033.00,0.54
7032.00,0.54
7031.00,0.54
7030.00,0.54
7029.00,0.54
7028.00,0.54
7027.00,0.54
7026.00,0.54
7025.00,0.54
7024.00,0.54
7023.00,0.54
7022.00,0.54
7021.00,0.54
7020.00,0.54
7019.00,0.54
7018.00,0.54
7017.00,0.54
7016.00,0.54
7015.00,0.54
7014.00,0.54
7013.00,0.54
7012.00,0.54
7011.00,0.54
7010.00,0.54
7009.00,0.54
7008.00,0.54
7007.00,0.54
7006.00,0.54
7005.00,0.54
7004.00,0.54
7003.00,0.54
7002.00,0.54
7001.00,0.54
7000.00,0.54
6999.00,0.54
6998.00,0.54
6997.00,0.54
6996.00,0.53
6995.00,0.53
6994.00,0.53
6993.00,0.53
6992.00,0.53
6991.00,0.53
6990.00,0.53
6989.00,0.53
6988.00,0.53
6987.00,0.52
6986.00,0.52
6985.00,0.52
6984.00,0.52
6983.00,0.52
6982.00,0.52
6981.00,0.52
6980.00,0.52
6979.00,0.52
6978.00,0.52
6977.00,0.52
6976.00,0.52
6975.00,0.52
6974.00,0.52
6973.00,0.52
6972.00,0.52
6971.00,0.52
6970.00,0.52
6969.00,0.52
6968.00,0.52
6967.00,0.52
6966.00,0.52
6965.00,0.52
6964.00,0.52
6963.00,0.52
6962.00,0.52
6961.00,0.52
6960.00,0.52
6959.00,0.52
6958.00,0.52
6957.00,0.52
6956.00,0.52
6955.00,0.52
6954.00,0.52
6953.00,0.52
6952.00,0.52
6951.00,0.52
6950.00,0.52
6949.00,0.52
6948.00,0.52
6947.00,0.52
6946.00,0.52
6945.00,0.52
6944.00,0.52
6943.00,0.52
6942.00,0.52
6941.00,0.52
6940.00,0.52
6939.00,0.52
6938.00,0.52
6937.00,0.52
6936.00,0.52
6935.00,0.52
6934.00,0.52
6933.00,0.52
6932.00,0.52
6931.00,0.52
6930.00,0.52
6929.00,0.52
6928.00,0.52
6927.00,0.52
6926.00,0.52
6925.00,0.52
6924.00,0.52
6923.00,0.52
6922.00,0.52
6921.00,0.52
6920.00,0.52
6919.00,0.52
6918.00,0.52
6917.00,0.52
6916.00,0.52
6915.00,0.52
6914.00,0.52
6913.00,0.52
6912.00,0.52
6911.00,0.52
6910.00,0.52
6909.00,0.52
6908.00,0.52
6907.00,0.52
6906.00,0.52
6905.00,0.52
6904.00,0.52
6903.00,0.52
6902.00,0.52
6901.00,0.52
6900.00,0.52
6899.00,0.52
6898.00,0.52
6897.00,0.52
6896.00,0.52
6895.00,0.52
6894.00,0.52
6893.00,0.52
6892.00,0.52
6891.00,0.52
6890.00,0.52
6889.00,0.52
6888.00,0.52
6887.00,0.52
6886.00,0.52
6885.00,0.53
6884.00,0.53
6883.00,0.53
6882.00,0.53
6881.00,0.53
6880.00,0.53
6879.00,0.53
6878.00,0.53
6877.00,0.53
6876.00,0.53
6875.00,0.53
6874.00,0.53
6873.00,0.53
6872.00,0.53
6871.00,0.53
6870.00,0.53
6869.00,0.53
6868.00,0.53
6867.00,0.52
6866.00,0.52
6865.00,0.52
6864.00,0.52
6863.00,0.52
6862.00,0.52
6861.00,0.52
6860.00,0.52
6859.00,0.52
6858.00,0.52
6857.00,0.52
6856.00,0.52
6855.00,0.52
6854.00,0.52
6853.00,0.52
6852.00,0.52
6851.00,0.52
6850.00,0.52
6849.00,0.52
6848.00,0.52
6847.00,0.52
6846.00,0.52
6845.00,0.52
6844.00,0.52
6843.00,0.52
6842.00,0.52
6841.00,0.52
6840.00,0.52
6839.00,0.52
6838.00,0.52
6837.00,0.52
6836.00,0.52
6835.00,0.52
6834.00,0.52
6833.00,0.52
6832.00,0.52
6831.00,0.53
6830.00,0.53
6829.00,0.53
6828.00,0.53
6827.00,0.53
6826.00,0.53
6825.00,0.53
6824.00,0.53
6823.00,0.53
6822.00,0.53
6821.00,0.53
6820.00,0.53
6819.00,0.53
6818.00,0.53
6817.00,0.53
6816.00,0.53
6815.00,0.53
6814.00,0.53
6813.00,0.53
6812.00,0.53
6811.00,0.53
6810.00,0.53
6809.00,0.53
6808.00,0.53
6807.00,0.53
6806.00,0.53
6805.00,0.53
6804.00,0.53
6803.00,0.53
6802.00,0.53
6801.00,0.53
6800.00,0.53
6799.00,0.53
6798.00,0.53
6797.00,0.53
6796.00,0.53
6795.00,0.53
6794.00,0.53
6793.00,0.53
6792.00,0.53
6791.00,0.54
6790.00,0.54
6789.00,0.54
6788.00,0.54
6787.00,0.54
6786.00,0.54
6785.00,0.54
6784.00,0.54
6783.00,0.54
6782.00,0.54
6781.00,0.54
6780.00,0.54
6779.00,0.54
6778.00,0.54
6777.00,0.54
6776.00,0.55
6775.00,0.55
6774.00,0.55
6773.00,0.55
6772.00,0.55
6771.00,0.55
6770.00,0.55
6769.00,0.55
6768.00,0.55
6767.00,0.55
6766.00,0.55
6765.00,0.55
6764.00,0.55
6763.00,0.55
6762.00,0.55
6761.00,0.55
6760.00,0.55
6759.00,0.55
6758.00,0.55
6757.00,0.55
6756.00,0.55
6755.00,0.55
6754.00,0.55
6753.00,0.55
6752.00,0.55
6751.00,0.55
6750.00,0.55
6749.00,0.55
6748.00,0.55
6747.00,0.55
6746.00,0.55
6745.00,0.55
6744.00,0.55
6743.00,0.56
6742.00,0.56
6741.00,0.56
6740.00,0.56
6739.00,0.56
6738.00,0.56
6737.00,0.56
6736.00,0.56
6735.00,0.56
6734.00,0.56
6733.00,0.56
6732.00,0.56
6731.00,0.57
6730.00,0.57
6729.00,0.57
6728.00,0.57
6727.00,0.57
6726.00,0.57
6725.00,0.57
6724.00,0.57
6723.00,0.57
6722.00,0.57
6721.00,0.57
6720.00,0.57
6719.00,0.57
6718.00,0.57
6717.00,0.57
6716.00,0.57
6715.00,0.57
6714.00,0.57
6713.00,0.57
6712.00,0.57
6711.00,0.57
6710.00,0.57
6709.00,0.57
6708.00,0.57
6707.00,0.57
6706.00,0.57
6705.00,0.57
6704.00,0.57
6703.00,0.57
6702.00,0.57
6701.00,0.57
6700.00,0.57
6699.00,0.57
6698.00,0.57
6697.00,0.57
6696.00,0.57
6695.00,0.57
6694.00,0.57
6693.00,0.57
6692.00,0.57
6691.00,0.57
6690.00,0.57
6689.00,0.57
6688.00,0.58
6687.00,0.58
6686.00,0.58
6685.00,0.58
6684.00,0.58
6683.00,0.58
6682.00,0.58
6681.00,0.58
6680.00,0.58
6679.00,0.58
6678.00,0.58
6677.00,0.58
6676.00,0.58
6675.00,0.58
6674.00,0.58
6673.00,0.58
6672.00,0.58
6671.00,0.58
6670.00,0.58
6669.00,0.58
6668.00,0.58
6667.00,0.59
6666.00,0.59
6665.00,0.59
6664.00,0.59
6663.00,0.59
6662.00,0.59
6661.00,0.59
6660.00,0.59
6659.00,0.60
6658.00,0.60
6657.00,0.60
6656.00,0.60
6655.00,0.60
6654.00,0.60
6653.00,0.60
6652.00,0.61
6651.00,0.61
6650.00,0.61
6649.00,0.61
6648.00,0.61
6647.00,0.61
6646.00,0.61
6645.00,0.61
6644.00,0.61
6643.00,0.61
6642.00,0.61
6641.00,0.61
6640.00,0.62
6639.00,0.62
6638.00,0.62
6637.00,0.62
6636.00,0.62
6635.00,0.62
6634.00,0.62
6633.00,0.62
6632.00,0.62
6631.00,0.62
6630.00,0.62
6629.00,0.62
6628.00,0.62
6627.00,0.62
6626.00,0.62
6625.00,0.62
6624.00,0.62
6623.00,0.62
6622.00,0.62
6621.00,0.62
6620.00,0.62
6619.00,0.62
6618.00,0.62
6617.00,0.62
6616.00,0.62
6615.00,0.62
6614.00,0.62
6613.00,0.62
6612.00,0.62
6611.00,0.62
6610.00,0.62
6609.00,0.62
6608.00,0.62
6607.00,0.62
6606.00,0.63
6605.00,0.63
6604.00,0.63
6603.00,0.63
6602.00,0.63
6601.00,0.63
6600.00,0.63
6599.00,0.63
6598.00,0.63
6597.00,0.63
6596.00,0.63
6595.00,0.64
6594.00,0.64
6593.00,0.64
6592.00,0.64
6591.00,0.64
6590.00,0.64
6589.00,0.64
6588.00,0.64
6587.00,0.65
6586.00,0.65
6585.00,0.65
6584.00,0.65
6583.00,0.65
6582.00,0.65
6581.00,0.65
6580.00,0.65
6579.00,0.65
6578.00,0.65
6577.00,0.65
6576.00,0.65
6575.00,0.65
6574.00,0.65
6573.00,0.65
6572.00,0.65
6571.00,0.66
6570.00,0.66
6569.00,0.66
6568.00,0.66
6567.00,0.66
6566.00,0.66
6565.00,0.66
6564.00,0.66
6563.00,0.66
6562.00,0.66
6561.00,0.66
6560.00,0.66
6559.00,0.66
6558.00,0.67
6557.00,0.67
6556.00,0.67
6555.00,0.67
6554.00,0.67
6553.00,0.67
6552.00,0.67
6551.00,0.67
6550.00,0.67
6549.00,0.67
6548.00,0.67
6547.00,0.68
6546.00,0.68
6545.00,0.68
6544.00,0.68
6543.00,0.68
6542.00,0.68
6541.00,0.68
6540.00,0.68
6539.00,0.68
6538.00,0.68
6537.00,0.68
6536.00,0.68
6535.00,0.68
6534.00,0.68
6533.00,0.68
6532.00,0.68
6531.00,0.68
6530.00,0.67
6529.00,0.67
6528.00,0.67
6527.00,0.67
6526.00,0.67
6525.00,0.67
6524.00,0.67
6523.00,0.67
6522.00,0.67
6521.00,0.67
6520.00,0.67
6519.00,0.67
6518.00,0.68
6517.00,0.68
6516.00,0.68
6515.00,0.68
6514.00,0.68
6513.00,0.68
6512.00,0.68
6511.00,0.69
6510.00,0.69
6509.00,0.69
6508.00,0.69
6507.00,0.69
6506.00,0.69
6505.00,0.70
6504.00,0.70
6503.00,0.70
6502.00,0.70
6501.00,0.70
6500.00,0.70
6499.00,0.70
6498.00,0.70
6497.00,0.70
6496.00,0.70
6495.00,0.70
6494.00,0.70
6493.00,0.70
6492.00,0.70
6491.00,0.71
6490.00,0.71
6489.00,0.71
6488.00,0.71
6487.00,0.71
6486.00,0.71
6485.00,0.71
6484.00,0.71
6483.00,0.71
6482.00,0.71
6481.00,0.72
6480.00,0.72
6479.00,0.72
6478.00,0.72
6477.00,0.72
6476.00,0.72
6475.00,0.72
6474.00,0.72
6473.00,0.72
6472.00,0.72
6471.00,0.72
6470.00,0.72
6469.00,0.72
6468.00,0.72
6467.00,0.72
6466.00,0.72
6465.00,0.72
6464.00,0.72
6463.00,0.72
6462.00,0.72
6461.00,0.72
6460.00,0.72
6459.00,0.72
6458.00,0.72
6457.00,0.72
6456.00,0.72
6455.00,0.72
6454.00,0.73
6453.00,0.73
6452.00,0.73
6451.00,0.73
6450.00,0.73
6449.00,0.73
6448.00,0.73
6447.00,0.73
6446.00,0.73
6445.00,0.72
6444.00,0.72
6443.00,0.72
6442.00,0.72
6441.00,0.72
6440.00,0.72
6439.00,0.72
6438.00,0.72
6437.00,0.72
6436.00,0.72
6435.00,0.72
6434.00,0.72
6433.00,0.73
6432.00,0.73
6431.00,0.73
6430.00,0.73
6429.00,0.73
6428.00,0.73
6427.00,0.73
6426.00,0.73
6425.00,0.73
6424.00,0.74
6423.00,0.74
6422.00,0.74
6421.00,0.74
6420.00,0.74
6419.00,0.74
6418.00,0.74
6417.00,0.74
6416.00,0.74
6415.00,0.74
6414.00,0.74
6413.00,0.74
6412.00,0.74
6411.00,0.74
6410.00,0.74
6409.00,0.75
6408.00,0.75
6407.00,0.75
6406.00,0.75
6405.00,0.75
6404.00,0.75
6403.00,0.75
6402.00,0.75
6401.00,0.75
6400.00,0.75
6399.00,0.75
6398.00,0.75
6397.00,0.75
6396.00,0.75
6395.00,0.75
6394.00,0.75
6393.00,0.75
6392.00,0.75
6391.00,0.75
6390.00,0.75
6389.00,0.75
6388.00,0.75
6387.00,0.75
6386.00,0.75
6385.00,0.76
6384.00,0.76
6383.00,0.76
6382.00,0.76
6381.00,0.76
6380.00,0.76
6379.00,0.76
6378.00,0.76
6377.00,0.76
6376.00,0.76
6375.00,0.76
6374.00,0.76
6373.00,0.76
6372.00,0.76
6371.00,0.76
6370.00,0.76
6369.00,0.76
6368.00,0.76
6367.00,0.76
6366.00,0.77
6365.00,0.77
6364.00,0.77
6363.00,0.77
6362.00,0.77
6361.00,0.77
6360.00,0.77
6359.00,0.77
6358.00,0.78
6357.00,0.78
6356.00,0.78
6355.00,0.78
6354.00,0.78
6353.00,0.78
6352.00,0.78
6351.00,0.78
6350.00,0.78
6349.00,0.78
6348.00,0.78
6347.00,0.78
6346.00,0.78
6345.00,0.78
6344.00,0.78
6343.00,0.78
6342.00,0.78
6341.00,0.78
6340.00,0.78
6339.00,0.78
6338.00,0.78
6337.00,0.78
6336.00,0.78
6335.00,0.79
6334.00,0.79
6333.00,0.79
6332.00,0.79
6331.00,0.79
6330.00,0.79
6329.00,0.79
6328.00,0.79
6327.00,0.79
6326.00,0.79
6325.00,0.79
6324.00,0.79
6323.00,0.79
6322.00,0.80
6321.00,0.80
6320.00,0.80
6319.00,0.80
6318.00,0.80
6317.00,0.80
6316.00,0.80
6315.00,0.80
6314.00,0.80
6313.00,0.81
6312.00,0.81
6311.00,0.81
6310.00,0.81
6309.00,0.81
6308.00,0.81
6307.00,0.81
6306.00,0.81
6305.00,0.81
6304.00,0.81
6303.00,0.82
6302.00,0.82
6301.00,0.82
6300.00,0.82
6299.00,0.82
6298.00,0.82
6297.00,0.82
6296.00,0.82
6295.00,0.82
6294.00,0.82
6293.00,0.82
6292.00,0.82
6291.00,0.82
6290.00,0.83
6289.00,0.83
6288.00,0.83
6287.00,0.83
6286.00,0.83
6285.00,0.83
6284.00,0.83
6283.00,0.83
6282.00,0.83
6281.00,0.83
6280.00,0.83
6279.00,0.83
6278.00,0.83
6277.00,0.84
6276.00,0.84
6275.00,0.84
6274.00,0.84
6273.00,0.84
6272.00,0.84
6271.00,0.84
6270.00,0.84
6269.00,0.84
6268.00,0.85
6267.00,0.85
6266.00,0.85
6265.00,0.85
6264.00,0.85
6263.00,0.85
6262.00,0.85
6261.00,0.86
6260.00,0.86
6259.00,0.86
6258.00,0.86
6257.00,0.86
6256.00,0.86
6255.00,0.86
6254.00,0.86
6253.00,0.86
6252.00,0.87
6251.00,0.87
6250.00,0.87
6249.00,0.87
6248.00,0.87
6247.00,0.87
6246.00,0.87
6245.00,0.87
6244.00,0.88
6243.00,0.88
6242.00,0.88
6241.00,0.88
6240.00,0.88
6239.00,0.88
6238.00,0.88
6237.00,0.88
6236.00,0.88
6235.00,0.89
6234.00,0.89
6233.00,0.89
6232.00,0.89
6231.00,0.89
6230.00,0.89
6229.00,0.89
6228.00,0.89
6227.00,0.89
6226.00,0.90
6225.00,0.90
6224.00,0.90
6223.00,0.90
6222.00,0.90
6221.00,0.90
6220.00,0.91
6219.00,0.91
6218.00,0.91
6217.00,0.91
6216.00,0.91
6215.00,0.91
6214.00,0.91
6213.00,0.92
6212.00,0.92
6211.00,0.92
6210.00,0.92
6209.00,0.92
6208.00,0.92
6207.00,0.92
6206.00,0.92
6205.00,0.92
6204.00,0.93
6203.00,0.93
6202.00,0.93
6201.00,0.93
6200.00,0.93
6199.00,0.93
6198.00,0.93
6197.00,0.93
6196.00,0.93
6195.00,0.94
6194.00,0.94
6193.00,0.94
6192.00,0.94
6191.00,0.94
6190.00,0.94
6189.00,0.94
6188.00,0.95
6187.00,0.95
6186.00,0.95
6185.00,0.95
6184.00,0.95
6183.00,0.95
6182.00,0.96
6181.00,0.96
6180.00,0.96
6179.00,0.96
6178.00,0.96
6177.00,0.96
6176.00,0.96
6175.00,0.96
6174.00,0.96
6173.00,0.97
6172.00,0.97
6171.00,0.97
6170.00,0.97
6169.00,0.97
6168.00,0.97
6167.00,0.97
6166.00,0.97
6165.00,0.97
6164.00,0.97
6163.00,0.97
6162.00,0.98
6161.00,0.98
6160.00,0.98
6159.00,0.98
6158.00,0.98
6157.00,0.98
6156.00,0.98
6155.00,0.99
6154.00,0.99
6153.00,0.99
6152.00,0.99
6151.00,0.99
6150.00,0.99
6149.00,1.00
6148.00,1.00
6147.00,1.00
6146.00,1.00
6145.00,1.00
6144.00,1.00
6143.00,1.01
6142.00,1.01
6141.00,1.01
6140.00,1.01
6139.00,1.01
6138.00,1.01
6137.00,1.01
6136.00,1.02
6135.00,1.02
6134.00,1.02
6133.00,1.02
6132.00,1.02
6131.00,1.02
6130.00,1.03
6129.00,1.03
6128.00,1.03
6127.00,1.03
6126.00,1.03
6125.00,1.03
6124.00,1.04
6123.00,1.04
6122.00,1.04
6121.00,1.04
6120.00,1.04
6119.00,1.04
6118.00,1.04
6117.00,1.04
6116.00,1.05
6115.00,1.05
6114.00,1.05
6113.00,1.05
6112.00,1.05
6111.00,1.05
6110.00,1.05
6109.00,1.05
6108.00,1.06
6107.00,1.06
6106.00,1.06
6105.00,1.06
6104.00,1.06
6103.00,1.06
6102.00,1.06
6101.00,1.06
6100.00,1.07
6099.00,1.07
6098.00,1.07
6097.00,1.07
6096.00,1.07
6095.00,1.07
6094.00,1.08
6093.00,1.08
6092.00,1.08
6091.00,1.08
6090.00,1.08
6089.00,1.08
6088.00,1.08
6087.00,1.08
6086.00,1.09
6085.00,1.09
6084.00,1.09
6083.00,1.09
6082.00,1.09
6081.00,1.09
6080.00,1.09
6079.00,1.09
6078.00,1.10
6077.00,1.10
6076.00,1.10
6075.00,1.10
6074.00,1.10
6073.00,1.10
6072.00,1.10
6071.00,1.11
6070.00,1.11
6069.00,1.11
6068.00,1.11
6067.00,1.11
6066.00,1.11
6065.00,1.11
6064.00,1.12
6063.00,1.12
6062.00,1.12
6061.00,1.12
6060.00,1.12
6059.00,1.12
6058.00,1.12
6057.00,1.12
6056.00,1.12
6055.00,1.12
6054.00,1.12
6053.00,1.13
6052.00,1.13
6051.00,1.13
6050.00,1.13
6049.00,1.13
6048.00,1.13
6047.00,1.13
6046.00,1.13
6045.00,1.13
6044.00,1.13
6043.00,1.13
6042.00,1.13
6041.00,1.14
6040.00,1.14
6039.00,1.14
6038.00,1.14
6037.00,1.14
6036.00,1.14
6035.00,1.14
6034.00,1.14
6033.00,1.14
6032.00,1.15
6031.00,1.15
6030.00,1.15
6029.00,1.15
6028.00,1.15
6027.00,1.15
6026.00,1.15
6025.00,1.15
6024.00,1.16
6023.00,1.16
6022.00,1.16
6021.00,1.16
6020.00,1.16
6019.00,1.16
6018.00,1.16
6017.00,1.16
6016.00,1.16
6015.00,1.16
6014.00,1.16
6013.00,1.16
6012.00,1.16
6011.00,1.16
6010.00,1.16
6009.00,1.15
6008.00,1.15
6007.00,1.15
6006.00,1.15
6005.00,1.15
6004.00,1.15
6003.00,1.15
6002.00,1.15
6001.00,1.15
6000.00,1.15
5999.00,1.14
5998.00,1.14
5997.00,1.14
5996.00,1.14
5995.00,1.14
5994.00,1.14
5993.00,1.14
5992.00,1.13
5991.00,1.13
5990.00,1.13
5989.00,1.13
5988.00,1.13
5987.00,1.12
5986.00,1.12
5985.00,1.12
5984.00,1.12
5983.00,1.11
5982.00,1.11
5981.00,1.11
5980.00,1.10
5979.00,1.10
5978.00,1.10
5977.00,1.09
5976.00,1.09
5975.00,1.08
5974.00,1.08
5973.00,1.07
5972.00,1.07
5971.00,1.06
5970.00,1.06
5969.00,1.05
5968.00,1.04
5967.00,1.04
5966.00,1.03
5965.00,1.03
5964.00,1.02
5963.00,1.01
5962.00,1.00
5961.00,1.00
5960.00,0.99
5959.00,0.98
5958.00,0.98
5957.00,0.97
5956.00,0.96
5955.00,0.96
5954.00,0.95
5953.00,0.94
5952.00,0.94
5951.00,0.93
5950.00,0.93
5949.00,0.92
5948.00,0.92
5947.00,0.91
5946.00,0.91
5945.00,0.91
5944.00,0.90
5943.00,0.90
5942.00,0.90
5941.00,0.90
5940.00,0.90
5939.00,0.89
5938.00,0.89
5937.00,0.89
5936.00,0.89
5935.00,0.89
5934.00,0.89
5933.00,0.89
5932.00,0.89
5931.00,0.89
5930.00,0.89
5929.00,0.89
5928.00,0.89
5927.00,0.89
5926.00,0.88
5925.00,0.88
5924.00,0.88
5923.00,0.88
5922.00,0.88
5921.00,0.88
5920.00,0.88
5919.00,0.88
5918.00,0.87
5917.00,0.87
5916.00,0.87
5915.00,0.87
5914.00,0.87
5913.00,0.86
5912.00,0.86
5911.00,0.86
5910.00,0.86
5909.00,0.86
5908.00,0.86
5907.00,0.85
5906.00,0.85
5905.00,0.85
5904.00,0.85
5903.00,0.85
5902.00,0.85
5901.00,0.85
5900.00,0.85
5899.00,0.85
5898.00,0.85
5897.00,0.85
5896.00,0.85
5895.00,0.86
5894.00,0.86
5893.00,0.86
5892.00,0.86
5891.00,0.86
5890.00,0.86
5889.00,0.86
5888.00,0.87
5887.00,0.87
5886.00,0.87
5885.00,0.87
5884.00,0.87
5883.00,0.88
5882.00,0.88
5881.00,0.88
5880.00,0.88
5879.00,0.89
5878.00,0.89
5877.00,0.89
5876.00,0.90
5875.00,0.90
5874.00,0.90
5873.00,0.90
5872.00,0.91
5871.00,0.91
5870.00,0.91
5869.00,0.91
5868.00,0.91
5867.00,0.92
5866.00,0.92
5865.00,0.92
5864.00,0.92
5863.00,0.92
5862.00,0.92
5861.00,0.93
5860.00,0.93
5859.00,0.93
5858.00,0.93
5857.00,0.93
5856.00,0.93
5855.00,0.93
5854.00,0.93
5853.00,0.93
5852.00,0.93
5851.00,0.93
5850.00,0.93
5849.00,0.93
5848.00,0.94
5847.00,0.94
5846.00,0.94
5845.00,0.94
5844.00,0.94
5843.00,0.94
5842.00,0.93
5841.00,0.93
5840.00,0.93
5839.00,0.93
5838.00,0.93
5837.00,0.93
5836.00,0.93
5835.00,0.93
5834.00,0.93
5833.00,0.93
5832.00,0.93
5831.00,0.93
5830.00,0.93
5829.00,0.93
5828.00,0.93
5827.00,0.93
5826.00,0.93
5825.00,0.94
5824.00,0.94
5823.00,0.94
5822.00,0.94
5821.00,0.94
5820.00,0.94
5819.00,0.94
5818.00,0.94
5817.00,0.94
5816.00,0.94
5815.00,0.94
5814.00,0.94
5813.00,0.94
5812.00,0.94
5811.00,0.94
5810.00,0.94
5809.00,0.94
5808.00,0.94
5807.00,0.94
5806.00,0.94
5805.00,0.94
5804.00,0.94
5803.00,0.94
5802.00,0.94
5801.00,0.94
5800.00,0.94
5799.00,0.93
5798.00,0.93
5797.00,0.93
5796.00,0.93
5795.00,0.93
5794.00,0.93
5793.00,0.92
5792.00,0.92
5791.00,0.92
5790.00,0.92
5789.00,0.91
5788.00,0.91
5787.00,0.91
5786.00,0.91
5785.00,0.91
5784.00,0.91
5783.00,0.90
5782.00,0.90
5781.00,0.90
5780.00,0.90
5779.00,0.90
5778.00,0.90
5777.00,0.90
5776.00,0.90
5775.00,0.90
5774.00,0.90
5773.00,0.90
5772.00,0.90
5771.00,0.90
5770.00,0.90
5769.00,0.90
5768.00,0.90
5767.00,0.90
5766.00,0.90
5765.00,0.90
5764.00,0.90
5763.00,0.90
5762.00,0.90
5761.00,0.91
5760.00,0.91
5759.00,0.91
5758.00,0.91
5757.00,0.91
5756.00,0.92
5755.00,0.92
5754.00,0.92
5753.00,0.93
5752.00,0.93
5751.00,0.93
5750.00,0.94
5749.00,0.94
5748.00,0.94
5747.00,0.95
5746.00,0.95
5745.00,0.96
5744.00,0.96
5743.00,0.96
5742.00,0.97
5741.00,0.97
5740.00,0.97
5739.00,0.98
5738.00,0.98
5737.00,0.98
5736.00,0.99
5735.00,0.99
5734.00,0.99
5733.00,0.99
5732.00,0.99
5731.00,1.00
5730.00,1.00
5729.00,1.00
5728.00,1.00
5727.00,1.00
5726.00,1.00
5725.00,1.01
5724.00,1.01
5723.00,1.01
5722.00,1.01
5721.00,1.01
5720.00,1.01
5719.00,1.01
5718.00,1.01
5717.00,1.01
5716.00,1.01
5715.00,1.01
5714.00,1.01
5713.00,1.01
5712.00,1.01
5711.00,1.01
5710.00,1.01
5709.00,1.00
5708.00,1.00
5707.00,1.00
5706.00,1.00
5705.00,1.00
5704.00,1.00
5703.00,1.00
5702.00,1.00
5701.00,1.00
5700.00,1.00
5699.00,1.00
5698.00,1.00
5697.00,1.00
5696.00,0.99
5695.00,0.99
5694.00,0.99
5693.00,0.99
5692.00,0.99
5691.00,0.99
5690.00,0.99
5689.00,0.99
5688.00,0.99
5687.00,0.99
5686.00,0.99
5685.00,0.99
5684.00,0.98
5683.00,0.98
5682.00,0.98
5681.00,0.98
5680.00,0.98
5679.00,0.98
5678.00,0.98
5677.00,0.98
5676.00,0.98
5675.00,0.98
5674.00,0.98
5673.00,0.98
5672.00,0.98
5671.00,0.98
5670.00,0.98
5669.00,0.98
5668.00,0.98
5667.00,0.98
5666.00,0.98
5665.00,0.98
5664.00,0.98
5663.00,0.98
5662.00,0.98
5661.00,0.98
5660.00,0.98
5659.00,0.98
5658.00,0.98
5657.00,0.98
5656.00,0.99
5655.00,0.99
5654.00,0.99
5653.00,0.99
5652.00,0.99
5651.00,1.00
5650.00,1.00
5649.00,1.00
5648.00,1.00
5647.00,1.01
5646.00,1.01
5645.00,1.01
5644.00,1.02
5643.00,1.02
5642.00,1.02
5641.00,1.02
5640.00,1.03
5639.00,1.03
5638.00,1.03
5637.00,1.03
5636.00,1.04
5635.00,1.04
5634.00,1.04
5633.00,1.04
5632.00,1.04
5631.00,1.04
5630.00,1.04
5629.00,1.05
5628.00,1.05
5627.00,1.05
5626.00,1.05
5625.00,1.05
5624.00,1.05
5623.00,1.05
5622.00,1.05
5621.00,1.06
5620.00,1.06
5619.00,1.06
5618.00,1.06
5617.00,1.06
5616.00,1.06
5615.00,1.06
5614.00,1.07
5613.00,1.07
5612.00,1.07
5611.00,1.07
5610.00,1.07
5609.00,1.07
5608.00,1.08
5607.00,1.08
5606.00,1.08
5605.00,1.08
5604.00,1.08
5603.00,1.08
5602.00,1.09
5601.00,1.09
5600.00,1.09
5599.00,1.09
5598.00,1.09
5597.00,1.09
5596.00,1.10
5595.00,1.10
5594.00,1.10
5593.00,1.10
5592.00,1.10
5591.00,1.11
5590.00,1.11
5589.00,1.11
5588.00,1.11
5587.00,1.11
5586.00,1.12
5585.00,1.12
5584.00,1.12
5583.00,1.12
5582.00,1.12
5581.00,1.13
5580.00,1.13
5579.00,1.13
5578.00,1.13
5577.00,1.13
5576.00,1.13
5575.00,1.13
5574.00,1.13
5573.00,1.14
5572.00,1.14
5571.00,1.14
5570.00,1.14
5569.00,1.14
5568.00,1.14
5567.00,1.14
5566.00,1.14
5565.00,1.14
5564.00,1.15
5563.00,1.15
5562.00,1.15
5561.00,1.15
5560.00,1.15
5559.00,1.15
5558.00,1.15
5557.00,1.16
5556.00,1.16
5555.00,1.16
5554.00,1.16
5553.00,1.16
5552.00,1.17
5551.00,1.17
5550.00,1.17
5549.00,1.17
5548.00,1.17
5547.00,1.17
5546.00,1.18
5545.00,1.18
5544.00,1.18
5543.00,1.18
5542.00,1.18
5541.00,1.18
5540.00,1.18
5539.00,1.19
5538.00,1.19
5537.00,1.19
5536.00,1.19
5535.00,1.19
5534.00,1.19
5533.00,1.19
5532.00,1.19
5531.00,1.20
5530.00,1.20
5529.00,1.20
5528.00,1.20
5527.00,1.20
5526.00,1.20
5525.00,1.20
5524.00,1.20
5523.00,1.20
5522.00,1.20
5521.00,1.20
5520.00,1.21
5519.00,1.21
5518.00,1.21
5517.00,1.21
5516.00,1.21
5515.00,1.21
5514.00,1.21
5513.00,1.21
5512.00,1.21
5511.00,1.21
5510.00,1.21
5509.00,1.21
5508.00,1.21
5507.00,1.21
5506.00,1.21
5505.00,1.21
5504.00,1.21
5503.00,1.22
5502.00,1.22
5501.00,1.22
5500.00,1.22
5499.00,1.22
5498.00,1.22
5497.00,1.22
5496.00,1.22
5495.00,1.22
5494.00,1.22
5493.00,1.22
5492.00,1.22
5491.00,1.23
5490.00,1.23
5489.00,1.23
5488.00,1.23
5487.00,1.23
5486.00,1.23
5485.00,1.24
5484.00,1.24
5483.00,1.24
5482.00,1.24
5481.00,1.24
5480.00,1.24
5479.00,1.24
5478.00,1.25
5477.00,1.25
5476.00,1.25
5475.00,1.25
5474.00,1.25
5473.00,1.25
5472.00,1.25
5471.00,1.25
5470.00,1.25
5469.00,1.26
5468.00,1.26
5467.00,1.26
5466.00,1.26
5465.00,1.26
5464.00,1.26
5463.00,1.26
5462.00,1.27
5461.00,1.27
5460.00,1.27
5459.00,1.27
5458.00,1.27
5457.00,1.27
5456.00,1.27
5455.00,1.27
5454.00,1.27
5453.00,1.28
5452.00,1.28
5451.00,1.28
5450.00,1.28
5449.00,1.28
5448.00,1.28
5447.00,1.28
5446.00,1.28
5445.00,1.28
5444.00,1.28
5443.00,1.28
5442.00,1.28
5441.00,1.28
5440.00,1.28
5439.00,1.28
5438.00,1.28
5437.00,1.28
5436.00,1.28
5435.00,1.28
5434.00,1.28
5433.00,1.28
5432.00,1.28
5431.00,1.29
5430.00,1.29
5429.00,1.29
5428.00,1.29
5427.00,1.29
5426.00,1.29
5425.00,1.29
5424.00,1.29
5423.00,1.29
5422.00,1.29
5421.00,1.29
5420.00,1.29
5419.00,1.29
5418.00,1.29
5417.00,1.29
5416.00,1.29
5415.00,1.29
5414.00,1.29
5413.00,1.29
5412.00,1.29
5411.00,1.29
5410.00,1.29
5409.00,1.29
5408.00,1.29
5407.00,1.29
5406.00,1.29
5405.00,1.29
5404.00,1.29
5403.00,1.29
5402.00,1.29
5401.00,1.29
5400.00,1.29
5399.00,1.28
5398.00,1.28
5397.00,1.28
5396.00,1.28
5395.00,1.28
5394.00,1.28
5393.00,1.28
5392.00,1.28
5391.00,1.27
5390.00,1.27
5389.00,1.27
5388.00,1.27
5387.00,1.27
5386.00,1.26
5385.00,1.26
5384.00,1.26
5383.00,1.25
5382.00,1.25
5381.00,1.25
5380.00,1.24
5379.00,1.24
5378.00,1.24
5377.00,1.23
5376.00,1.23
5375.00,1.22
5374.00,1.22
5373.00,1.22
5372.00,1.21
5371.00,1.21
5370.00,1.20
5369.00,1.20
5368.00,1.19
5367.00,1.19
5366.00,1.18
5365.00,1.18
5364.00,1.17
5363.00,1.17
5362.00,1.16
5361.00,1.15
5360.00,1.15
5359.00,1.14
5358.00,1.13
5357.00,1.12
5356.00,1.12
5355.00,1.11
5354.00,1.10
5353.00,1.09
5352.00,1.08
5351.00,1.08
5350.00,1.07
5349.00,1.06
5348.00,1.05
5347.00,1.04
5346.00,1.03
5345.00,1.03
5344.00,1.02
5343.00,1.01
5342.00,1.00
5341.00,1.00
5340.00,0.99
5339.00,0.98
5338.00,0.97
5337.00,0.97
5336.00,0.96
5335.00,0.95
5334.00,0.95
5333.00,0.94
5332.00,0.93
5331.00,0.93
5330.00,0.92
5329.00,0.91
5328.00,0.91
5327.00,0.90
5326.00,0.89
5325.00,0.89
5324.00,0.88
5323.00,0.88
5322.00,0.87
5321.00,0.86
5320.00,0.86
5319.00,0.85
5318.00,0.85
5317.00,0.84
5316.00,0.84
5315.00,0.83
5314.00,0.83
5313.00,0.82
5312.00,0.82
5311.00,0.82
5310.00,0.81
5309.00,0.81
5308.00,0.80
5307.00,0.80
5306.00,0.80
5305.00,0.79
5304.00,0.79
5303.00,0.79
5302.00,0.79
5301.00,0.78
5300.00,0.78
5299.00,0.78
5298.00,0.78
5297.00,0.78
5296.00,0.78
5295.00,0.78
5294.00,0.77
5293.00,0.77
5292.00,0.77
5291.00,0.77
5290.00,0.77
5289.00,0.77
5288.00,0.77
5287.00,0.77
5286.00,0.77
5285.00,0.77
5284.00,0.77
5283.00,0.77
5282.00,0.77
5281.00,0.77
5280.00,0.77
5279.00,0.77
5278.00,0.77
5277.00,0.77
5276.00,0.77
5275.00,0.77
5274.00,0.77
5273.00,0.77
5272.00,0.77
5271.00,0.77
5270.00,0.77
5269.00,0.77
5268.00,0.77
5267.00,0.77
5266.00,0.77
5265.00,0.77
5264.00,0.77
5263.00,0.77
5262.00,0.77
5261.00,0.77
5260.00,0.77
5259.00,0.77
5258.00,0.77
5257.00,0.77
5256.00,0.77
5255.00,0.77
5254.00,0.77
5253.00,0.77
5252.00,0.77
5251.00,0.77
5250.00,0.77
5249.00,0.77
5248.00,0.77
5247.00,0.77
5246.00,0.78
5245.00,0.78
5244.00,0.78
5243.00,0.78
5242.00,0.78
5241.00,0.78
5240.00,0.78
5239.00,0.78
5238.00,0.78
5237.00,0.78
5236.00,0.78
5235.00,0.78
5234.00,0.78
5233.00,0.78
5232.00,0.78
5231.00,0.78
5230.00,0.78
5229.00,0.78
5228.00,0.78
5227.00,0.78
5226.00,0.78
5225.00,0.78
5224.00,0.78
5223.00,0.78
5222.00,0.78
5221.00,0.78
5220.00,0.78
5219.00,0.78
5218.00,0.78
5217.00,0.78
5216.00,0.78
5215.00,0.78
5214.00,0.78
5213.00,0.78
5212.00,0.78
5211.00,0.78
5210.00,0.78
5209.00,0.78
5208.00,0.78
5207.00,0.78
5206.00,0.78
5205.00,0.78
5204.00,0.78
5203.00,0.78
5202.00,0.78
5201.00,0.78
5200.00,0.79
5199.00,0.79
5198.00,0.79
5197.00,0.79
5196.00,0.79
5195.00,0.79
5194.00,0.79
5193.00,0.79
5192.00,0.79
5191.00,0.79
5190.00,0.79
5189.00,0.79
5188.00,0.79
5187.00,0.79
5186.00,0.79
5185.00,0.80
5184.00,0.80
5183.00,0.80
5182.00,0.80
5181.00,0.80
5180.00,0.80
5179.00,0.80
5178.00,0.80
5177.00,0.80
5176.00,0.80
5175.00,0.80
5174.00,0.80
5173.00,0.80
5172.00,0.80
5171.00,0.80
5170.00,0.80
5169.00,0.80
5168.00,0.80
5167.00,0.80
5166.00,0.80
5165.00,0.80
5164.00,0.80
5163.00,0.80
5162.00,0.80
5161.00,0.80
5160.00,0.80
5159.00,0.80
5158.00,0.80
5157.00,0.80
5156.00,0.80
5155.00,0.80
5154.00,0.80
5153.00,0.80
5152.00,0.80
5151.00,0.80
5150.00,0.80
5149.00,0.80
5148.00,0.80
5147.00,0.80
5146.00,0.80
5145.00,0.81
5144.00,0.81
5143.00,0.81
5142.00,0.81
5141.00,0.81
5140.00,0.81
5139.00,0.81
5138.00,0.81
5137.00,0.81
5136.00,0.81
5135.00,0.81
5134.00,0.81
5133.00,0.81
5132.00,0.81
5131.00,0.81
5130.00,0.82
5129.00,0.82
5128.00,0.82
5127.00,0.82
5126.00,0.82
5125.00,0.82
5124.00,0.82
5123.00,0.82
5122.00,0.82
5121.00,0.82
5120.00,0.82
5119.00,0.82
5118.00,0.82
5117.00,0.82
5116.00,0.82
5115.00,0.82
5114.00,0.82
5113.00,0.82
5112.00,0.82
5111.00,0.82
5110.00,0.82
5109.00,0.82
5108.00,0.82
5107.00,0.82
5106.00,0.82
5105.00,0.82
5104.00,0.82
5103.00,0.82
5102.00,0.82
5101.00,0.82
5100.00,0.82
5099.00,0.82
5098.00,0.82
5097.00,0.83
5096.00,0.83
5095.00,0.83
5094.00,0.83
5093.00,0.83
5092.00,0.83
5091.00,0.83
5090.00,0.83
5089.00,0.83
5088.00,0.83
5087.00,0.83
5086.00,0.83
5085.00,0.83
5084.00,0.83
5083.00,0.83
5082.00,0.83
5081.00,0.83
5080.00,0.83
5079.00,0.83
5078.00,0.83
5077.00,0.83
5076.00,0.83
5075.00,0.83
5074.00,0.83
5073.00,0.83
5072.00,0.83
5071.00,0.84
5070.00,0.84
5069.00,0.84
5068.00,0.84
5067.00,0.84
5066.00,0.84
5065.00,0.84
5064.00,0.84
5063.00,0.84
5062.00,0.84
5061.00,0.84
5060.00,0.84
5059.00,0.84
5058.00,0.84
5057.00,0.84
5056.00,0.84
5055.00,0.84
5054.00,0.84
5053.00,0.84
5052.00,0.85
5051.00,0.85
5050.00,0.85
5049.00,0.85
5048.00,0.85
5047.00,0.85
5046.00,0.85
5045.00,0.85
5044.00,0.85
5043.00,0.85
5042.00,0.85
5041.00,0.85
5040.00,0.85
5039.00,0.85
5038.00,0.85
5037.00,0.85
5036.00,0.85
5035.00,0.85
5034.00,0.85
5033.00,0.85
5032.00,0.85
5031.00,0.85
5030.00,0.85
5029.00,0.85
5028.00,0.85
5027.00,0.85
5026.00,0.85
5025.00,0.85
5024.00,0.85
5023.00,0.85
5022.00,0.85
5021.00,0.85
5020.00,0.85
5019.00,0.86
5018.00,0.86
5017.00,0.86
5016.00,0.86
5015.00,0.86
5014.00,0.86
5013.00,0.86
5012.00,0.86
5011.00,0.86
5010.00,0.86
5009.00,0.86
5008.00,0.86
5007.00,0.86
5006.00,0.86
5005.00,0.86
5004.00,0.86
5003.00,0.86
5002.00,0.86
5001.00,0.86
5000.00,0.86
4999.00,0.86
4998.00,0.86
4997.00,0.86
4996.00,0.86
4995.00,0.86
4994.00,0.86
4993.00,0.86
4992.00,0.86
4991.00,0.87
4990.00,0.87
4989.00,0.87
4988.00,0.87
4987.00,0.87
4986.00,0.87
4985.00,0.87
4984.00,0.87
4983.00,0.87
4982.00,0.87
4981.00,0.88
4980.00,0.88
4979.00,0.88
4978.00,0.88
4977.00,0.88
4976.00,0.88
4975.00,0.88
4974.00,0.88
4973.00,0.88
4972.00,0.88
4971.00,0.88
4970.00,0.88
4969.00,0.88
4968.00,0.88
4967.00,0.88
4966.00,0.88
4965.00,0.88
4964.00,0.89
4963.00,0.89
4962.00,0.89
4961.00,0.89
4960.00,0.89
4959.00,0.89
4958.00,0.89
4957.00,0.89
4956.00,0.89
4955.00,0.89
4954.00,0.89
4953.00,0.89
4952.00,0.89
4951.00,0.89
4950.00,0.89
4949.00,0.89
4948.00,0.89
4947.00,0.89
4946.00,0.90
4945.00,0.90
4944.00,0.90
4943.00,0.90
4942.00,0.90
4941.00,0.90
4940.00,0.90
4939.00,0.90
4938.00,0.90
4937.00,0.90
4936.00,0.90
4935.00,0.90
4934.00,0.90
4933.00,0.90
4932.00,0.90
4931.00,0.90
4930.00,0.90
4929.00,0.90
4928.00,0.90
4927.00,0.90
4926.00,0.90
4925.00,0.90
4924.00,0.90
4923.00,0.90
4922.00,0.90
4921.00,0.90
4920.00,0.90
4919.00,0.90
4918.00,0.90
4917.00,0.90
4916.00,0.90
4915.00,0.90
4914.00,0.90
4913.00,0.90
4912.00,0.90
4911.00,0.90
4910.00,0.90
4909.00,0.90
4908.00,0.90
4907.00,0.90
4906.00,0.90
4905.00,0.91
4904.00,0.91
4903.00,0.91
4902.00,0.91
4901.00,0.91
4900.00,0.91
4899.00,0.91
4898.00,0.91
4897.00,0.91
4896.00,0.91
4895.00,0.91
4894.00,0.91
4893.00,0.91
4892.00,0.91
4891.00,0.92
4890.00,0.92
4889.00,0.92
4888.00,0.92
4887.00,0.92
4886.00,0.92
4885.00,0.92
4884.00,0.92
4883.00,0.92
4882.00,0.92
4881.00,0.92
4880.00,0.92
4879.00,0.92
4878.00,0.92
4877.00,0.92
4876.00,0.92
4875.00,0.92
4874.00,0.92
4873.00,0.92
4872.00,0.92
4871.00,0.92
4870.00,0.92
4869.00,0.92
4868.00,0.92
4867.00,0.92
4866.00,0.92
4865.00,0.93
4864.00,0.93
4863.00,0.93
4862.00,0.93
4861.00,0.93
4860.00,0.93
4859.00,0.93
4858.00,0.93
4857.00,0.93
4856.00,0.93
4855.00,0.93
4854.00,0.93
4853.00,0.93
4852.00,0.93
4851.00,0.93
4850.00,0.94
4849.00,0.94
4848.00,0.94
4847.00,0.94
4846.00,0.94
4845.00,0.94
4844.00,0.94
4843.00,0.94
4842.00,0.94
4841.00,0.94
4840.00,0.94
4839.00,0.94
4838.00,0.94
4837.00,0.94
4836.00,0.94
4835.00,0.94
4834.00,0.94
4833.00,0.94
4832.00,0.94
4831.00,0.94
4830.00,0.94
4829.00,0.94
4828.00,0.94
4827.00,0.94
4826.00,0.94
4825.00,0.94
4824.00,0.94
4823.00,0.94
4822.00,0.94
4821.00,0.94
4820.00,0.94
4819.00,0.94
4818.00,0.94
4817.00,0.94
4816.00,0.94
4815.00,0.94
4814.00,0.94
4813.00,0.94
4812.00,0.95
4811.00,0.95
4810.00,0.95
4809.00,0.95
4808.00,0.95
4807.00,0.95
4806.00,0.95
4805.00,0.95
4804.00,0.95
4803.00,0.95
4802.00,0.95
4801.00,0.95
4800.00,0.95
4799.00,0.95
4798.00,0.95
4797.00,0.95
4796.00,0.95
4795.00,0.95
4794.00,0.95
4793.00,0.95
4792.00,0.95
4791.00,0.95
4790.00,0.95
4789.00,0.95
4788.00,0.96
4787.00,0.96
4786.00,0.96
4785.00,0.96
4784.00,0.96
4783.00,0.96
4782.00,0.96
4781.00,0.96
4780.00,0.96
4779.00,0.96
4778.00,0.96
4777.00,0.96
4776.00,0.96
4775.00,0.96
4774.00,0.97
4773.00,0.97
4772.00,0.97
4771.00,0.97
4770.00,0.97
4769.00,0.97
4768.00,0.97
4767.00,0.97
4766.00,0.97
4765.00,0.97
4764.00,0.97
4763.00,0.97
4762.00,0.97
4761.00,0.98
4760.00,0.98
4759.00,0.98
4758.00,0.98
4757.00,0.98
4756.00,0.98
4755.00,0.99
4754.00,0.99
4753.00,0.99
4752.00,0.99
4751.00,0.99
4750.00,0.99
4749.00,1.00
4748.00,1.00
4747.00,1.00
4746.00,1.00
4745.00,1.00
4744.00,1.00
4743.00,1.00
4742.00,1.00
4741.00,1.00
4740.00,1.00
4739.00,1.00
4738.00,1.00
4737.00,1.00
4736.00,1.00
4735.00,1.00
4734.00,1.00
4733.00,1.00
4732.00,1.00
4731.00,1.00
4730.00,1.00
4729.00,1.00
4728.00,1.00
4727.00,1.00
4726.00,1.01
4725.00,1.01
4724.00,1.01
4723.00,1.01
4722.00,1.01
4721.00,1.01
4720.00,1.01
4719.00,1.01
4718.00,1.01
4717.00,1.01
4716.00,1.01
4715.00,1.01
4714.00,1.01
4713.00,1.01
4712.00,1.01
4711.00,1.01
4710.00,1.01
4709.00,1.01
4708.00,1.01
4707.00,1.01
4706.00,1.01
4705.00,1.01
4704.00,1.01
4703.00,1.01
4702.00,1.01
4701.00,1.01
4700.00,1.01
4699.00,1.02
4698.00,1.02
4697.00,1.02
4696.00,1.02
4695.00,1.02
4694.00,1.02
4693.00,1.03
4692.00,1.03
4691.00,1.03
4690.00,1.03
4689.00,1.03
4688.00,1.03
4687.00,1.03
4686.00,1.04
4685.00,1.04
4684.00,1.04
4683.00,1.04
4682.00,1.04
4681.00,1.04
4680.00,1.04
4679.00,1.04
4678.00,1.04
4677.00,1.04
4676.00,1.04
4675.00,1.04
4674.00,1.04
4673.00,1.05
4672.00,1.05
4671.00,1.05
4670.00,1.05
4669.00,1.05
4668.00,1.05
4667.00,1.05
4666.00,1.05
4665.00,1.05
4664.00,1.05
4663.00,1.05
4662.00,1.05
4661.00,1.05
4660.00,1.05
4659.00,1.05
4658.00,1.05
4657.00,1.05
4656.00,1.05
4655.00,1.05
4654.00,1.05
4653.00,1.05
4652.00,1.05
4651.00,1.05
4650.00,1.05
4649.00,1.05
4648.00,1.05
4647.00,1.05
4646.00,1.05
4645.00,1.06
4644.00,1.06
4643.00,1.06
4642.00,1.06
4641.00,1.06
4640.00,1.06
4639.00,1.06
4638.00,1.06
4637.00,1.06
4636.00,1.06
4635.00,1.06
4634.00,1.06
4633.00,1.07
4632.00,1.07
4631.00,1.07
4630.00,1.07
4629.00,1.07
4628.00,1.07
4627.00,1.07
4626.00,1.07
4625.00,1.07
4624.00,1.07
4623.00,1.07
4622.00,1.07
4621.00,1.07
4620.00,1.08
4619.00,1.08
4618.00,1.08
4617.00,1.08
4616.00,1.08
4615.00,1.08
4614.00,1.08
4613.00,1.08
4612.00,1.08
4611.00,1.08
4610.00,1.08
4609.00,1.08
4608.00,1.08
4607.00,1.08
4606.00,1.08
4605.00,1.08
4604.00,1.08
4603.00,1.08
4602.00,1.08
4601.00,1.08
4600.00,1.08
4599.00,1.08
4598.00,1.08
4597.00,1.08
4596.00,1.08
4595.00,1.08
4594.00,1.08
4593.00,1.09
4592.00,1.09
4591.00,1.09
4590.00,1.09
4589.00,1.09
4588.00,1.09
4587.00,1.09
4586.00,1.09
4585.00,1.09
4584.00,1.09
4583.00,1.09
4582.00,1.09
4581.00,1.09
4580.00,1.09
4579.00,1.10
4578.00,1.10
4577.00,1.10
4576.00,1.10
4575.00,1.10
4574.00,1.10
4573.00,1.10
4572.00,1.10
4571.00,1.10
4570.00,1.10
4569.00,1.10
4568.00,1.10
4567.00,1.10
4566.00,1.10
4565.00,1.10
4564.00,1.10
4563.00,1.10
4562.00,1.10
4561.00,1.10
4560.00,1.10
4559.00,1.10
4558.00,1.10
4557.00,1.10
4556.00,1.10
4555.00,1.10
4554.00,1.10
4553.00,1.10
4552.00,1.10
4551.00,1.10
4550.00,1.11
4549.00,1.11
4548.00,1.11
4547.00,1.11
4546.00,1.11
4545.00,1.11
4544.00,1.11
4543.00,1.11
4542.00,1.11
4541.00,1.11
4540.00,1.11
4539.00,1.11
4538.00,1.11
4537.00,1.11
4536.00,1.12
4535.00,1.12
4534.00,1.12
4533.00,1.12
4532.00,1.12
4531.00,1.12
4530.00,1.12
4529.00,1.12
4528.00,1.12
4527.00,1.12
4526.00,1.12
4525.00,1.12
4524.00,1.12
4523.00,1.12
4522.00,1.12
4521.00,1.12
4520.00,1.12
4519.00,1.12
4518.00,1.12
4517.00,1.12
4516.00,1.12
4515.00,1.12
4514.00,1.12
4513.00,1.12
4512.00,1.12
4511.00,1.12
4510.00,1.12
4509.00,1.12
4508.00,1.12
4507.00,1.12
4506.00,1.12
4505.00,1.12
4504.00,1.12
4503.00,1.12
4502.00,1.12
4501.00,1.12
4500.00,1.12
4499.00,1.12
4498.00,1.12
4497.00,1.12
4496.00,1.12
4495.00,1.12
4494.00,1.12
4493.00,1.12
4492.00,1.12
4491.00,1.12
4490.00,1.12
4489.00,1.12
4488.00,1.12
4487.00,1.12
4486.00,1.12
4485.00,1.12
4484.00,1.12
4483.00,1.12
4482.00,1.12
4481.00,1.12
4480.00,1.12
4479.00,1.12
4478.00,1.12
4477.00,1.12
4476.00,1.12
4475.00,1.12
4474.00,1.12
4473.00,1.12
4472.00,1.12
4471.00,1.11
4470.00,1.11
4469.00,1.11
4468.00,1.11
4467.00,1.11
4466.00,1.11
4465.00,1.11
4464.00,1.11
4463.00,1.10
4462.00,1.10
4461.00,1.10
4460.00,1.10
4459.00,1.10
4458.00,1.10
4457.00,1.10
4456.00,1.10
4455.00,1.10
4454.00,1.10
4453.00,1.10
4452.00,1.10
4451.00,1.10
4450.00,1.10
4449.00,1.09
4448.00,1.09
4447.00,1.09
4446.00,1.09
4445.00,1.09
4444.00,1.09
4443.00,1.09
4442.00,1.09
4441.00,1.08
4440.00,1.08
4439.00,1.08
4438.00,1.08
4437.00,1.08
4436.00,1.08
4435.00,1.08
4434.00,1.08
4433.00,1.08
4432.00,1.08
4431.00,1.08
4430.00,1.08
4429.00,1.08
4428.00,1.08
4427.00,1.09
4426.00,1.09
4425.00,1.09
4424.00,1.09
4423.00,1.09
4422.00,1.09
4421.00,1.09
4420.00,1.09
4419.00,1.09
4418.00,1.09
4417.00,1.09
4416.00,1.09
4415.00,1.09
4414.00,1.09
4413.00,1.09
4412.00,1.09
4411.00,1.09
4410.00,1.09
4409.00,1.09
4408.00,1.09
4407.00,1.09
4406.00,1.09
4405.00,1.09
4404.00,1.09
4403.00,1.09
4402.00,1.09
4401.00,1.09
4400.00,1.09
4399.00,1.09
4398.00,1.09
4397.00,1.09
4396.00,1.10
4395.00,1.10
4394.00,1.10
4393.00,1.10
4392.00,1.10
4391.00,1.10
4390.00,1.10
4389.00,1.10
4388.00,1.10
4387.00,1.10
4386.00,1.10
4385.00,1.10
4384.00,1.10
4383.00,1.10
4382.00,1.10
4381.00,1.10
4380.00,1.10
4379.00,1.11
4378.00,1.11
4377.00,1.11
4376.00,1.11
4375.00,1.11
4374.00,1.11
4373.00,1.11
4372.00,1.11
4371.00,1.11
4370.00,1.11
4369.00,1.11
4368.00,1.11
4367.00,1.11
4366.00,1.11
4365.00,1.11
4364.00,1.11
4363.00,1.11
4362.00,1.11
4361.00,1.12
4360.00,1.12
4359.00,1.12
4358.00,1.12
4357.00,1.12
4356.00,1.12
4355.00,1.12
4354.00,1.12
4353.00,1.12
4352.00,1.12
4351.00,1.12
4350.00,1.12
4349.00,1.13
4348.00,1.13
4347.00,1.13
4346.00,1.13
4345.00,1.13
4344.00,1.13
4343.00,1.13
4342.00,1.13
4341.00,1.13
4340.00,1.13
4339.00,1.13
4338.00,1.13
4337.00,1.13
4336.00,1.13
4335.00,1.13
4334.00,1.13
4333.00,1.13
4332.00,1.13
4331.00,1.13
4330.00,1.13
4329.00,1.13
4328.00,1.13
4327.00,1.13
4326.00,1.13
4325.00,1.13
4324.00,1.13
4323.00,1.13
4322.00,1.13
4321.00,1.13
4320.00,1.13
4319.00,1.13
4318.00,1.13
4317.00,1.13
4316.00,1.14
4315.00,1.14
4314.00,1.14
4313.00,1.14
4312.00,1.14
4311.00,1.14
4310.00,1.14
4309.00,1.14
4308.00,1.15
4307.00,1.15
4306.00,1.15
4305.00,1.15
4304.00,1.15
4303.00,1.15
4302.00,1.15
4301.00,1.15
4300.00,1.15
4299.00,1.15
4298.00,1.15
4297.00,1.15
4296.00,1.15
4295.00,1.15
4294.00,1.15
4293.00,1.15
4292.00,1.15
4291.00,1.15
4290.00,1.15
4289.00,1.15
4288.00,1.15
4287.00,1.16
4286.00,1.16
4285.00,1.16
4284.00,1.16
4283.00,1.16
4282.00,1.16
4281.00,1.16
4280.00,1.16
4279.00,1.16
4278.00,1.16
4277.00,1.16
4276.00,1.16
4275.00,1.16
4274.00,1.16
4273.00,1.16
4272.00,1.16
4271.00,1.16
4270.00,1.16
4269.00,1.16
4268.00,1.16
4267.00,1.16
4266.00,1.16
4265.00,1.16
4264.00,1.16
4263.00,1.16
4262.00,1.16
4261.00,1.17
4260.00,1.17
4259.00,1.17
4258.00,1.17
4257.00,1.17
4256.00,1.17
4255.00,1.18
4254.00,1.18
4253.00,1.18
4252.00,1.18
4251.00,1.18
4250.00,1.18
4249.00,1.18
4248.00,1.18
4247.00,1.19
4246.00,1.19
4245.00,1.19
4244.00,1.19
4243.00,1.19
4242.00,1.19
4241.00,1.19
4240.00,1.19
4239.00,1.19
4238.00,1.19
4237.00,1.19
4236.00,1.19
4235.00,1.19
4234.00,1.19
4233.00,1.19
4232.00,1.19
4231.00,1.19
4230.00,1.19
4229.00,1.19
4228.00,1.19
4227.00,1.19
4226.00,1.19
4225.00,1.19
4224.00,1.19
4223.00,1.19
4222.00,1.19
4221.00,1.19
4220.00,1.19
4219.00,1.19
4218.00,1.19
4217.00,1.19
4216.00,1.19
4215.00,1.19
4214.00,1.19
4213.00,1.19
4212.00,1.20
4211.00,1.20
4210.00,1.20
4209.00,1.20
4208.00,1.20
4207.00,1.20
4206.00,1.20
4205.00,1.20
4204.00,1.20
4203.00,1.20
4202.00,1.20
4201.00,1.20
4200.00,1.20
4199.00,1.20
4198.00,1.20
4197.00,1.20
4196.00,1.20
4195.00,1.20
4194.00,1.20
4193.00,1.20
4192.00,1.20
4191.00,1.20
4190.00,1.20
4189.00,1.20
4188.00,1.20
4187.00,1.20
4186.00,1.20
4185.00,1.20
4184.00,1.20
4183.00,1.20
4182.00,1.20
4181.00,1.20
4180.00,1.21
4179.00,1.21
4178.00,1.21
4177.00,1.21
4176.00,1.21
4175.00,1.21
4174.00,1.21
4173.00,1.21
4172.00,1.21
4171.00,1.21
4170.00,1.21
4169.00,1.21
4168.00,1.21
4167.00,1.22
4166.00,1.22
4165.00,1.22
4164.00,1.22
4163.00,1.22
4162.00,1.22
4161.00,1.22
4160.00,1.22
4159.00,1.22
4158.00,1.22
4157.00,1.22
4156.00,1.22
4155.00,1.22
4154.00,1.22
4153.00,1.22
4152.00,1.22
4151.00,1.23
4150.00,1.23
4149.00,1.23
4148.00,1.23
4147.00,1.23
4146.00,1.23
4145.00,1.23
4144.00,1.23
4143.00,1.23
4142.00,1.23
4141.00,1.23
4140.00,1.23
4139.00,1.23
4138.00,1.23
4137.00,1.23
4136.00,1.23
4135.00,1.23
4134.00,1.23
4133.00,1.23
4132.00,1.23
4131.00,1.23
4130.00,1.23
4129.00,1.23
4128.00,1.23
4127.00,1.23
4126.00,1.23
4125.00,1.23
4124.00,1.23
4123.00,1.24
4122.00,1.24
4121.00,1.24
4120.00,1.24
4119.00,1.24
4118.00,1.24
4117.00,1.24
4116.00,1.24
4115.00,1.24
4114.00,1.25
4113.00,1.25
4112.00,1.25
4111.00,1.25
4110.00,1.25
4109.00,1.25
4108.00,1.25
4107.00,1.25
4106.00,1.25
4105.00,1.25
4104.00,1.25
4103.00,1.25
4102.00,1.25
4101.00,1.25
4100.00,1.25
4099.00,1.25
4098.00,1.25
4097.00,1.25
4096.00,1.25
4095.00,1.25
4094.00,1.25
4093.00,1.25
4092.00,1.25
4091.00,1.25
4090.00,1.25
4089.00,1.25
4088.00,1.25
4087.00,1.25
4086.00,1.25
4085.00,1.25
4084.00,1.25
4083.00,1.25
4082.00,1.25
4081.00,1.25
4080.00,1.25
4079.00,1.25
4078.00,1.25
4077.00,1.25
4076.00,1.26
4075.00,1.26
4074.00,1.26
4073.00,1.26
4072.00,1.26
4071.00,1.26
4070.00,1.26
4069.00,1.26
4068.00,1.26
4067.00,1.26
4066.00,1.26
4065.00,1.26
4064.00,1.26
4063.00,1.26
4062.00,1.26
4061.00,1.26
4060.00,1.26
4059.00,1.26
4058.00,1.26
4057.00,1.26
4056.00,1.26
4055.00,1.26
4054.00,1.26
4053.00,1.26
4052.00,1.26
4051.00,1.26
4050.00,1.26
4049.00,1.26
4048.00,1.26
4047.00,1.26
4046.00,1.27
4045.00,1.27
4044.00,1.27
4043.00,1.27
4042.00,1.28
4041.00,1.28
4040.00,1.28
4039.00,1.28
4038.00,1.28
4037.00,1.29
4036.00,1.29
4035.00,1.29
4034.00,1.29
4033.00,1.29
4032.00,1.29
4031.00,1.29
4030.00,1.29
4029.00,1.29
4028.00,1.29
4027.00,1.29
4026.00,1.28
4025.00,1.28
4024.00,1.28
4023.00,1.28
4022.00,1.28
4021.00,1.28
4020.00,1.28
4019.00,1.28
4018.00,1.28
4017.00,1.28
4016.00,1.28
4015.00,1.28
4014.00,1.29
4013.00,1.29
4012.00,1.29
4011.00,1.29
4010.00,1.29
4009.00,1.29
4008.00,1.29
4007.00,1.29
4006.00,1.29
4005.00,1.29
4004.00,1.29
4003.00,1.29
4002.00,1.29
4001.00,1.29
4000.00,1.29
