创建为新数据集,样品 171 用户 Administrator 日期 星期六, 七月 21 2018
cm-1,%T
10000.00,1.38
9999.00,1.37
9998.00,1.37
9997.00,1.37
9996.00,1.37
9995.00,1.37
9994.00,1.37
9993.00,1.37
9992.00,1.37
9991.00,1.37
9990.00,1.37
9989.00,1.37
9988.00,1.37
9987.00,1.37
9986.00,1.37
9985.00,1.37
9984.00,1.37
9983.00,1.37
9982.00,1.38
9981.00,1.38
9980.00,1.38
9979.00,1.38
9978.00,1.38
9977.00,1.38
9976.00,1.38
9975.00,1.38
9974.00,1.38
9973.00,1.37
9972.00,1.37
9971.00,1.37
9970.00,1.37
9969.00,1.37
9968.00,1.37
9967.00,1.37
9966.00,1.38
9965.00,1.38
9964.00,1.38
9963.00,1.38
9962.00,1.37
9961.00,1.37
9960.00,1.37
9959.00,1.37
9958.00,1.37
9957.00,1.36
9956.00,1.36
9955.00,1.36
9954.00,1.35
9953.00,1.35
9952.00,1.34
9951.00,1.34
9950.00,1.33
9949.00,1.33
9948.00,1.32
9947.00,1.32
9946.00,1.31
9945.00,1.31
9944.00,1.31
9943.00,1.31
9942.00,1.31
9941.00,1.31
9940.00,1.31
9939.00,1.31
9938.00,1.31
9937.00,1.31
9936.00,1.32
9935.00,1.32
9934.00,1.32
9933.00,1.33
9932.00,1.33
9931.00,1.33
9930.00,1.34
9929.00,1.34
9928.00,1.34
9927.00,1.35
9926.00,1.35
9925.00,1.35
9924.00,1.35
9923.00,1.35
9922.00,1.35
9921.00,1.35
9920.00,1.35
9919.00,1.35
9918.00,1.35
9917.00,1.35
9916.00,1.35
9915.00,1.34
9914.00,1.34
9913.00,1.34
9912.00,1.34
9911.00,1.34
9910.00,1.33
9909.00,1.33
9908.00,1.33
9907.00,1.33
9906.00,1.33
9905.00,1.33
9904.00,1.33
9903.00,1.33
9902.00,1.33
9901.00,1.33
9900.00,1.33
9899.00,1.33
9898.00,1.33
9897.00,1.33
9896.00,1.33
9895.00,1.33
9894.00,1.33
9893.00,1.33
9892.00,1.33
9891.00,1.34
9890.00,1.34
9889.00,1.34
9888.00,1.34
9887.00,1.34
9886.00,1.34
9885.00,1.34
9884.00,1.34
9883.00,1.34
9882.00,1.34
9881.00,1.34
9880.00,1.34
9879.00,1.34
9878.00,1.34
9877.00,1.34
9876.00,1.34
9875.00,1.34
9874.00,1.33
9873.00,1.33
9872.00,1.33
9871.00,1.33
9870.00,1.33
9869.00,1.33
9868.00,1.33
9867.00,1.33
9866.00,1.33
9865.00,1.33
9864.00,1.33
9863.00,1.32
9862.00,1.32
9861.00,1.32
9860.00,1.32
9859.00,1.32
9858.00,1.32
9857.00,1.31
9856.00,1.31
9855.00,1.31
9854.00,1.31
9853.00,1.31
9852.00,1.31
9851.00,1.31
9850.00,1.31
9849.00,1.32
9848.00,1.32
9847.00,1.32
9846.00,1.32
9845.00,1.32
9844.00,1.33
9843.00,1.33
9842.00,1.33
9841.00,1.34
9840.00,1.34
9839.00,1.34
9838.00,1.34
9837.00,1.34
9836.00,1.34
9835.00,1.34
9834.00,1.34
9833.00,1.34
9832.00,1.34
9831.00,1.34
9830.00,1.34
9829.00,1.34
9828.00,1.34
9827.00,1.34
9826.00,1.34
9825.00,1.33
9824.00,1.33
9823.00,1.33
9822.00,1.33
9821.00,1.33
9820.00,1.33
9819.00,1.33
9818.00,1.33
9817.00,1.33
9816.00,1.33
9815.00,1.33
9814.00,1.33
9813.00,1.34
9812.00,1.34
9811.00,1.34
9810.00,1.34
9809.00,1.35
9808.00,1.35
9807.00,1.35
9806.00,1.35
9805.00,1.36
9804.00,1.36
9803.00,1.36
9802.00,1.36
9801.00,1.36
9800.00,1.36
9799.00,1.36
9798.00,1.36
9797.00,1.36
9796.00,1.35
9795.00,1.35
9794.00,1.35
9793.00,1.35
9792.00,1.35
9791.00,1.35
9790.00,1.34
9789.00,1.34
9788.00,1.34
9787.00,1.34
9786.00,1.34
9785.00,1.34
9784.00,1.34
9783.00,1.34
9782.00,1.33
9781.00,1.33
9780.00,1.33
9779.00,1.33
9778.00,1.33
9777.00,1.33
9776.00,1.33
9775.00,1.33
9774.00,1.33
9773.00,1.33
9772.00,1.33
9771.00,1.33
9770.00,1.33
9769.00,1.33
9768.00,1.33
9767.00,1.33
9766.00,1.33
9765.00,1.33
9764.00,1.33
9763.00,1.33
9762.00,1.33
9761.00,1.33
9760.00,1.33
9759.00,1.33
9758.00,1.33
9757.00,1.33
9756.00,1.34
9755.00,1.34
9754.00,1.34
9753.00,1.34
9752.00,1.34
9751.00,1.34
9750.00,1.34
9749.00,1.34
9748.00,1.34
9747.00,1.34
9746.00,1.34
9745.00,1.34
9744.00,1.34
9743.00,1.34
9742.00,1.34
9741.00,1.34
9740.00,1.34
9739.00,1.34
9738.00,1.34
9737.00,1.33
9736.00,1.33
9735.00,1.33
9734.00,1.33
9733.00,1.33
9732.00,1.33
9731.00,1.33
9730.00,1.33
9729.00,1.33
9728.00,1.33
9727.00,1.34
9726.00,1.34
9725.00,1.34
9724.00,1.34
9723.00,1.35
9722.00,1.35
9721.00,1.35
9720.00,1.35
9719.00,1.35
9718.00,1.35
9717.00,1.35
9716.00,1.35
9715.00,1.35
9714.00,1.35
9713.00,1.35
9712.00,1.35
9711.00,1.34
9710.00,1.34
9709.00,1.34
9708.00,1.34
9707.00,1.34
9706.00,1.34
9705.00,1.33
9704.00,1.33
9703.00,1.33
9702.00,1.33
9701.00,1.33
9700.00,1.33
9699.00,1.33
9698.00,1.33
9697.00,1.33
9696.00,1.33
9695.00,1.34
9694.00,1.34
9693.00,1.34
9692.00,1.34
9691.00,1.34
9690.00,1.34
9689.00,1.34
9688.00,1.34
9687.00,1.34
9686.00,1.34
9685.00,1.34
9684.00,1.34
9683.00,1.34
9682.00,1.34
9681.00,1.34
9680.00,1.34
9679.00,1.34
9678.00,1.34
9677.00,1.34
9676.00,1.35
9675.00,1.35
9674.00,1.35
9673.00,1.35
9672.00,1.35
9671.00,1.35
9670.00,1.35
9669.00,1.35
9668.00,1.35
9667.00,1.35
9666.00,1.35
9665.00,1.35
9664.00,1.35
9663.00,1.35
9662.00,1.35
9661.00,1.34
9660.00,1.34
9659.00,1.34
9658.00,1.34
9657.00,1.34
9656.00,1.34
9655.00,1.33
9654.00,1.33
9653.00,1.33
9652.00,1.34
9651.00,1.34
9650.00,1.34
9649.00,1.34
9648.00,1.34
9647.00,1.34
9646.00,1.34
9645.00,1.35
9644.00,1.35
9643.00,1.35
9642.00,1.35
9641.00,1.35
9640.00,1.35
9639.00,1.35
9638.00,1.35
9637.00,1.35
9636.00,1.35
9635.00,1.35
9634.00,1.35
9633.00,1.35
9632.00,1.35
9631.00,1.34
9630.00,1.34
9629.00,1.34
9628.00,1.34
9627.00,1.34
9626.00,1.34
9625.00,1.34
9624.00,1.34
9623.00,1.34
9622.00,1.34
9621.00,1.34
9620.00,1.34
9619.00,1.34
9618.00,1.34
9617.00,1.34
9616.00,1.34
9615.00,1.34
9614.00,1.34
9613.00,1.34
9612.00,1.34
9611.00,1.34
9610.00,1.34
9609.00,1.34
9608.00,1.34
9607.00,1.34
9606.00,1.34
9605.00,1.34
9604.00,1.34
9603.00,1.34
9602.00,1.34
9601.00,1.34
9600.00,1.33
9599.00,1.33
9598.00,1.33
9597.00,1.33
9596.00,1.33
9595.00,1.33
9594.00,1.33
9593.00,1.33
9592.00,1.33
9591.00,1.34
9590.00,1.34
9589.00,1.34
9588.00,1.34
9587.00,1.34
9586.00,1.34
9585.00,1.35
9584.00,1.35
9583.00,1.35
9582.00,1.36
9581.00,1.36
9580.00,1.36
9579.00,1.36
9578.00,1.37
9577.00,1.37
9576.00,1.37
9575.00,1.37
9574.00,1.37
9573.00,1.37
9572.00,1.37
9571.00,1.37
9570.00,1.37
9569.00,1.37
9568.00,1.37
9567.00,1.36
9566.00,1.36
9565.00,1.36
9564.00,1.36
9563.00,1.36
9562.00,1.36
9561.00,1.36
9560.00,1.36
9559.00,1.36
9558.00,1.36
9557.00,1.36
9556.00,1.36
9555.00,1.36
9554.00,1.36
9553.00,1.36
9552.00,1.36
9551.00,1.35
9550.00,1.35
9549.00,1.35
9548.00,1.35
9547.00,1.35
9546.00,1.35
9545.00,1.35
9544.00,1.35
9543.00,1.35
9542.00,1.35
9541.00,1.35
9540.00,1.35
9539.00,1.35
9538.00,1.35
9537.00,1.35
9536.00,1.35
9535.00,1.35
9534.00,1.35
9533.00,1.36
9532.00,1.36
9531.00,1.36
9530.00,1.36
9529.00,1.36
9528.00,1.36
9527.00,1.36
9526.00,1.36
9525.00,1.36
9524.00,1.36
9523.00,1.36
9522.00,1.36
9521.00,1.35
9520.00,1.35
9519.00,1.35
9518.00,1.35
9517.00,1.35
9516.00,1.34
9515.00,1.34
9514.00,1.34
9513.00,1.34
9512.00,1.33
9511.00,1.33
9510.00,1.33
9509.00,1.33
9508.00,1.33
9507.00,1.33
9506.00,1.33
9505.00,1.33
9504.00,1.33
9503.00,1.33
9502.00,1.33
9501.00,1.34
9500.00,1.34
9499.00,1.34
9498.00,1.34
9497.00,1.34
9496.00,1.34
9495.00,1.34
9494.00,1.34
9493.00,1.34
9492.00,1.34
9491.00,1.34
9490.00,1.34
9489.00,1.34
9488.00,1.34
9487.00,1.34
9486.00,1.34
9485.00,1.33
9484.00,1.33
9483.00,1.33
9482.00,1.33
9481.00,1.33
9480.00,1.33
9479.00,1.33
9478.00,1.33
9477.00,1.33
9476.00,1.33
9475.00,1.33
9474.00,1.33
9473.00,1.33
9472.00,1.34
9471.00,1.34
9470.00,1.34
9469.00,1.34
9468.00,1.34
9467.00,1.35
9466.00,1.35
9465.00,1.35
9464.00,1.35
9463.00,1.35
9462.00,1.35
9461.00,1.36
9460.00,1.36
9459.00,1.36
9458.00,1.36
9457.00,1.36
9456.00,1.36
9455.00,1.36
9454.00,1.36
9453.00,1.36
9452.00,1.36
9451.00,1.35
9450.00,1.35
9449.00,1.35
9448.00,1.35
9447.00,1.35
9446.00,1.35
9445.00,1.35
9444.00,1.35
9443.00,1.35
9442.00,1.35
9441.00,1.35
9440.00,1.34
9439.00,1.35
9438.00,1.35
9437.00,1.35
9436.00,1.35
9435.00,1.35
9434.00,1.35
9433.00,1.35
9432.00,1.35
9431.00,1.35
9430.00,1.35
9429.00,1.35
9428.00,1.36
9427.00,1.36
9426.00,1.36
9425.00,1.36
9424.00,1.36
9423.00,1.36
9422.00,1.36
9421.00,1.36
9420.00,1.36
9419.00,1.36
9418.00,1.36
9417.00,1.36
9416.00,1.36
9415.00,1.37
9414.00,1.37
9413.00,1.37
9412.00,1.37
9411.00,1.37
9410.00,1.37
9409.00,1.37
9408.00,1.37
9407.00,1.37
9406.00,1.37
9405.00,1.36
9404.00,1.36
9403.00,1.36
9402.00,1.36
9401.00,1.36
9400.00,1.36
9399.00,1.36
9398.00,1.36
9397.00,1.36
9396.00,1.36
9395.00,1.36
9394.00,1.36
9393.00,1.35
9392.00,1.35
9391.00,1.35
9390.00,1.35
9389.00,1.35
9388.00,1.35
9387.00,1.35
9386.00,1.35
9385.00,1.35
9384.00,1.35
9383.00,1.35
9382.00,1.35
9381.00,1.35
9380.00,1.34
9379.00,1.34
9378.00,1.34
9377.00,1.34
9376.00,1.34
9375.00,1.34
9374.00,1.34
9373.00,1.34
9372.00,1.34
9371.00,1.34
9370.00,1.34
9369.00,1.34
9368.00,1.34
9367.00,1.34
9366.00,1.34
9365.00,1.34
9364.00,1.34
9363.00,1.34
9362.00,1.34
9361.00,1.34
9360.00,1.34
9359.00,1.34
9358.00,1.34
9357.00,1.34
9356.00,1.34
9355.00,1.34
9354.00,1.34
9353.00,1.34
9352.00,1.34
9351.00,1.34
9350.00,1.33
9349.00,1.33
9348.00,1.33
9347.00,1.33
9346.00,1.33
9345.00,1.33
9344.00,1.33
9343.00,1.33
9342.00,1.33
9341.00,1.33
9340.00,1.33
9339.00,1.33
9338.00,1.33
9337.00,1.33
9336.00,1.33
9335.00,1.33
9334.00,1.33
9333.00,1.33
9332.00,1.33
9331.00,1.33
9330.00,1.33
9329.00,1.33
9328.00,1.33
9327.00,1.33
9326.00,1.33
9325.00,1.33
9324.00,1.33
9323.00,1.33
9322.00,1.33
9321.00,1.33
9320.00,1.33
9319.00,1.33
9318.00,1.33
9317.00,1.33
9316.00,1.33
9315.00,1.33
9314.00,1.33
9313.00,1.34
9312.00,1.34
9311.00,1.34
9310.00,1.34
9309.00,1.34
9308.00,1.34
9307.00,1.34
9306.00,1.34
9305.00,1.34
9304.00,1.34
9303.00,1.35
9302.00,1.35
9301.00,1.35
9300.00,1.35
9299.00,1.36
9298.00,1.36
9297.00,1.36
9296.00,1.36
9295.00,1.36
9294.00,1.37
9293.00,1.37
9292.00,1.37
9291.00,1.37
9290.00,1.37
9289.00,1.37
9288.00,1.37
9287.00,1.37
9286.00,1.37
9285.00,1.37
9284.00,1.37
9283.00,1.37
9282.00,1.37
9281.00,1.37
9280.00,1.37
9279.00,1.37
9278.00,1.37
9277.00,1.37
9276.00,1.36
9275.00,1.36
9274.00,1.36
9273.00,1.36
9272.00,1.36
9271.00,1.36
9270.00,1.36
9269.00,1.36
9268.00,1.36
9267.00,1.36
9266.00,1.36
9265.00,1.36
9264.00,1.36
9263.00,1.36
9262.00,1.36
9261.00,1.36
9260.00,1.37
9259.00,1.37
9258.00,1.37
9257.00,1.37
9256.00,1.37
9255.00,1.37
9254.00,1.36
9253.00,1.36
9252.00,1.36
9251.00,1.36
9250.00,1.36
9249.00,1.36
9248.00,1.36
9247.00,1.35
9246.00,1.35
9245.00,1.35
9244.00,1.35
9243.00,1.35
9242.00,1.35
9241.00,1.34
9240.00,1.34
9239.00,1.34
9238.00,1.34
9237.00,1.34
9236.00,1.34
9235.00,1.34
9234.00,1.34
9233.00,1.34
9232.00,1.34
9231.00,1.35
9230.00,1.35
9229.00,1.35
9228.00,1.35
9227.00,1.35
9226.00,1.35
9225.00,1.35
9224.00,1.35
9223.00,1.35
9222.00,1.35
9221.00,1.35
9220.00,1.35
9219.00,1.35
9218.00,1.35
9217.00,1.35
9216.00,1.35
9215.00,1.35
9214.00,1.35
9213.00,1.35
9212.00,1.35
9211.00,1.35
9210.00,1.35
9209.00,1.35
9208.00,1.35
9207.00,1.36
9206.00,1.36
9205.00,1.36
9204.00,1.36
9203.00,1.36
9202.00,1.36
9201.00,1.37
9200.00,1.37
9199.00,1.37
9198.00,1.37
9197.00,1.37
9196.00,1.37
9195.00,1.37
9194.00,1.37
9193.00,1.36
9192.00,1.36
9191.00,1.36
9190.00,1.36
9189.00,1.35
9188.00,1.35
9187.00,1.34
9186.00,1.34
9185.00,1.33
9184.00,1.33
9183.00,1.33
9182.00,1.32
9181.00,1.32
9180.00,1.32
9179.00,1.32
9178.00,1.32
9177.00,1.32
9176.00,1.32
9175.00,1.32
9174.00,1.32
9173.00,1.32
9172.00,1.32
9171.00,1.33
9170.00,1.33
9169.00,1.33
9168.00,1.34
9167.00,1.34
9166.00,1.35
9165.00,1.35
9164.00,1.35
9163.00,1.36
9162.00,1.36
9161.00,1.36
9160.00,1.36
9159.00,1.37
9158.00,1.37
9157.00,1.37
9156.00,1.37
9155.00,1.37
9154.00,1.37
9153.00,1.37
9152.00,1.37
9151.00,1.37
9150.00,1.37
9149.00,1.37
9148.00,1.37
9147.00,1.37
9146.00,1.36
9145.00,1.36
9144.00,1.36
9143.00,1.36
9142.00,1.36
9141.00,1.36
9140.00,1.36
9139.00,1.35
9138.00,1.35
9137.00,1.35
9136.00,1.35
9135.00,1.35
9134.00,1.35
9133.00,1.34
9132.00,1.34
9131.00,1.34
9130.00,1.34
9129.00,1.34
9128.00,1.33
9127.00,1.33
9126.00,1.33
9125.00,1.33
9124.00,1.33
9123.00,1.33
9122.00,1.34
9121.00,1.34
9120.00,1.34
9119.00,1.34
9118.00,1.34
9117.00,1.35
9116.00,1.35
9115.00,1.35
9114.00,1.36
9113.00,1.36
9112.00,1.36
9111.00,1.37
9110.00,1.37
9109.00,1.37
9108.00,1.37
9107.00,1.37
9106.00,1.37
9105.00,1.37
9104.00,1.37
9103.00,1.37
9102.00,1.37
9101.00,1.37
9100.00,1.37
9099.00,1.37
9098.00,1.36
9097.00,1.36
9096.00,1.36
9095.00,1.36
9094.00,1.35
9093.00,1.35
9092.00,1.35
9091.00,1.35
9090.00,1.35
9089.00,1.34
9088.00,1.34
9087.00,1.34
9086.00,1.34
9085.00,1.34
9084.00,1.34
9083.00,1.34
9082.00,1.34
9081.00,1.34
9080.00,1.34
9079.00,1.34
9078.00,1.34
9077.00,1.34
9076.00,1.34
9075.00,1.34
9074.00,1.34
9073.00,1.34
9072.00,1.34
9071.00,1.34
9070.00,1.34
9069.00,1.34
9068.00,1.34
9067.00,1.34
9066.00,1.33
9065.00,1.33
9064.00,1.33
9063.00,1.33
9062.00,1.32
9061.00,1.32
9060.00,1.32
9059.00,1.32
9058.00,1.32
9057.00,1.32
9056.00,1.32
9055.00,1.32
9054.00,1.33
9053.00,1.33
9052.00,1.33
9051.00,1.33
9050.00,1.34
9049.00,1.34
9048.00,1.34
9047.00,1.35
9046.00,1.35
9045.00,1.35
9044.00,1.35
9043.00,1.36
9042.00,1.36
9041.00,1.36
9040.00,1.36
9039.00,1.37
9038.00,1.37
9037.00,1.37
9036.00,1.37
9035.00,1.37
9034.00,1.37
9033.00,1.37
9032.00,1.37
9031.00,1.37
9030.00,1.37
9029.00,1.37
9028.00,1.37
9027.00,1.37
9026.00,1.37
9025.00,1.37
9024.00,1.37
9023.00,1.37
9022.00,1.37
9021.00,1.37
9020.00,1.37
9019.00,1.37
9018.00,1.37
9017.00,1.37
9016.00,1.37
9015.00,1.36
9014.00,1.36
9013.00,1.36
9012.00,1.36
9011.00,1.36
9010.00,1.36
9009.00,1.35
9008.00,1.35
9007.00,1.35
9006.00,1.35
9005.00,1.35
9004.00,1.35
9003.00,1.34
9002.00,1.34
9001.00,1.34
9000.00,1.34
8999.00,1.34
8998.00,1.34
8997.00,1.34
8996.00,1.34
8995.00,1.34
8994.00,1.34
8993.00,1.34
8992.00,1.34
8991.00,1.35
8990.00,1.35
8989.00,1.35
8988.00,1.35
8987.00,1.35
8986.00,1.35
8985.00,1.35
8984.00,1.35
8983.00,1.35
8982.00,1.35
8981.00,1.35
8980.00,1.35
8979.00,1.35
8978.00,1.35
8977.00,1.35
8976.00,1.35
8975.00,1.35
8974.00,1.35
8973.00,1.35
8972.00,1.35
8971.00,1.35
8970.00,1.35
8969.00,1.35
8968.00,1.35
8967.00,1.35
8966.00,1.35
8965.00,1.35
8964.00,1.35
8963.00,1.35
8962.00,1.35
8961.00,1.35
8960.00,1.35
8959.00,1.35
8958.00,1.35
8957.00,1.35
8956.00,1.35
8955.00,1.35
8954.00,1.35
8953.00,1.35
8952.00,1.35
8951.00,1.35
8950.00,1.35
8949.00,1.35
8948.00,1.35
8947.00,1.35
8946.00,1.34
8945.00,1.34
8944.00,1.34
8943.00,1.34
8942.00,1.34
8941.00,1.34
8940.00,1.34
8939.00,1.34
8938.00,1.34
8937.00,1.33
8936.00,1.33
8935.00,1.33
8934.00,1.33
8933.00,1.33
8932.00,1.33
8931.00,1.33
8930.00,1.33
8929.00,1.33
8928.00,1.34
8927.00,1.34
8926.00,1.34
8925.00,1.34
8924.00,1.34
8923.00,1.35
8922.00,1.35
8921.00,1.35
8920.00,1.35
8919.00,1.36
8918.00,1.36
8917.00,1.36
8916.00,1.36
8915.00,1.37
8914.00,1.37
8913.00,1.37
8912.00,1.37
8911.00,1.37
8910.00,1.37
8909.00,1.37
8908.00,1.37
8907.00,1.37
8906.00,1.37
8905.00,1.37
8904.00,1.37
8903.00,1.37
8902.00,1.37
8901.00,1.37
8900.00,1.37
8899.00,1.37
8898.00,1.36
8897.00,1.36
8896.00,1.36
8895.00,1.36
8894.00,1.36
8893.00,1.36
8892.00,1.36
8891.00,1.35
8890.00,1.35
8889.00,1.35
8888.00,1.35
8887.00,1.35
8886.00,1.35
8885.00,1.35
8884.00,1.35
8883.00,1.35
8882.00,1.36
8881.00,1.36
8880.00,1.36
8879.00,1.36
8878.00,1.36
8877.00,1.36
8876.00,1.36
8875.00,1.36
8874.00,1.36
8873.00,1.36
8872.00,1.36
8871.00,1.36
8870.00,1.36
8869.00,1.36
8868.00,1.36
8867.00,1.36
8866.00,1.36
8865.00,1.35
8864.00,1.35
8863.00,1.35
8862.00,1.35
8861.00,1.35
8860.00,1.35
8859.00,1.35
8858.00,1.35
8857.00,1.35
8856.00,1.35
8855.00,1.35
8854.00,1.35
8853.00,1.35
8852.00,1.35
8851.00,1.35
8850.00,1.35
8849.00,1.35
8848.00,1.35
8847.00,1.35
8846.00,1.35
8845.00,1.35
8844.00,1.35
8843.00,1.36
8842.00,1.36
8841.00,1.36
8840.00,1.36
8839.00,1.36
8838.00,1.36
8837.00,1.36
8836.00,1.36
8835.00,1.36
8834.00,1.36
8833.00,1.36
8832.00,1.36
8831.00,1.36
8830.00,1.36
8829.00,1.36
8828.00,1.35
8827.00,1.35
8826.00,1.35
8825.00,1.35
8824.00,1.35
8823.00,1.35
8822.00,1.34
8821.00,1.34
8820.00,1.34
8819.00,1.34
8818.00,1.34
8817.00,1.34
8816.00,1.33
8815.00,1.33
8814.00,1.33
8813.00,1.33
8812.00,1.33
8811.00,1.33
8810.00,1.32
8809.00,1.32
8808.00,1.32
8807.00,1.32
8806.00,1.32
8805.00,1.32
8804.00,1.32
8803.00,1.32
8802.00,1.32
8801.00,1.32
8800.00,1.32
8799.00,1.32
8798.00,1.32
8797.00,1.32
8796.00,1.32
8795.00,1.32
8794.00,1.32
8793.00,1.32
8792.00,1.33
8791.00,1.33
8790.00,1.33
8789.00,1.33
8788.00,1.33
8787.00,1.33
8786.00,1.34
8785.00,1.34
8784.00,1.34
8783.00,1.34
8782.00,1.34
8781.00,1.34
8780.00,1.34
8779.00,1.34
8778.00,1.34
8777.00,1.35
8776.00,1.35
8775.00,1.35
8774.00,1.34
8773.00,1.34
8772.00,1.34
8771.00,1.34
8770.00,1.34
8769.00,1.34
8768.00,1.34
8767.00,1.34
8766.00,1.34
8765.00,1.33
8764.00,1.33
8763.00,1.33
8762.00,1.33
8761.00,1.33
8760.00,1.33
8759.00,1.33
8758.00,1.32
8757.00,1.32
8756.00,1.32
8755.00,1.32
8754.00,1.31
8753.00,1.31
8752.00,1.31
8751.00,1.31
8750.00,1.31
8749.00,1.30
8748.00,1.30
8747.00,1.30
8746.00,1.30
8745.00,1.29
8744.00,1.29
8743.00,1.29
8742.00,1.29
8741.00,1.29
8740.00,1.29
8739.00,1.29
8738.00,1.29
8737.00,1.29
8736.00,1.29
8735.00,1.29
8734.00,1.29
8733.00,1.29
8732.00,1.29
8731.00,1.29
8730.00,1.29
8729.00,1.30
8728.00,1.30
8727.00,1.30
8726.00,1.30
8725.00,1.30
8724.00,1.31
8723.00,1.31
8722.00,1.31
8721.00,1.31
8720.00,1.31
8719.00,1.31
8718.00,1.31
8717.00,1.31
8716.00,1.31
8715.00,1.31
8714.00,1.31
8713.00,1.31
8712.00,1.31
8711.00,1.31
8710.00,1.31
8709.00,1.31
8708.00,1.31
8707.00,1.31
8706.00,1.30
8705.00,1.30
8704.00,1.30
8703.00,1.30
8702.00,1.30
8701.00,1.30
8700.00,1.30
8699.00,1.30
8698.00,1.30
8697.00,1.30
8696.00,1.29
8695.00,1.29
8694.00,1.29
8693.00,1.29
8692.00,1.29
8691.00,1.29
8690.00,1.29
8689.00,1.29
8688.00,1.29
8687.00,1.29
8686.00,1.29
8685.00,1.29
8684.00,1.30
8683.00,1.30
8682.00,1.30
8681.00,1.30
8680.00,1.30
8679.00,1.30
8678.00,1.30
8677.00,1.30
8676.00,1.30
8675.00,1.30
8674.00,1.30
8673.00,1.30
8672.00,1.30
8671.00,1.30
8670.00,1.30
8669.00,1.30
8668.00,1.30
8667.00,1.30
8666.00,1.30
8665.00,1.30
8664.00,1.30
8663.00,1.30
8662.00,1.29
8661.00,1.29
8660.00,1.29
8659.00,1.29
8658.00,1.29
8657.00,1.29
8656.00,1.29
8655.00,1.28
8654.00,1.28
8653.00,1.28
8652.00,1.28
8651.00,1.28
8650.00,1.28
8649.00,1.28
8648.00,1.28
8647.00,1.28
8646.00,1.28
8645.00,1.28
8644.00,1.28
8643.00,1.28
8642.00,1.28
8641.00,1.28
8640.00,1.28
8639.00,1.28
8638.00,1.28
8637.00,1.28
8636.00,1.28
8635.00,1.28
8634.00,1.28
8633.00,1.27
8632.00,1.27
8631.00,1.27
8630.00,1.27
8629.00,1.27
8628.00,1.27
8627.00,1.27
8626.00,1.27
8625.00,1.27
8624.00,1.27
8623.00,1.27
8622.00,1.27
8621.00,1.27
8620.00,1.27
8619.00,1.27
8618.00,1.27
8617.00,1.27
8616.00,1.27
8615.00,1.27
8614.00,1.27
8613.00,1.27
8612.00,1.27
8611.00,1.27
8610.00,1.27
8609.00,1.27
8608.00,1.27
8607.00,1.27
8606.00,1.27
8605.00,1.27
8604.00,1.27
8603.00,1.27
8602.00,1.27
8601.00,1.27
8600.00,1.27
8599.00,1.27
8598.00,1.27
8597.00,1.27
8596.00,1.27
8595.00,1.27
8594.00,1.27
8593.00,1.27
8592.00,1.27
8591.00,1.27
8590.00,1.27
8589.00,1.27
8588.00,1.26
8587.00,1.26
8586.00,1.26
8585.00,1.26
8584.00,1.26
8583.00,1.26
8582.00,1.26
8581.00,1.26
8580.00,1.26
8579.00,1.26
8578.00,1.26
8577.00,1.25
8576.00,1.25
8575.00,1.25
8574.00,1.25
8573.00,1.25
8572.00,1.25
8571.00,1.24
8570.00,1.24
8569.00,1.24
8568.00,1.24
8567.00,1.24
8566.00,1.24
8565.00,1.24
8564.00,1.24
8563.00,1.24
8562.00,1.24
8561.00,1.24
8560.00,1.24
8559.00,1.24
8558.00,1.24
8557.00,1.24
8556.00,1.24
8555.00,1.24
8554.00,1.24
8553.00,1.24
8552.00,1.24
8551.00,1.24
8550.00,1.24
8549.00,1.24
8548.00,1.24
8547.00,1.24
8546.00,1.24
8545.00,1.23
8544.00,1.23
8543.00,1.23
8542.00,1.23
8541.00,1.23
8540.00,1.23
8539.00,1.24
8538.00,1.24
8537.00,1.24
8536.00,1.24
8535.00,1.24
8534.00,1.24
8533.00,1.24
8532.00,1.24
8531.00,1.24
8530.00,1.25
8529.00,1.25
8528.00,1.25
8527.00,1.25
8526.00,1.25
8525.00,1.25
8524.00,1.25
8523.00,1.25
8522.00,1.25
8521.00,1.25
8520.00,1.25
8519.00,1.25
8518.00,1.25
8517.00,1.25
8516.00,1.25
8515.00,1.25
8514.00,1.25
8513.00,1.25
8512.00,1.25
8511.00,1.25
8510.00,1.24
8509.00,1.24
8508.00,1.24
8507.00,1.24
8506.00,1.24
8505.00,1.24
8504.00,1.24
8503.00,1.24
8502.00,1.24
8501.00,1.24
8500.00,1.24
8499.00,1.23
8498.00,1.23
8497.00,1.23
8496.00,1.23
8495.00,1.23
8494.00,1.23
8493.00,1.23
8492.00,1.23
8491.00,1.23
8490.00,1.23
8489.00,1.23
8488.00,1.22
8487.00,1.22
8486.00,1.22
8485.00,1.22
8484.00,1.22
8483.00,1.22
8482.00,1.22
8481.00,1.22
8480.00,1.22
8479.00,1.22
8478.00,1.22
8477.00,1.22
8476.00,1.22
8475.00,1.22
8474.00,1.22
8473.00,1.22
8472.00,1.22
8471.00,1.22
8470.00,1.22
8469.00,1.22
8468.00,1.22
8467.00,1.22
8466.00,1.22
8465.00,1.22
8464.00,1.22
8463.00,1.22
8462.00,1.22
8461.00,1.22
8460.00,1.22
8459.00,1.21
8458.00,1.21
8457.00,1.21
8456.00,1.21
8455.00,1.21
8454.00,1.21
8453.00,1.21
8452.00,1.20
8451.00,1.20
8450.00,1.20
8449.00,1.20
8448.00,1.20
8447.00,1.20
8446.00,1.20
8445.00,1.19
8444.00,1.19
8443.00,1.19
8442.00,1.19
8441.00,1.19
8440.00,1.19
8439.00,1.18
8438.00,1.18
8437.00,1.18
8436.00,1.18
8435.00,1.18
8434.00,1.18
8433.00,1.18
8432.00,1.18
8431.00,1.18
8430.00,1.18
8429.00,1.18
8428.00,1.18
8427.00,1.18
8426.00,1.18
8425.00,1.18
8424.00,1.18
8423.00,1.18
8422.00,1.18
8421.00,1.18
8420.00,1.19
8419.00,1.19
8418.00,1.19
8417.00,1.19
8416.00,1.19
8415.00,1.19
8414.00,1.19
8413.00,1.19
8412.00,1.19
8411.00,1.19
8410.00,1.19
8409.00,1.20
8408.00,1.20
8407.00,1.20
8406.00,1.20
8405.00,1.20
8404.00,1.20
8403.00,1.20
8402.00,1.20
8401.00,1.20
8400.00,1.20
8399.00,1.20
8398.00,1.21
8397.00,1.21
8396.00,1.21
8395.00,1.21
8394.00,1.21
8393.00,1.21
8392.00,1.21
8391.00,1.21
8390.00,1.21
8389.00,1.21
8388.00,1.21
8387.00,1.21
8386.00,1.21
8385.00,1.21
8384.00,1.22
8383.00,1.22
8382.00,1.22
8381.00,1.22
8380.00,1.22
8379.00,1.22
8378.00,1.22
8377.00,1.22
8376.00,1.22
8375.00,1.22
8374.00,1.22
8373.00,1.22
8372.00,1.22
8371.00,1.22
8370.00,1.22
8369.00,1.22
8368.00,1.22
8367.00,1.22
8366.00,1.22
8365.00,1.22
8364.00,1.22
8363.00,1.22
8362.00,1.22
8361.00,1.22
8360.00,1.22
8359.00,1.22
8358.00,1.22
8357.00,1.23
8356.00,1.23
8355.00,1.23
8354.00,1.23
8353.00,1.23
8352.00,1.23
8351.00,1.23
8350.00,1.23
8349.00,1.23
8348.00,1.23
8347.00,1.23
8346.00,1.23
8345.00,1.23
8344.00,1.23
8343.00,1.23
8342.00,1.23
8341.00,1.23
8340.00,1.23
8339.00,1.23
8338.00,1.23
8337.00,1.23
8336.00,1.23
8335.00,1.23
8334.00,1.23
8333.00,1.23
8332.00,1.23
8331.00,1.23
8330.00,1.23
8329.00,1.23
8328.00,1.23
8327.00,1.23
8326.00,1.23
8325.00,1.23
8324.00,1.23
8323.00,1.23
8322.00,1.24
8321.00,1.24
8320.00,1.24
8319.00,1.24
8318.00,1.24
8317.00,1.24
8316.00,1.24
8315.00,1.24
8314.00,1.24
8313.00,1.24
8312.00,1.24
8311.00,1.24
8310.00,1.24
8309.00,1.24
8308.00,1.24
8307.00,1.24
8306.00,1.24
8305.00,1.24
8304.00,1.24
8303.00,1.24
8302.00,1.24
8301.00,1.24
8300.00,1.24
8299.00,1.24
8298.00,1.24
8297.00,1.24
8296.00,1.24
8295.00,1.24
8294.00,1.24
8293.00,1.24
8292.00,1.24
8291.00,1.24
8290.00,1.24
8289.00,1.24
8288.00,1.24
8287.00,1.24
8286.00,1.24
8285.00,1.24
8284.00,1.24
8283.00,1.24
8282.00,1.25
8281.00,1.25
8280.00,1.25
8279.00,1.25
8278.00,1.25
8277.00,1.25
8276.00,1.25
8275.00,1.25
8274.00,1.25
8273.00,1.25
8272.00,1.25
8271.00,1.25
8270.00,1.25
8269.00,1.25
8268.00,1.25
8267.00,1.25
8266.00,1.25
8265.00,1.25
8264.00,1.25
8263.00,1.25
8262.00,1.25
8261.00,1.25
8260.00,1.25
8259.00,1.25
8258.00,1.25
8257.00,1.25
8256.00,1.26
8255.00,1.26
8254.00,1.26
8253.00,1.26
8252.00,1.26
8251.00,1.26
8250.00,1.26
8249.00,1.26
8248.00,1.27
8247.00,1.27
8246.00,1.27
8245.00,1.27
8244.00,1.27
8243.00,1.27
8242.00,1.27
8241.00,1.27
8240.00,1.27
8239.00,1.27
8238.00,1.27
8237.00,1.27
8236.00,1.27
8235.00,1.27
8234.00,1.27
8233.00,1.27
8232.00,1.27
8231.00,1.27
8230.00,1.27
8229.00,1.27
8228.00,1.27
8227.00,1.27
8226.00,1.27
8225.00,1.27
8224.00,1.27
8223.00,1.27
8222.00,1.27
8221.00,1.27
8220.00,1.27
8219.00,1.27
8218.00,1.27
8217.00,1.27
8216.00,1.27
8215.00,1.27
8214.00,1.27
8213.00,1.27
8212.00,1.26
8211.00,1.26
8210.00,1.26
8209.00,1.26
8208.00,1.26
8207.00,1.26
8206.00,1.26
8205.00,1.27
8204.00,1.27
8203.00,1.27
8202.00,1.27
8201.00,1.27
8200.00,1.27
8199.00,1.27
8198.00,1.27
8197.00,1.27
8196.00,1.27
8195.00,1.27
8194.00,1.27
8193.00,1.27
8192.00,1.27
8191.00,1.27
8190.00,1.27
8189.00,1.27
8188.00,1.27
8187.00,1.28
8186.00,1.28
8185.00,1.28
8184.00,1.28
8183.00,1.28
8182.00,1.28
8181.00,1.28
8180.00,1.28
8179.00,1.28
8178.00,1.28
8177.00,1.28
8176.00,1.28
8175.00,1.28
8174.00,1.28
8173.00,1.28
8172.00,1.28
8171.00,1.28
8170.00,1.28
8169.00,1.28
8168.00,1.28
8167.00,1.28
8166.00,1.28
8165.00,1.28
8164.00,1.28
8163.00,1.28
8162.00,1.28
8161.00,1.29
8160.00,1.29
8159.00,1.29
8158.00,1.29
8157.00,1.29
8156.00,1.29
8155.00,1.29
8154.00,1.29
8153.00,1.29
8152.00,1.29
8151.00,1.29
8150.00,1.29
8149.00,1.29
8148.00,1.29
8147.00,1.29
8146.00,1.29
8145.00,1.29
8144.00,1.29
8143.00,1.29
8142.00,1.29
8141.00,1.29
8140.00,1.29
8139.00,1.29
8138.00,1.29
8137.00,1.29
8136.00,1.29
8135.00,1.29
8134.00,1.29
8133.00,1.30
8132.00,1.30
8131.00,1.30
8130.00,1.30
8129.00,1.30
8128.00,1.30
8127.00,1.30
8126.00,1.30
8125.00,1.30
8124.00,1.31
8123.00,1.31
8122.00,1.31
8121.00,1.31
8120.00,1.31
8119.00,1.31
8118.00,1.31
8117.00,1.31
8116.00,1.31
8115.00,1.31
8114.00,1.31
8113.00,1.31
8112.00,1.31
8111.00,1.31
8110.00,1.31
8109.00,1.31
8108.00,1.31
8107.00,1.31
8106.00,1.31
8105.00,1.31
8104.00,1.31
8103.00,1.31
8102.00,1.32
8101.00,1.32
8100.00,1.32
8099.00,1.32
8098.00,1.32
8097.00,1.32
8096.00,1.32
8095.00,1.32
8094.00,1.32
8093.00,1.32
8092.00,1.32
8091.00,1.32
8090.00,1.32
8089.00,1.32
8088.00,1.32
8087.00,1.32
8086.00,1.32
8085.00,1.32
8084.00,1.32
8083.00,1.32
8082.00,1.32
8081.00,1.32
8080.00,1.31
8079.00,1.31
8078.00,1.31
8077.00,1.31
8076.00,1.31
8075.00,1.31
8074.00,1.31
8073.00,1.31
8072.00,1.31
8071.00,1.31
8070.00,1.31
8069.00,1.31
8068.00,1.31
8067.00,1.31
8066.00,1.31
8065.00,1.31
8064.00,1.31
8063.00,1.31
8062.00,1.31
8061.00,1.31
8060.00,1.31
8059.00,1.31
8058.00,1.31
8057.00,1.31
8056.00,1.31
8055.00,1.31
8054.00,1.31
8053.00,1.32
8052.00,1.32
8051.00,1.32
8050.00,1.32
8049.00,1.32
8048.00,1.32
8047.00,1.32
8046.00,1.32
8045.00,1.32
8044.00,1.32
8043.00,1.32
8042.00,1.32
8041.00,1.32
8040.00,1.32
8039.00,1.32
8038.00,1.32
8037.00,1.32
8036.00,1.32
8035.00,1.32
8034.00,1.31
8033.00,1.31
8032.00,1.31
8031.00,1.31
8030.00,1.31
8029.00,1.32
8028.00,1.32
8027.00,1.32
8026.00,1.32
8025.00,1.32
8024.00,1.32
8023.00,1.32
8022.00,1.32
8021.00,1.32
8020.00,1.32
8019.00,1.32
8018.00,1.32
8017.00,1.32
8016.00,1.32
8015.00,1.32
8014.00,1.33
8013.00,1.33
8012.00,1.33
8011.00,1.33
8010.00,1.33
8009.00,1.33
8008.00,1.33
8007.00,1.33
8006.00,1.33
8005.00,1.33
8004.00,1.33
8003.00,1.33
8002.00,1.33
8001.00,1.33
8000.00,1.33
7999.00,1.33
7998.00,1.33
7997.00,1.33
7996.00,1.33
7995.00,1.33
7994.00,1.33
7993.00,1.33
7992.00,1.33
7991.00,1.33
7990.00,1.33
7989.00,1.33
7988.00,1.33
7987.00,1.33
7986.00,1.33
7985.00,1.33
7984.00,1.33
7983.00,1.33
7982.00,1.33
7981.00,1.33
7980.00,1.33
7979.00,1.33
7978.00,1.33
7977.00,1.33
7976.00,1.33
7975.00,1.32
7974.00,1.32
7973.00,1.32
7972.00,1.32
7971.00,1.32
7970.00,1.32
7969.00,1.32
7968.00,1.32
7967.00,1.32
7966.00,1.32
7965.00,1.32
7964.00,1.32
7963.00,1.32
7962.00,1.32
7961.00,1.33
7960.00,1.33
7959.00,1.33
7958.00,1.33
7957.00,1.33
7956.00,1.33
7955.00,1.33
7954.00,1.34
7953.00,1.34
7952.00,1.34
7951.00,1.34
7950.00,1.34
7949.00,1.34
7948.00,1.34
7947.00,1.35
7946.00,1.35
7945.00,1.35
7944.00,1.35
7943.00,1.35
7942.00,1.35
7941.00,1.35
7940.00,1.35
7939.00,1.35
7938.00,1.35
7937.00,1.35
7936.00,1.35
7935.00,1.35
7934.00,1.35
7933.00,1.35
7932.00,1.35
7931.00,1.35
7930.00,1.35
7929.00,1.35
7928.00,1.35
7927.00,1.35
7926.00,1.34
7925.00,1.34
7924.00,1.34
7923.00,1.34
7922.00,1.34
7921.00,1.34
7920.00,1.34
7919.00,1.34
7918.00,1.34
7917.00,1.34
7916.00,1.34
7915.00,1.34
7914.00,1.34
7913.00,1.34
7912.00,1.34
7911.00,1.34
7910.00,1.34
7909.00,1.34
7908.00,1.34
7907.00,1.34
7906.00,1.34
7905.00,1.34
7904.00,1.34
7903.00,1.34
7902.00,1.34
7901.00,1.34
7900.00,1.34
7899.00,1.34
7898.00,1.34
7897.00,1.35
7896.00,1.35
7895.00,1.35
7894.00,1.35
7893.00,1.35
7892.00,1.35
7891.00,1.35
7890.00,1.35
7889.00,1.35
7888.00,1.35
7887.00,1.35
7886.00,1.35
7885.00,1.35
7884.00,1.35
7883.00,1.35
7882.00,1.35
7881.00,1.35
7880.00,1.35
7879.00,1.35
7878.00,1.35
7877.00,1.34
7876.00,1.34
7875.00,1.34
7874.00,1.34
7873.00,1.34
7872.00,1.34
7871.00,1.34
7870.00,1.34
7869.00,1.34
7868.00,1.34
7867.00,1.34
7866.00,1.34
7865.00,1.34
7864.00,1.35
7863.00,1.35
7862.00,1.35
7861.00,1.35
7860.00,1.35
7859.00,1.35
7858.00,1.35
7857.00,1.35
7856.00,1.35
7855.00,1.35
7854.00,1.35
7853.00,1.35
7852.00,1.35
7851.00,1.36
7850.00,1.36
7849.00,1.36
7848.00,1.36
7847.00,1.36
7846.00,1.36
7845.00,1.36
7844.00,1.36
7843.00,1.36
7842.00,1.36
7841.00,1.36
7840.00,1.36
7839.00,1.36
7838.00,1.36
7837.00,1.35
7836.00,1.35
7835.00,1.35
7834.00,1.35
7833.00,1.35
7832.00,1.35
7831.00,1.35
7830.00,1.35
7829.00,1.35
7828.00,1.35
7827.00,1.35
7826.00,1.35
7825.00,1.35
7824.00,1.35
7823.00,1.35
7822.00,1.35
7821.00,1.35
7820.00,1.35
7819.00,1.35
7818.00,1.35
7817.00,1.35
7816.00,1.35
7815.00,1.35
7814.00,1.35
7813.00,1.35
7812.00,1.35
7811.00,1.35
7810.00,1.35
7809.00,1.35
7808.00,1.35
7807.00,1.35
7806.00,1.35
7805.00,1.35
7804.00,1.36
7803.00,1.36
7802.00,1.36
7801.00,1.36
7800.00,1.36
7799.00,1.36
7798.00,1.36
7797.00,1.36
7796.00,1.36
7795.00,1.36
7794.00,1.36
7793.00,1.36
7792.00,1.36
7791.00,1.36
7790.00,1.36
7789.00,1.36
7788.00,1.36
7787.00,1.36
7786.00,1.36
7785.00,1.36
7784.00,1.36
7783.00,1.36
7782.00,1.36
7781.00,1.36
7780.00,1.37
7779.00,1.37
7778.00,1.37
7777.00,1.37
7776.00,1.37
7775.00,1.37
7774.00,1.37
7773.00,1.37
7772.00,1.37
7771.00,1.37
7770.00,1.37
7769.00,1.37
7768.00,1.36
7767.00,1.36
7766.00,1.36
7765.00,1.36
7764.00,1.36
7763.00,1.36
7762.00,1.36
7761.00,1.36
7760.00,1.36
7759.00,1.36
7758.00,1.36
7757.00,1.36
7756.00,1.36
7755.00,1.36
7754.00,1.36
7753.00,1.36
7752.00,1.36
7751.00,1.36
7750.00,1.35
7749.00,1.35
7748.00,1.36
7747.00,1.36
7746.00,1.36
7745.00,1.36
7744.00,1.36
7743.00,1.36
7742.00,1.36
7741.00,1.36
7740.00,1.36
7739.00,1.36
7738.00,1.37
7737.00,1.37
7736.00,1.37
7735.00,1.37
7734.00,1.37
7733.00,1.37
7732.00,1.37
7731.00,1.37
7730.00,1.37
7729.00,1.37
7728.00,1.37
7727.00,1.37
7726.00,1.37
7725.00,1.37
7724.00,1.37
7723.00,1.37
7722.00,1.37
7721.00,1.37
7720.00,1.37
7719.00,1.37
7718.00,1.37
7717.00,1.37
7716.00,1.37
7715.00,1.37
7714.00,1.37
7713.00,1.37
7712.00,1.37
7711.00,1.37
7710.00,1.37
7709.00,1.37
7708.00,1.37
7707.00,1.37
7706.00,1.37
7705.00,1.37
7704.00,1.37
7703.00,1.37
7702.00,1.37
7701.00,1.37
7700.00,1.37
7699.00,1.37
7698.00,1.37
7697.00,1.37
7696.00,1.37
7695.00,1.37
7694.00,1.37
7693.00,1.37
7692.00,1.37
7691.00,1.37
7690.00,1.37
7689.00,1.37
7688.00,1.37
7687.00,1.37
7686.00,1.37
7685.00,1.37
7684.00,1.37
7683.00,1.37
7682.00,1.37
7681.00,1.37
7680.00,1.37
7679.00,1.37
7678.00,1.37
7677.00,1.37
7676.00,1.37
7675.00,1.37
7674.00,1.37
7673.00,1.37
7672.00,1.37
7671.00,1.37
7670.00,1.37
7669.00,1.38
7668.00,1.38
7667.00,1.37
7666.00,1.37
7665.00,1.37
7664.00,1.37
7663.00,1.37
7662.00,1.37
7661.00,1.37
7660.00,1.37
7659.00,1.37
7658.00,1.37
7657.00,1.37
7656.00,1.37
7655.00,1.37
7654.00,1.37
7653.00,1.37
7652.00,1.36
7651.00,1.36
7650.00,1.36
7649.00,1.36
7648.00,1.36
7647.00,1.36
7646.00,1.36
7645.00,1.36
7644.00,1.36
7643.00,1.36
7642.00,1.36
7641.00,1.36
7640.00,1.37
7639.00,1.37
7638.00,1.37
7637.00,1.37
7636.00,1.37
7635.00,1.37
7634.00,1.37
7633.00,1.37
7632.00,1.37
7631.00,1.37
7630.00,1.37
7629.00,1.37
7628.00,1.37
7627.00,1.37
7626.00,1.37
7625.00,1.37
7624.00,1.37
7623.00,1.37
7622.00,1.37
7621.00,1.37
7620.00,1.37
7619.00,1.37
7618.00,1.38
7617.00,1.38
7616.00,1.38
7615.00,1.38
7614.00,1.38
7613.00,1.37
7612.00,1.37
7611.00,1.37
7610.00,1.37
7609.00,1.37
7608.00,1.37
7607.00,1.37
7606.00,1.37
7605.00,1.37
7604.00,1.37
7603.00,1.37
7602.00,1.37
7601.00,1.37
7600.00,1.37
7599.00,1.37
7598.00,1.37
7597.00,1.37
7596.00,1.36
7595.00,1.36
7594.00,1.36
7593.00,1.36
7592.00,1.36
7591.00,1.36
7590.00,1.36
7589.00,1.36
7588.00,1.36
7587.00,1.36
7586.00,1.36
7585.00,1.36
7584.00,1.36
7583.00,1.36
7582.00,1.36
7581.00,1.36
7580.00,1.36
7579.00,1.36
7578.00,1.36
7577.00,1.36
7576.00,1.36
7575.00,1.37
7574.00,1.37
7573.00,1.37
7572.00,1.37
7571.00,1.37
7570.00,1.37
7569.00,1.37
7568.00,1.37
7567.00,1.37
7566.00,1.37
7565.00,1.37
7564.00,1.37
7563.00,1.37
7562.00,1.37
7561.00,1.37
7560.00,1.37
7559.00,1.37
7558.00,1.37
7557.00,1.37
7556.00,1.37
7555.00,1.37
7554.00,1.37
7553.00,1.37
7552.00,1.37
7551.00,1.37
7550.00,1.37
7549.00,1.37
7548.00,1.37
7547.00,1.37
7546.00,1.36
7545.00,1.36
7544.00,1.36
7543.00,1.36
7542.00,1.36
7541.00,1.36
7540.00,1.36
7539.00,1.36
7538.00,1.35
7537.00,1.35
7536.00,1.35
7535.00,1.35
7534.00,1.35
7533.00,1.35
7532.00,1.35
7531.00,1.35
7530.00,1.35
7529.00,1.34
7528.00,1.34
7527.00,1.34
7526.00,1.34
7525.00,1.34
7524.00,1.35
7523.00,1.35
7522.00,1.35
7521.00,1.35
7520.00,1.35
7519.00,1.35
7518.00,1.35
7517.00,1.35
7516.00,1.35
7515.00,1.35
7514.00,1.35
7513.00,1.35
7512.00,1.35
7511.00,1.35
7510.00,1.35
7509.00,1.35
7508.00,1.35
7507.00,1.35
7506.00,1.35
7505.00,1.35
7504.00,1.35
7503.00,1.35
7502.00,1.35
7501.00,1.34
7500.00,1.34
7499.00,1.34
7498.00,1.34
7497.00,1.34
7496.00,1.34
7495.00,1.34
7494.00,1.34
7493.00,1.34
7492.00,1.34
7491.00,1.34
7490.00,1.34
7489.00,1.34
7488.00,1.34
7487.00,1.34
7486.00,1.34
7485.00,1.34
7484.00,1.34
7483.00,1.34
7482.00,1.34
7481.00,1.34
7480.00,1.34
7479.00,1.34
7478.00,1.34
7477.00,1.34
7476.00,1.34
7475.00,1.34
7474.00,1.34
7473.00,1.33
7472.00,1.33
7471.00,1.33
7470.00,1.33
7469.00,1.33
7468.00,1.33
7467.00,1.33
7466.00,1.33
7465.00,1.32
7464.00,1.32
7463.00,1.32
7462.00,1.32
7461.00,1.32
7460.00,1.32
7459.00,1.32
7458.00,1.32
7457.00,1.32
7456.00,1.32
7455.00,1.32
7454.00,1.32
7453.00,1.32
7452.00,1.32
7451.00,1.32
7450.00,1.32
7449.00,1.32
7448.00,1.32
7447.00,1.32
7446.00,1.32
7445.00,1.32
7444.00,1.31
7443.00,1.31
7442.00,1.31
7441.00,1.31
7440.00,1.31
7439.00,1.31
7438.00,1.31
7437.00,1.31
7436.00,1.31
7435.00,1.31
7434.00,1.31
7433.00,1.31
7432.00,1.31
7431.00,1.31
7430.00,1.31
7429.00,1.31
7428.00,1.31
7427.00,1.31
7426.00,1.31
7425.00,1.31
7424.00,1.31
7423.00,1.30
7422.00,1.30
7421.00,1.30
7420.00,1.30
7419.00,1.30
7418.00,1.30
7417.00,1.30
7416.00,1.30
7415.00,1.30
7414.00,1.30
7413.00,1.30
7412.00,1.29
7411.00,1.29
7410.00,1.29
7409.00,1.29
7408.00,1.29
7407.00,1.29
7406.00,1.29
7405.00,1.28
7404.00,1.28
7403.00,1.28
7402.00,1.28
7401.00,1.28
7400.00,1.27
7399.00,1.27
7398.00,1.27
7397.00,1.27
7396.00,1.27
7395.00,1.27
7394.00,1.27
7393.00,1.26
7392.00,1.26
7391.00,1.26
7390.00,1.26
7389.00,1.26
7388.00,1.26
7387.00,1.26
7386.00,1.26
7385.00,1.25
7384.00,1.25
7383.00,1.25
7382.00,1.25
7381.00,1.25
7380.00,1.25
7379.00,1.25
7378.00,1.25
7377.00,1.24
7376.00,1.24
7375.00,1.24
7374.00,1.24
7373.00,1.24
7372.00,1.24
7371.00,1.24
7370.00,1.24
7369.00,1.24
7368.00,1.24
7367.00,1.24
7366.00,1.24
7365.00,1.24
7364.00,1.24
7363.00,1.24
7362.00,1.24
7361.00,1.25
7360.00,1.25
7359.00,1.25
7358.00,1.25
7357.00,1.25
7356.00,1.25
7355.00,1.25
7354.00,1.25
7353.00,1.24
7352.00,1.24
7351.00,1.24
7350.00,1.24
7349.00,1.24
7348.00,1.24
7347.00,1.24
7346.00,1.24
7345.00,1.23
7344.00,1.23
7343.00,1.23
7342.00,1.23
7341.00,1.23
7340.00,1.23
7339.00,1.23
7338.00,1.23
7337.00,1.23
7336.00,1.22
7335.00,1.22
7334.00,1.22
7333.00,1.22
7332.00,1.22
7331.00,1.22
7330.00,1.22
7329.00,1.22
7328.00,1.22
7327.00,1.22
7326.00,1.22
7325.00,1.22
7324.00,1.22
7323.00,1.22
7322.00,1.22
7321.00,1.22
7320.00,1.22
7319.00,1.22
7318.00,1.22
7317.00,1.22
7316.00,1.22
7315.00,1.22
7314.00,1.22
7313.00,1.22
7312.00,1.22
7311.00,1.22
7310.00,1.22
7309.00,1.22
7308.00,1.22
7307.00,1.22
7306.00,1.22
7305.00,1.22
7304.00,1.22
7303.00,1.22
7302.00,1.22
7301.00,1.22
7300.00,1.22
7299.00,1.22
7298.00,1.22
7297.00,1.22
7296.00,1.21
7295.00,1.21
7294.00,1.21
7293.00,1.21
7292.00,1.21
7291.00,1.21
7290.00,1.20
7289.00,1.20
7288.00,1.20
7287.00,1.20
7286.00,1.20
7285.00,1.20
7284.00,1.20
7283.00,1.20
7282.00,1.19
7281.00,1.19
7280.00,1.19
7279.00,1.19
7278.00,1.19
7277.00,1.19
7276.00,1.19
7275.00,1.19
7274.00,1.19
7273.00,1.18
7272.00,1.18
7271.00,1.18
7270.00,1.18
7269.00,1.18
7268.00,1.18
7267.00,1.17
7266.00,1.17
7265.00,1.17
7264.00,1.17
7263.00,1.17
7262.00,1.16
7261.00,1.16
7260.00,1.16
7259.00,1.16
7258.00,1.16
7257.00,1.15
7256.00,1.15
7255.00,1.15
7254.00,1.15
7253.00,1.15
7252.00,1.14
7251.00,1.14
7250.00,1.14
7249.00,1.14
7248.00,1.14
7247.00,1.13
7246.00,1.13
7245.00,1.13
7244.00,1.12
7243.00,1.12
7242.00,1.12
7241.00,1.12
7240.00,1.11
7239.00,1.11
7238.00,1.11
7237.00,1.10
7236.00,1.10
7235.00,1.10
7234.00,1.09
7233.00,1.09
7232.00,1.09
7231.00,1.08
7230.00,1.08
7229.00,1.08
7228.00,1.07
7227.00,1.07
7226.00,1.07
7225.00,1.06
7224.00,1.06
7223.00,1.06
7222.00,1.05
7221.00,1.05
7220.00,1.05
7219.00,1.05
7218.00,1.04
7217.00,1.04
7216.00,1.04
7215.00,1.03
7214.00,1.03
7213.00,1.03
7212.00,1.03
7211.00,1.02
7210.00,1.02
7209.00,1.02
7208.00,1.01
7207.00,1.01
7206.00,1.01
7205.00,1.00
7204.00,1.00
7203.00,1.00
7202.00,0.99
7201.00,0.99
7200.00,0.99
7199.00,0.99
7198.00,0.98
7197.00,0.98
7196.00,0.98
7195.00,0.98
7194.00,0.97
7193.00,0.97
7192.00,0.97
7191.00,0.96
7190.00,0.96
7189.00,0.96
7188.00,0.95
7187.00,0.95
7186.00,0.95
7185.00,0.94
7184.00,0.94
7183.00,0.94
7182.00,0.93
7181.00,0.93
7180.00,0.93
7179.00,0.92
7178.00,0.92
7177.00,0.92
7176.00,0.91
7175.00,0.91
7174.00,0.91
7173.00,0.90
7172.00,0.90
7171.00,0.90
7170.00,0.90
7169.00,0.89
7168.00,0.89
7167.00,0.89
7166.00,0.89
7165.00,0.88
7164.00,0.88
7163.00,0.88
7162.00,0.88
7161.00,0.88
7160.00,0.87
7159.00,0.87
7158.00,0.87
7157.00,0.87
7156.00,0.87
7155.00,0.87
7154.00,0.86
7153.00,0.86
7152.00,0.86
7151.00,0.86
7150.00,0.86
7149.00,0.85
7148.00,0.85
7147.00,0.85
7146.00,0.84
7145.00,0.84
7144.00,0.84
7143.00,0.84
7142.00,0.83
7141.00,0.83
7140.00,0.82
7139.00,0.82
7138.00,0.82
7137.00,0.81
7136.00,0.81
7135.00,0.81
7134.00,0.81
7133.00,0.80
7132.00,0.80
7131.00,0.80
7130.00,0.80
7129.00,0.79
7128.00,0.79
7127.00,0.79
7126.00,0.79
7125.00,0.79
7124.00,0.78
7123.00,0.78
7122.00,0.78
7121.00,0.78
7120.00,0.78
7119.00,0.77
7118.00,0.77
7117.00,0.77
7116.00,0.77
7115.00,0.77
7114.00,0.76
7113.00,0.76
7112.00,0.76
7111.00,0.76
7110.00,0.76
7109.00,0.75
7108.00,0.75
7107.00,0.75
7106.00,0.75
7105.00,0.74
7104.00,0.74
7103.00,0.74
7102.00,0.74
7101.00,0.74
7100.00,0.73
7099.00,0.73
7098.00,0.73
7097.00,0.73
7096.00,0.72
7095.00,0.72
7094.00,0.72
7093.00,0.72
7092.00,0.72
7091.00,0.71
7090.00,0.71
7089.00,0.71
7088.00,0.71
7087.00,0.71
7086.00,0.71
7085.00,0.70
7084.00,0.70
7083.00,0.70
7082.00,0.70
7081.00,0.70
7080.00,0.70
7079.00,0.69
7078.00,0.69
7077.00,0.69
7076.00,0.69
7075.00,0.69
7074.00,0.69
7073.00,0.69
7072.00,0.69
7071.00,0.68
7070.00,0.68
7069.00,0.68
7068.00,0.68
7067.00,0.68
7066.00,0.68
7065.00,0.68
7064.00,0.68
7063.00,0.67
7062.00,0.67
7061.00,0.67
7060.00,0.67
7059.00,0.67
7058.00,0.67
7057.00,0.67
7056.00,0.67
7055.00,0.67
7054.00,0.67
7053.00,0.66
7052.00,0.66
7051.00,0.66
7050.00,0.66
7049.00,0.66
7048.00,0.66
7047.00,0.66
7046.00,0.66
7045.00,0.66
7044.00,0.66
7043.00,0.66
7042.00,0.66
7041.00,0.66
7040.00,0.66
7039.00,0.66
7038.00,0.66
7037.00,0.65
7036.00,0.65
7035.00,0.65
7034.00,0.65
7033.00,0.65
7032.00,0.65
7031.00,0.65
7030.00,0.64
7029.00,0.64
7028.00,0.64
7027.00,0.64
7026.00,0.64
7025.00,0.63
7024.00,0.63
7023.00,0.63
7022.00,0.63
7021.00,0.63
7020.00,0.63
7019.00,0.63
7018.00,0.62
7017.00,0.62
7016.00,0.62
7015.00,0.62
7014.00,0.62
7013.00,0.62
7012.00,0.62
7011.00,0.62
7010.00,0.62
7009.00,0.62
7008.00,0.62
7007.00,0.62
7006.00,0.62
7005.00,0.62
7004.00,0.62
7003.00,0.62
7002.00,0.62
7001.00,0.62
7000.00,0.62
6999.00,0.62
6998.00,0.62
6997.00,0.61
6996.00,0.61
6995.00,0.61
6994.00,0.61
6993.00,0.61
6992.00,0.61
6991.00,0.61
6990.00,0.61
6989.00,0.61
6988.00,0.61
6987.00,0.61
6986.00,0.60
6985.00,0.60
6984.00,0.60
6983.00,0.60
6982.00,0.60
6981.00,0.60
6980.00,0.60
6979.00,0.60
6978.00,0.60
6977.00,0.60
6976.00,0.60
6975.00,0.60
6974.00,0.60
6973.00,0.60
6972.00,0.60
6971.00,0.60
6970.00,0.60
6969.00,0.60
6968.00,0.60
6967.00,0.60
6966.00,0.60
6965.00,0.60
6964.00,0.60
6963.00,0.60
6962.00,0.60
6961.00,0.60
6960.00,0.60
6959.00,0.60
6958.00,0.60
6957.00,0.60
6956.00,0.60
6955.00,0.59
6954.00,0.59
6953.00,0.59
6952.00,0.59
6951.00,0.59
6950.00,0.59
6949.00,0.59
6948.00,0.59
6947.00,0.59
6946.00,0.59
6945.00,0.59
6944.00,0.59
6943.00,0.59
6942.00,0.59
6941.00,0.59
6940.00,0.59
6939.00,0.59
6938.00,0.59
6937.00,0.59
6936.00,0.59
6935.00,0.59
6934.00,0.59
6933.00,0.59
6932.00,0.59
6931.00,0.59
6930.00,0.59
6929.00,0.59
6928.00,0.59
6927.00,0.58
6926.00,0.58
6925.00,0.58
6924.00,0.58
6923.00,0.58
6922.00,0.58
6921.00,0.58
6920.00,0.58
6919.00,0.59
6918.00,0.59
6917.00,0.59
6916.00,0.59
6915.00,0.59
6914.00,0.59
6913.00,0.59
6912.00,0.59
6911.00,0.59
6910.00,0.59
6909.00,0.59
6908.00,0.59
6907.00,0.59
6906.00,0.59
6905.00,0.58
6904.00,0.58
6903.00,0.58
6902.00,0.58
6901.00,0.58
6900.00,0.58
6899.00,0.58
6898.00,0.58
6897.00,0.58
6896.00,0.58
6895.00,0.58
6894.00,0.58
6893.00,0.58
6892.00,0.58
6891.00,0.58
6890.00,0.58
6889.00,0.58
6888.00,0.58
6887.00,0.58
6886.00,0.58
6885.00,0.58
6884.00,0.58
6883.00,0.58
6882.00,0.58
6881.00,0.58
6880.00,0.58
6879.00,0.58
6878.00,0.58
6877.00,0.58
6876.00,0.58
6875.00,0.58
6874.00,0.58
6873.00,0.58
6872.00,0.58
6871.00,0.58
6870.00,0.58
6869.00,0.58
6868.00,0.58
6867.00,0.58
6866.00,0.58
6865.00,0.58
6864.00,0.58
6863.00,0.58
6862.00,0.58
6861.00,0.58
6860.00,0.58
6859.00,0.58
6858.00,0.58
6857.00,0.58
6856.00,0.58
6855.00,0.58
6854.00,0.58
6853.00,0.58
6852.00,0.58
6851.00,0.58
6850.00,0.58
6849.00,0.58
6848.00,0.58
6847.00,0.58
6846.00,0.58
6845.00,0.58
6844.00,0.58
6843.00,0.58
6842.00,0.58
6841.00,0.58
6840.00,0.59
6839.00,0.59
6838.00,0.59
6837.00,0.59
6836.00,0.59
6835.00,0.59
6834.00,0.59
6833.00,0.59
6832.00,0.59
6831.00,0.59
6830.00,0.59
6829.00,0.59
6828.00,0.59
6827.00,0.59
6826.00,0.59
6825.00,0.58
6824.00,0.58
6823.00,0.58
6822.00,0.58
6821.00,0.58
6820.00,0.58
6819.00,0.58
6818.00,0.58
6817.00,0.59
6816.00,0.59
6815.00,0.59
6814.00,0.59
6813.00,0.59
6812.00,0.59
6811.00,0.59
6810.00,0.59
6809.00,0.59
6808.00,0.59
6807.00,0.59
6806.00,0.59
6805.00,0.59
6804.00,0.59
6803.00,0.60
6802.00,0.60
6801.00,0.60
6800.00,0.60
6799.00,0.60
6798.00,0.60
6797.00,0.60
6796.00,0.60
6795.00,0.61
6794.00,0.61
6793.00,0.61
6792.00,0.61
6791.00,0.61
6790.00,0.61
6789.00,0.61
6788.00,0.61
6787.00,0.61
6786.00,0.61
6785.00,0.61
6784.00,0.61
6783.00,0.61
6782.00,0.61
6781.00,0.61
6780.00,0.61
6779.00,0.61
6778.00,0.61
6777.00,0.61
6776.00,0.61
6775.00,0.61
6774.00,0.61
6773.00,0.61
6772.00,0.61
6771.00,0.60
6770.00,0.60
6769.00,0.60
6768.00,0.61
6767.00,0.61
6766.00,0.61
6765.00,0.61
6764.00,0.61
6763.00,0.61
6762.00,0.61
6761.00,0.61
6760.00,0.61
6759.00,0.61
6758.00,0.62
6757.00,0.62
6756.00,0.62
6755.00,0.62
6754.00,0.62
6753.00,0.62
6752.00,0.62
6751.00,0.62
6750.00,0.63
6749.00,0.63
6748.00,0.63
6747.00,0.63
6746.00,0.63
6745.00,0.63
6744.00,0.63
6743.00,0.63
6742.00,0.63
6741.00,0.63
6740.00,0.63
6739.00,0.63
6738.00,0.63
6737.00,0.63
6736.00,0.63
6735.00,0.63
6734.00,0.63
6733.00,0.63
6732.00,0.63
6731.00,0.63
6730.00,0.63
6729.00,0.63
6728.00,0.63
6727.00,0.63
6726.00,0.63
6725.00,0.63
6724.00,0.63
6723.00,0.63
6722.00,0.63
6721.00,0.64
6720.00,0.64
6719.00,0.64
6718.00,0.64
6717.00,0.64
6716.00,0.64
6715.00,0.64
6714.00,0.64
6713.00,0.64
6712.00,0.64
6711.00,0.64
6710.00,0.64
6709.00,0.64
6708.00,0.64
6707.00,0.65
6706.00,0.65
6705.00,0.65
6704.00,0.65
6703.00,0.65
6702.00,0.65
6701.00,0.65
6700.00,0.65
6699.00,0.65
6698.00,0.65
6697.00,0.65
6696.00,0.65
6695.00,0.66
6694.00,0.66
6693.00,0.66
6692.00,0.66
6691.00,0.66
6690.00,0.66
6689.00,0.66
6688.00,0.66
6687.00,0.66
6686.00,0.66
6685.00,0.66
6684.00,0.67
6683.00,0.67
6682.00,0.67
6681.00,0.67
6680.00,0.67
6679.00,0.67
6678.00,0.67
6677.00,0.67
6676.00,0.67
6675.00,0.68
6674.00,0.68
6673.00,0.68
6672.00,0.68
6671.00,0.68
6670.00,0.68
6669.00,0.68
6668.00,0.68
6667.00,0.69
6666.00,0.69
6665.00,0.69
6664.00,0.69
6663.00,0.69
6662.00,0.69
6661.00,0.69
6660.00,0.69
6659.00,0.69
6658.00,0.69
6657.00,0.69
6656.00,0.69
6655.00,0.69
6654.00,0.69
6653.00,0.69
6652.00,0.70
6651.00,0.70
6650.00,0.70
6649.00,0.70
6648.00,0.70
6647.00,0.70
6646.00,0.70
6645.00,0.70
6644.00,0.70
6643.00,0.70
6642.00,0.70
6641.00,0.70
6640.00,0.70
6639.00,0.70
6638.00,0.70
6637.00,0.70
6636.00,0.70
6635.00,0.70
6634.00,0.70
6633.00,0.70
6632.00,0.71
6631.00,0.71
6630.00,0.71
6629.00,0.71
6628.00,0.71
6627.00,0.71
6626.00,0.71
6625.00,0.71
6624.00,0.72
6623.00,0.72
6622.00,0.72
6621.00,0.72
6620.00,0.72
6619.00,0.72
6618.00,0.72
6617.00,0.72
6616.00,0.72
6615.00,0.73
6614.00,0.73
6613.00,0.73
6612.00,0.73
6611.00,0.73
6610.00,0.73
6609.00,0.73
6608.00,0.73
6607.00,0.73
6606.00,0.73
6605.00,0.73
6604.00,0.73
6603.00,0.73
6602.00,0.73
6601.00,0.73
6600.00,0.73
6599.00,0.74
6598.00,0.74
6597.00,0.74
6596.00,0.74
6595.00,0.74
6594.00,0.74
6593.00,0.74
6592.00,0.74
6591.00,0.75
6590.00,0.75
6589.00,0.75
6588.00,0.75
6587.00,0.75
6586.00,0.76
6585.00,0.76
6584.00,0.76
6583.00,0.76
6582.00,0.76
6581.00,0.76
6580.00,0.77
6579.00,0.77
6578.00,0.77
6577.00,0.77
6576.00,0.77
6575.00,0.77
6574.00,0.77
6573.00,0.77
6572.00,0.77
6571.00,0.77
6570.00,0.77
6569.00,0.77
6568.00,0.77
6567.00,0.77
6566.00,0.77
6565.00,0.77
6564.00,0.78
6563.00,0.78
6562.00,0.78
6561.00,0.78
6560.00,0.78
6559.00,0.78
6558.00,0.78
6557.00,0.78
6556.00,0.78
6555.00,0.79
6554.00,0.79
6553.00,0.79
6552.00,0.79
6551.00,0.79
6550.00,0.79
6549.00,0.79
6548.00,0.79
6547.00,0.79
6546.00,0.79
6545.00,0.79
6544.00,0.79
6543.00,0.79
6542.00,0.80
6541.00,0.80
6540.00,0.80
6539.00,0.80
6538.00,0.80
6537.00,0.80
6536.00,0.80
6535.00,0.80
6534.00,0.80
6533.00,0.80
6532.00,0.80
6531.00,0.80
6530.00,0.80
6529.00,0.80
6528.00,0.80
6527.00,0.80
6526.00,0.80
6525.00,0.80
6524.00,0.81
6523.00,0.81
6522.00,0.81
6521.00,0.81
6520.00,0.81
6519.00,0.81
6518.00,0.81
6517.00,0.81
6516.00,0.82
6515.00,0.82
6514.00,0.82
6513.00,0.82
6512.00,0.82
6511.00,0.82
6510.00,0.82
6509.00,0.82
6508.00,0.82
6507.00,0.82
6506.00,0.82
6505.00,0.83
6504.00,0.83
6503.00,0.83
6502.00,0.83
6501.00,0.83
6500.00,0.83
6499.00,0.83
6498.00,0.83
6497.00,0.83
6496.00,0.83
6495.00,0.83
6494.00,0.83
6493.00,0.83
6492.00,0.83
6491.00,0.83
6490.00,0.83
6489.00,0.83
6488.00,0.83
6487.00,0.83
6486.00,0.83
6485.00,0.83
6484.00,0.83
6483.00,0.83
6482.00,0.83
6481.00,0.83
6480.00,0.83
6479.00,0.84
6478.00,0.84
6477.00,0.84
6476.00,0.84
6475.00,0.84
6474.00,0.84
6473.00,0.84
6472.00,0.84
6471.00,0.84
6470.00,0.84
6469.00,0.84
6468.00,0.84
6467.00,0.84
6466.00,0.84
6465.00,0.84
6464.00,0.84
6463.00,0.84
6462.00,0.84
6461.00,0.85
6460.00,0.85
6459.00,0.85
6458.00,0.85
6457.00,0.85
6456.00,0.85
6455.00,0.85
6454.00,0.85
6453.00,0.85
6452.00,0.85
6451.00,0.85
6450.00,0.86
6449.00,0.86
6448.00,0.86
6447.00,0.86
6446.00,0.86
6445.00,0.86
6444.00,0.86
6443.00,0.86
6442.00,0.86
6441.00,0.86
6440.00,0.86
6439.00,0.86
6438.00,0.86
6437.00,0.86
6436.00,0.87
6435.00,0.87
6434.00,0.87
6433.00,0.87
6432.00,0.87
6431.00,0.87
6430.00,0.87
6429.00,0.87
6428.00,0.87
6427.00,0.87
6426.00,0.87
6425.00,0.87
6424.00,0.87
6423.00,0.87
6422.00,0.87
6421.00,0.87
6420.00,0.87
6419.00,0.87
6418.00,0.87
6417.00,0.87
6416.00,0.87
6415.00,0.88
6414.00,0.88
6413.00,0.88
6412.00,0.88
6411.00,0.88
6410.00,0.88
6409.00,0.88
6408.00,0.88
6407.00,0.88
6406.00,0.88
6405.00,0.88
6404.00,0.88
6403.00,0.88
6402.00,0.88
6401.00,0.88
6400.00,0.88
6399.00,0.88
6398.00,0.88
6397.00,0.88
6396.00,0.88
6395.00,0.88
6394.00,0.88
6393.00,0.88
6392.00,0.88
6391.00,0.88
6390.00,0.88
6389.00,0.88
6388.00,0.88
6387.00,0.88
6386.00,0.88
6385.00,0.88
6384.00,0.88
6383.00,0.88
6382.00,0.89
6381.00,0.89
6380.00,0.89
6379.00,0.89
6378.00,0.89
6377.00,0.89
6376.00,0.89
6375.00,0.89
6374.00,0.89
6373.00,0.89
6372.00,0.89
6371.00,0.90
6370.00,0.90
6369.00,0.90
6368.00,0.90
6367.00,0.90
6366.00,0.90
6365.00,0.90
6364.00,0.90
6363.00,0.90
6362.00,0.91
6361.00,0.91
6360.00,0.91
6359.00,0.91
6358.00,0.91
6357.00,0.91
6356.00,0.91
6355.00,0.91
6354.00,0.91
6353.00,0.91
6352.00,0.91
6351.00,0.91
6350.00,0.91
6349.00,0.91
6348.00,0.91
6347.00,0.91
6346.00,0.91
6345.00,0.91
6344.00,0.92
6343.00,0.92
6342.00,0.92
6341.00,0.92
6340.00,0.92
6339.00,0.92
6338.00,0.92
6337.00,0.92
6336.00,0.92
6335.00,0.92
6334.00,0.92
6333.00,0.92
6332.00,0.93
6331.00,0.93
6330.00,0.93
6329.00,0.93
6328.00,0.93
6327.00,0.93
6326.00,0.93
6325.00,0.93
6324.00,0.93
6323.00,0.93
6322.00,0.93
6321.00,0.93
6320.00,0.93
6319.00,0.94
6318.00,0.94
6317.00,0.94
6316.00,0.94
6315.00,0.94
6314.00,0.94
6313.00,0.94
6312.00,0.94
6311.00,0.94
6310.00,0.95
6309.00,0.95
6308.00,0.95
6307.00,0.95
6306.00,0.95
6305.00,0.95
6304.00,0.95
6303.00,0.95
6302.00,0.95
6301.00,0.95
6300.00,0.95
6299.00,0.95
6298.00,0.95
6297.00,0.95
6296.00,0.95
6295.00,0.96
6294.00,0.96
6293.00,0.96
6292.00,0.96
6291.00,0.96
6290.00,0.96
6289.00,0.96
6288.00,0.96
6287.00,0.97
6286.00,0.97
6285.00,0.97
6284.00,0.97
6283.00,0.97
6282.00,0.97
6281.00,0.97
6280.00,0.98
6279.00,0.98
6278.00,0.98
6277.00,0.98
6276.00,0.98
6275.00,0.98
6274.00,0.99
6273.00,0.99
6272.00,0.99
6271.00,0.99
6270.00,0.99
6269.00,0.99
6268.00,0.99
6267.00,0.99
6266.00,1.00
6265.00,1.00
6264.00,1.00
6263.00,1.00
6262.00,1.00
6261.00,1.00
6260.00,1.00
6259.00,1.00
6258.00,1.00
6257.00,1.01
6256.00,1.01
6255.00,1.01
6254.00,1.01
6253.00,1.01
6252.00,1.01
6251.00,1.01
6250.00,1.01
6249.00,1.01
6248.00,1.01
6247.00,1.02
6246.00,1.02
6245.00,1.02
6244.00,1.02
6243.00,1.02
6242.00,1.02
6241.00,1.02
6240.00,1.02
6239.00,1.03
6238.00,1.03
6237.00,1.03
6236.00,1.03
6235.00,1.03
6234.00,1.03
6233.00,1.04
6232.00,1.04
6231.00,1.04
6230.00,1.04
6229.00,1.04
6228.00,1.04
6227.00,1.04
6226.00,1.05
6225.00,1.05
6224.00,1.05
6223.00,1.05
6222.00,1.05
6221.00,1.05
6220.00,1.05
6219.00,1.05
6218.00,1.05
6217.00,1.05
6216.00,1.06
6215.00,1.06
6214.00,1.06
6213.00,1.06
6212.00,1.06
6211.00,1.06
6210.00,1.06
6209.00,1.06
6208.00,1.06
6207.00,1.06
6206.00,1.07
6205.00,1.07
6204.00,1.07
6203.00,1.07
6202.00,1.07
6201.00,1.07
6200.00,1.07
6199.00,1.07
6198.00,1.07
6197.00,1.07
6196.00,1.07
6195.00,1.07
6194.00,1.08
6193.00,1.08
6192.00,1.08
6191.00,1.08
6190.00,1.08
6189.00,1.08
6188.00,1.08
6187.00,1.09
6186.00,1.09
6185.00,1.09
6184.00,1.09
6183.00,1.09
6182.00,1.09
6181.00,1.10
6180.00,1.10
6179.00,1.10
6178.00,1.10
6177.00,1.10
6176.00,1.10
6175.00,1.11
6174.00,1.11
6173.00,1.11
6172.00,1.11
6171.00,1.11
6170.00,1.11
6169.00,1.11
6168.00,1.12
6167.00,1.12
6166.00,1.12
6165.00,1.12
6164.00,1.12
6163.00,1.12
6162.00,1.12
6161.00,1.12
6160.00,1.12
6159.00,1.13
6158.00,1.13
6157.00,1.13
6156.00,1.13
6155.00,1.13
6154.00,1.13
6153.00,1.13
6152.00,1.13
6151.00,1.14
6150.00,1.14
6149.00,1.14
6148.00,1.14
6147.00,1.14
6146.00,1.14
6145.00,1.15
6144.00,1.15
6143.00,1.15
6142.00,1.15
6141.00,1.15
6140.00,1.15
6139.00,1.15
6138.00,1.16
6137.00,1.16
6136.00,1.16
6135.00,1.16
6134.00,1.16
6133.00,1.16
6132.00,1.16
6131.00,1.17
6130.00,1.17
6129.00,1.17
6128.00,1.17
6127.00,1.17
6126.00,1.17
6125.00,1.17
6124.00,1.18
6123.00,1.18
6122.00,1.18
6121.00,1.18
6120.00,1.18
6119.00,1.18
6118.00,1.19
6117.00,1.19
6116.00,1.19
6115.00,1.19
6114.00,1.19
6113.00,1.19
6112.00,1.20
6111.00,1.20
6110.00,1.20
6109.00,1.20
6108.00,1.20
6107.00,1.20
6106.00,1.20
6105.00,1.20
6104.00,1.21
6103.00,1.21
6102.00,1.21
6101.00,1.21
6100.00,1.21
6099.00,1.21
6098.00,1.21
6097.00,1.21
6096.00,1.21
6095.00,1.22
6094.00,1.22
6093.00,1.22
6092.00,1.22
6091.00,1.22
6090.00,1.22
6089.00,1.22
6088.00,1.22
6087.00,1.22
6086.00,1.22
6085.00,1.22
6084.00,1.22
6083.00,1.23
6082.00,1.23
6081.00,1.23
6080.00,1.23
6079.00,1.23
6078.00,1.23
6077.00,1.23
6076.00,1.23
6075.00,1.24
6074.00,1.24
6073.00,1.24
6072.00,1.24
6071.00,1.24
6070.00,1.24
6069.00,1.25
6068.00,1.25
6067.00,1.25
6066.00,1.25
6065.00,1.25
6064.00,1.25
6063.00,1.25
6062.00,1.25
6061.00,1.25
6060.00,1.26
6059.00,1.26
6058.00,1.26
6057.00,1.26
6056.00,1.26
6055.00,1.26
6054.00,1.26
6053.00,1.26
6052.00,1.26
6051.00,1.26
6050.00,1.26
6049.00,1.26
6048.00,1.26
6047.00,1.27
6046.00,1.27
6045.00,1.27
6044.00,1.27
6043.00,1.27
6042.00,1.27
6041.00,1.27
6040.00,1.27
6039.00,1.27
6038.00,1.27
6037.00,1.28
6036.00,1.28
6035.00,1.28
6034.00,1.28
6033.00,1.28
6032.00,1.28
6031.00,1.28
6030.00,1.28
6029.00,1.28
6028.00,1.28
6027.00,1.28
6026.00,1.28
6025.00,1.28
6024.00,1.29
6023.00,1.29
6022.00,1.29
6021.00,1.28
6020.00,1.28
6019.00,1.28
6018.00,1.28
6017.00,1.28
6016.00,1.28
6015.00,1.28
6014.00,1.28
6013.00,1.28
6012.00,1.28
6011.00,1.28
6010.00,1.28
6009.00,1.28
6008.00,1.28
6007.00,1.28
6006.00,1.28
6005.00,1.28
6004.00,1.28
6003.00,1.28
6002.00,1.28
6001.00,1.28
6000.00,1.28
5999.00,1.27
5998.00,1.27
5997.00,1.27
5996.00,1.27
5995.00,1.27
5994.00,1.27
5993.00,1.27
5992.00,1.27
5991.00,1.26
5990.00,1.26
5989.00,1.26
5988.00,1.26
5987.00,1.26
5986.00,1.25
5985.00,1.25
5984.00,1.25
5983.00,1.24
5982.00,1.24
5981.00,1.24
5980.00,1.23
5979.00,1.23
5978.00,1.23
5977.00,1.22
5976.00,1.22
5975.00,1.21
5974.00,1.21
5973.00,1.20
5972.00,1.20
5971.00,1.19
5970.00,1.19
5969.00,1.18
5968.00,1.18
5967.00,1.17
5966.00,1.16
5965.00,1.16
5964.00,1.15
5963.00,1.15
5962.00,1.14
5961.00,1.13
5960.00,1.13
5959.00,1.12
5958.00,1.11
5957.00,1.11
5956.00,1.10
5955.00,1.09
5954.00,1.09
5953.00,1.08
5952.00,1.07
5951.00,1.07
5950.00,1.06
5949.00,1.06
5948.00,1.05
5947.00,1.05
5946.00,1.04
5945.00,1.04
5944.00,1.03
5943.00,1.03
5942.00,1.03
5941.00,1.03
5940.00,1.02
5939.00,1.02
5938.00,1.02
5937.00,1.02
5936.00,1.02
5935.00,1.02
5934.00,1.02
5933.00,1.01
5932.00,1.01
5931.00,1.01
5930.00,1.01
5929.00,1.01
5928.00,1.01
5927.00,1.01
5926.00,1.01
5925.00,1.01
5924.00,1.01
5923.00,1.00
5922.00,1.00
5921.00,1.00
5920.00,1.00
5919.00,1.00
5918.00,0.99
5917.00,0.99
5916.00,0.99
5915.00,0.99
5914.00,0.99
5913.00,0.98
5912.00,0.98
5911.00,0.98
5910.00,0.98
5909.00,0.98
5908.00,0.97
5907.00,0.97
5906.00,0.97
5905.00,0.97
5904.00,0.97
5903.00,0.97
5902.00,0.97
5901.00,0.97
5900.00,0.97
5899.00,0.97
5898.00,0.97
5897.00,0.97
5896.00,0.97
5895.00,0.97
5894.00,0.97
5893.00,0.97
5892.00,0.97
5891.00,0.98
5890.00,0.98
5889.00,0.98
5888.00,0.98
5887.00,0.99
5886.00,0.99
5885.00,0.99
5884.00,0.99
5883.00,1.00
5882.00,1.00
5881.00,1.00
5880.00,1.01
5879.00,1.01
5878.00,1.01
5877.00,1.01
5876.00,1.02
5875.00,1.02
5874.00,1.02
5873.00,1.03
5872.00,1.03
5871.00,1.03
5870.00,1.03
5869.00,1.03
5868.00,1.04
5867.00,1.04
5866.00,1.04
5865.00,1.04
5864.00,1.04
5863.00,1.05
5862.00,1.05
5861.00,1.05
5860.00,1.05
5859.00,1.05
5858.00,1.05
5857.00,1.06
5856.00,1.06
5855.00,1.06
5854.00,1.06
5853.00,1.06
5852.00,1.06
5851.00,1.06
5850.00,1.06
5849.00,1.06
5848.00,1.06
5847.00,1.06
5846.00,1.06
5845.00,1.06
5844.00,1.06
5843.00,1.06
5842.00,1.06
5841.00,1.06
5840.00,1.06
5839.00,1.06
5838.00,1.06
5837.00,1.06
5836.00,1.06
5835.00,1.06
5834.00,1.06
5833.00,1.06
5832.00,1.06
5831.00,1.06
5830.00,1.06
5829.00,1.06
5828.00,1.06
5827.00,1.06
5826.00,1.06
5825.00,1.06
5824.00,1.06
5823.00,1.06
5822.00,1.06
5821.00,1.06
5820.00,1.06
5819.00,1.06
5818.00,1.06
5817.00,1.06
5816.00,1.06
5815.00,1.07
5814.00,1.07
5813.00,1.07
5812.00,1.07
5811.00,1.07
5810.00,1.07
5809.00,1.07
5808.00,1.07
5807.00,1.07
5806.00,1.07
5805.00,1.06
5804.00,1.06
5803.00,1.06
5802.00,1.06
5801.00,1.06
5800.00,1.06
5799.00,1.06
5798.00,1.06
5797.00,1.05
5796.00,1.05
5795.00,1.05
5794.00,1.05
5793.00,1.04
5792.00,1.04
5791.00,1.04
5790.00,1.04
5789.00,1.03
5788.00,1.03
5787.00,1.03
5786.00,1.03
5785.00,1.02
5784.00,1.02
5783.00,1.02
5782.00,1.02
5781.00,1.02
5780.00,1.01
5779.00,1.01
5778.00,1.01
5777.00,1.01
5776.00,1.01
5775.00,1.01
5774.00,1.01
5773.00,1.01
5772.00,1.01
5771.00,1.01
5770.00,1.01
5769.00,1.02
5768.00,1.02
5767.00,1.02
5766.00,1.02
5765.00,1.02
5764.00,1.02
5763.00,1.03
5762.00,1.03
5761.00,1.03
5760.00,1.03
5759.00,1.04
5758.00,1.04
5757.00,1.04
5756.00,1.04
5755.00,1.05
5754.00,1.05
5753.00,1.05
5752.00,1.05
5751.00,1.06
5750.00,1.06
5749.00,1.06
5748.00,1.07
5747.00,1.07
5746.00,1.07
5745.00,1.08
5744.00,1.08
5743.00,1.08
5742.00,1.09
5741.00,1.09
5740.00,1.09
5739.00,1.09
5738.00,1.10
5737.00,1.10
5736.00,1.10
5735.00,1.11
5734.00,1.11
5733.00,1.11
5732.00,1.11
5731.00,1.11
5730.00,1.12
5729.00,1.12
5728.00,1.12
5727.00,1.12
5726.00,1.12
5725.00,1.12
5724.00,1.12
5723.00,1.13
5722.00,1.13
5721.00,1.13
5720.00,1.13
5719.00,1.13
5718.00,1.13
5717.00,1.13
5716.00,1.13
5715.00,1.13
5714.00,1.13
5713.00,1.13
5712.00,1.13
5711.00,1.13
5710.00,1.13
5709.00,1.13
5708.00,1.13
5707.00,1.12
5706.00,1.12
5705.00,1.12
5704.00,1.12
5703.00,1.12
5702.00,1.12
5701.00,1.12
5700.00,1.12
5699.00,1.12
5698.00,1.12
5697.00,1.12
5696.00,1.12
5695.00,1.12
5694.00,1.11
5693.00,1.11
5692.00,1.11
5691.00,1.11
5690.00,1.11
5689.00,1.11
5688.00,1.11
5687.00,1.10
5686.00,1.10
5685.00,1.10
5684.00,1.10
5683.00,1.10
5682.00,1.09
5681.00,1.09
5680.00,1.09
5679.00,1.09
5678.00,1.09
5677.00,1.09
5676.00,1.08
5675.00,1.08
5674.00,1.08
5673.00,1.08
5672.00,1.08
5671.00,1.08
5670.00,1.08
5669.00,1.08
5668.00,1.08
5667.00,1.08
5666.00,1.09
5665.00,1.09
5664.00,1.09
5663.00,1.09
5662.00,1.09
5661.00,1.09
5660.00,1.10
5659.00,1.10
5658.00,1.10
5657.00,1.10
5656.00,1.10
5655.00,1.11
5654.00,1.11
5653.00,1.11
5652.00,1.11
5651.00,1.11
5650.00,1.12
5649.00,1.12
5648.00,1.12
5647.00,1.12
5646.00,1.12
5645.00,1.13
5644.00,1.13
5643.00,1.13
5642.00,1.13
5641.00,1.14
5640.00,1.14
5639.00,1.14
5638.00,1.14
5637.00,1.14
5636.00,1.15
5635.00,1.15
5634.00,1.15
5633.00,1.15
5632.00,1.15
5631.00,1.15
5630.00,1.16
5629.00,1.16
5628.00,1.16
5627.00,1.16
5626.00,1.16
5625.00,1.16
5624.00,1.16
5623.00,1.17
5622.00,1.17
5621.00,1.17
5620.00,1.17
5619.00,1.17
5618.00,1.17
5617.00,1.18
5616.00,1.18
5615.00,1.18
5614.00,1.18
5613.00,1.18
5612.00,1.18
5611.00,1.18
5610.00,1.19
5609.00,1.19
5608.00,1.19
5607.00,1.19
5606.00,1.19
5605.00,1.19
5604.00,1.19
5603.00,1.20
5602.00,1.20
5601.00,1.20
5600.00,1.20
5599.00,1.20
5598.00,1.20
5597.00,1.20
5596.00,1.21
5595.00,1.21
5594.00,1.21
5593.00,1.21
5592.00,1.21
5591.00,1.21
5590.00,1.22
5589.00,1.22
5588.00,1.22
5587.00,1.22
5586.00,1.22
5585.00,1.23
5584.00,1.23
5583.00,1.23
5582.00,1.23
5581.00,1.23
5580.00,1.24
5579.00,1.24
5578.00,1.24
5577.00,1.24
5576.00,1.24
5575.00,1.24
5574.00,1.25
5573.00,1.25
5572.00,1.25
5571.00,1.25
5570.00,1.25
5569.00,1.25
5568.00,1.25
5567.00,1.25
5566.00,1.26
5565.00,1.26
5564.00,1.26
5563.00,1.26
5562.00,1.26
5561.00,1.26
5560.00,1.26
5559.00,1.26
5558.00,1.26
5557.00,1.26
5556.00,1.26
5555.00,1.26
5554.00,1.26
5553.00,1.27
5552.00,1.27
5551.00,1.27
5550.00,1.27
5549.00,1.27
5548.00,1.27
5547.00,1.27
5546.00,1.28
5545.00,1.28
5544.00,1.28
5543.00,1.28
5542.00,1.28
5541.00,1.28
5540.00,1.28
5539.00,1.29
5538.00,1.29
5537.00,1.29
5536.00,1.29
5535.00,1.29
5534.00,1.29
5533.00,1.29
5532.00,1.30
5531.00,1.30
5530.00,1.30
5529.00,1.30
5528.00,1.30
5527.00,1.30
5526.00,1.30
5525.00,1.30
5524.00,1.30
5523.00,1.30
5522.00,1.30
5521.00,1.31
5520.00,1.31
5519.00,1.31
5518.00,1.31
5517.00,1.31
5516.00,1.31
5515.00,1.31
5514.00,1.31
5513.00,1.31
5512.00,1.31
5511.00,1.31
5510.00,1.31
5509.00,1.31
5508.00,1.31
5507.00,1.31
5506.00,1.31
5505.00,1.31
5504.00,1.31
5503.00,1.31
5502.00,1.31
5501.00,1.31
5500.00,1.31
5499.00,1.31
5498.00,1.31
5497.00,1.31
5496.00,1.31
5495.00,1.31
5494.00,1.32
5493.00,1.32
5492.00,1.32
5491.00,1.32
5490.00,1.32
5489.00,1.32
5488.00,1.32
5487.00,1.32
5486.00,1.33
5485.00,1.33
5484.00,1.33
5483.00,1.33
5482.00,1.33
5481.00,1.33
5480.00,1.34
5479.00,1.34
5478.00,1.34
5477.00,1.34
5476.00,1.34
5475.00,1.34
5474.00,1.34
5473.00,1.34
5472.00,1.35
5471.00,1.35
5470.00,1.35
5469.00,1.35
5468.00,1.35
5467.00,1.35
5466.00,1.35
5465.00,1.35
5464.00,1.36
5463.00,1.36
5462.00,1.36
5461.00,1.36
5460.00,1.36
5459.00,1.36
5458.00,1.36
5457.00,1.36
5456.00,1.36
5455.00,1.36
5454.00,1.36
5453.00,1.36
5452.00,1.36
5451.00,1.36
5450.00,1.36
5449.00,1.36
5448.00,1.36
5447.00,1.36
5446.00,1.36
5445.00,1.36
5444.00,1.36
5443.00,1.37
5442.00,1.37
5441.00,1.37
5440.00,1.37
5439.00,1.37
5438.00,1.37
5437.00,1.37
5436.00,1.37
5435.00,1.37
5434.00,1.37
5433.00,1.37
5432.00,1.37
5431.00,1.37
5430.00,1.37
5429.00,1.37
5428.00,1.37
5427.00,1.37
5426.00,1.37
5425.00,1.37
5424.00,1.37
5423.00,1.37
5422.00,1.38
5421.00,1.38
5420.00,1.38
5419.00,1.37
5418.00,1.37
5417.00,1.37
5416.00,1.37
5415.00,1.37
5414.00,1.37
5413.00,1.37
5412.00,1.37
5411.00,1.37
5410.00,1.37
5409.00,1.37
5408.00,1.37
5407.00,1.37
5406.00,1.37
5405.00,1.37
5404.00,1.37
5403.00,1.37
5402.00,1.37
5401.00,1.37
5400.00,1.37
5399.00,1.37
5398.00,1.36
5397.00,1.36
5396.00,1.36
5395.00,1.36
5394.00,1.36
5393.00,1.36
5392.00,1.36
5391.00,1.36
5390.00,1.35
5389.00,1.35
5388.00,1.35
5387.00,1.35
5386.00,1.35
5385.00,1.34
5384.00,1.34
5383.00,1.34
5382.00,1.34
5381.00,1.33
5380.00,1.33
5379.00,1.33
5378.00,1.32
5377.00,1.32
5376.00,1.32
5375.00,1.31
5374.00,1.31
5373.00,1.31
5372.00,1.30
5371.00,1.30
5370.00,1.29
5369.00,1.29
5368.00,1.29
5367.00,1.28
5366.00,1.28
5365.00,1.27
5364.00,1.27
5363.00,1.26
5362.00,1.26
5361.00,1.25
5360.00,1.24
5359.00,1.24
5358.00,1.23
5357.00,1.22
5356.00,1.21
5355.00,1.21
5354.00,1.20
5353.00,1.19
5352.00,1.18
5351.00,1.17
5350.00,1.16
5349.00,1.15
5348.00,1.14
5347.00,1.13
5346.00,1.12
5345.00,1.12
5344.00,1.11
5343.00,1.10
5342.00,1.09
5341.00,1.08
5340.00,1.07
5339.00,1.06
5338.00,1.05
5337.00,1.04
5336.00,1.03
5335.00,1.02
5334.00,1.02
5333.00,1.01
5332.00,1.00
5331.00,0.99
5330.00,0.98
5329.00,0.97
5328.00,0.96
5327.00,0.95
5326.00,0.94
5325.00,0.94
5324.00,0.93
5323.00,0.92
5322.00,0.91
5321.00,0.90
5320.00,0.89
5319.00,0.88
5318.00,0.87
5317.00,0.87
5316.00,0.86
5315.00,0.85
5314.00,0.84
5313.00,0.83
5312.00,0.83
5311.00,0.82
5310.00,0.81
5309.00,0.80
5308.00,0.80
5307.00,0.79
5306.00,0.79
5305.00,0.78
5304.00,0.77
5303.00,0.77
5302.00,0.76
5301.00,0.76
5300.00,0.76
5299.00,0.75
5298.00,0.75
5297.00,0.74
5296.00,0.74
5295.00,0.74
5294.00,0.73
5293.00,0.73
5292.00,0.73
5291.00,0.73
5290.00,0.73
5289.00,0.72
5288.00,0.72
5287.00,0.72
5286.00,0.72
5285.00,0.72
5284.00,0.71
5283.00,0.71
5282.00,0.71
5281.00,0.71
5280.00,0.71
5279.00,0.71
5278.00,0.71
5277.00,0.71
5276.00,0.70
5275.00,0.70
5274.00,0.70
5273.00,0.70
5272.00,0.70
5271.00,0.70
5270.00,0.70
5269.00,0.70
5268.00,0.70
5267.00,0.70
5266.00,0.70
5265.00,0.70
5264.00,0.70
5263.00,0.70
5262.00,0.70
5261.00,0.70
5260.00,0.70
5259.00,0.70
5258.00,0.70
5257.00,0.70
5256.00,0.70
5255.00,0.70
5254.00,0.70
5253.00,0.70
5252.00,0.70
5251.00,0.70
5250.00,0.70
5249.00,0.70
5248.00,0.70
5247.00,0.70
5246.00,0.70
5245.00,0.70
5244.00,0.70
5243.00,0.70
5242.00,0.70
5241.00,0.70
5240.00,0.70
5239.00,0.70
5238.00,0.70
5237.00,0.70
5236.00,0.70
5235.00,0.70
5234.00,0.70
5233.00,0.70
5232.00,0.70
5231.00,0.70
5230.00,0.70
5229.00,0.70
5228.00,0.70
5227.00,0.70
5226.00,0.70
5225.00,0.70
5224.00,0.70
5223.00,0.70
5222.00,0.70
5221.00,0.70
5220.00,0.70
5219.00,0.70
5218.00,0.70
5217.00,0.70
5216.00,0.70
5215.00,0.71
5214.00,0.71
5213.00,0.71
5212.00,0.71
5211.00,0.71
5210.00,0.71
5209.00,0.71
5208.00,0.71
5207.00,0.71
5206.00,0.71
5205.00,0.71
5204.00,0.71
5203.00,0.71
5202.00,0.72
5201.00,0.72
5200.00,0.72
5199.00,0.72
5198.00,0.72
5197.00,0.72
5196.00,0.72
5195.00,0.72
5194.00,0.72
5193.00,0.72
5192.00,0.72
5191.00,0.72
5190.00,0.72
5189.00,0.72
5188.00,0.72
5187.00,0.72
5186.00,0.72
5185.00,0.72
5184.00,0.72
5183.00,0.72
5182.00,0.72
5181.00,0.72
5180.00,0.72
5179.00,0.72
5178.00,0.72
5177.00,0.72
5176.00,0.72
5175.00,0.72
5174.00,0.72
5173.00,0.72
5172.00,0.72
5171.00,0.72
5170.00,0.72
5169.00,0.72
5168.00,0.72
5167.00,0.72
5166.00,0.72
5165.00,0.72
5164.00,0.72
5163.00,0.72
5162.00,0.73
5161.00,0.73
5160.00,0.73
5159.00,0.73
5158.00,0.73
5157.00,0.73
5156.00,0.73
5155.00,0.73
5154.00,0.73
5153.00,0.73
5152.00,0.73
5151.00,0.73
5150.00,0.73
5149.00,0.74
5148.00,0.74
5147.00,0.74
5146.00,0.74
5145.00,0.74
5144.00,0.74
5143.00,0.74
5142.00,0.74
5141.00,0.74
5140.00,0.74
5139.00,0.74
5138.00,0.74
5137.00,0.74
5136.00,0.74
5135.00,0.74
5134.00,0.74
5133.00,0.74
5132.00,0.74
5131.00,0.74
5130.00,0.74
5129.00,0.74
5128.00,0.74
5127.00,0.74
5126.00,0.75
5125.00,0.75
5124.00,0.75
5123.00,0.75
5122.00,0.75
5121.00,0.75
5120.00,0.75
5119.00,0.75
5118.00,0.75
5117.00,0.75
5116.00,0.75
5115.00,0.75
5114.00,0.75
5113.00,0.75
5112.00,0.75
5111.00,0.75
5110.00,0.75
5109.00,0.75
5108.00,0.75
5107.00,0.75
5106.00,0.75
5105.00,0.75
5104.00,0.75
5103.00,0.75
5102.00,0.75
5101.00,0.75
5100.00,0.75
5099.00,0.75
5098.00,0.75
5097.00,0.75
5096.00,0.75
5095.00,0.75
5094.00,0.75
5093.00,0.75
5092.00,0.75
5091.00,0.75
5090.00,0.75
5089.00,0.76
5088.00,0.76
5087.00,0.76
5086.00,0.76
5085.00,0.76
5084.00,0.76
5083.00,0.76
5082.00,0.76
5081.00,0.76
5080.00,0.76
5079.00,0.76
5078.00,0.76
5077.00,0.76
5076.00,0.76
5075.00,0.76
5074.00,0.76
5073.00,0.76
5072.00,0.76
5071.00,0.76
5070.00,0.77
5069.00,0.77
5068.00,0.77
5067.00,0.77
5066.00,0.77
5065.00,0.77
5064.00,0.77
5063.00,0.77
5062.00,0.77
5061.00,0.77
5060.00,0.77
5059.00,0.78
5058.00,0.78
5057.00,0.78
5056.00,0.78
5055.00,0.78
5054.00,0.78
5053.00,0.78
5052.00,0.78
5051.00,0.78
5050.00,0.78
5049.00,0.79
5048.00,0.79
5047.00,0.79
5046.00,0.79
5045.00,0.79
5044.00,0.79
5043.00,0.79
5042.00,0.79
5041.00,0.79
5040.00,0.79
5039.00,0.79
5038.00,0.79
5037.00,0.79
5036.00,0.79
5035.00,0.79
5034.00,0.80
5033.00,0.80
5032.00,0.80
5031.00,0.80
5030.00,0.80
5029.00,0.80
5028.00,0.80
5027.00,0.80
5026.00,0.80
5025.00,0.80
5024.00,0.80
5023.00,0.80
5022.00,0.81
5021.00,0.81
5020.00,0.81
5019.00,0.81
5018.00,0.81
5017.00,0.81
5016.00,0.81
5015.00,0.81
5014.00,0.81
5013.00,0.81
5012.00,0.81
5011.00,0.81
5010.00,0.81
5009.00,0.81
5008.00,0.81
5007.00,0.81
5006.00,0.81
5005.00,0.81
5004.00,0.81
5003.00,0.81
5002.00,0.81
5001.00,0.81
5000.00,0.81
4999.00,0.81
4998.00,0.81
4997.00,0.81
4996.00,0.82
4995.00,0.82
4994.00,0.82
4993.00,0.82
4992.00,0.82
4991.00,0.82
4990.00,0.82
4989.00,0.82
4988.00,0.82
4987.00,0.82
4986.00,0.82
4985.00,0.82
4984.00,0.82
4983.00,0.83
4982.00,0.83
4981.00,0.83
4980.00,0.83
4979.00,0.83
4978.00,0.83
4977.00,0.83
4976.00,0.83
4975.00,0.84
4974.00,0.84
4973.00,0.84
4972.00,0.84
4971.00,0.84
4970.00,0.84
4969.00,0.84
4968.00,0.84
4967.00,0.85
4966.00,0.85
4965.00,0.85
4964.00,0.85
4963.00,0.85
4962.00,0.85
4961.00,0.85
4960.00,0.85
4959.00,0.85
4958.00,0.85
4957.00,0.85
4956.00,0.85
4955.00,0.85
4954.00,0.85
4953.00,0.85
4952.00,0.85
4951.00,0.85
4950.00,0.85
4949.00,0.85
4948.00,0.86
4947.00,0.86
4946.00,0.86
4945.00,0.86
4944.00,0.86
4943.00,0.86
4942.00,0.87
4941.00,0.87
4940.00,0.87
4939.00,0.87
4938.00,0.87
4937.00,0.88
4936.00,0.88
4935.00,0.88
4934.00,0.88
4933.00,0.88
4932.00,0.88
4931.00,0.88
4930.00,0.88
4929.00,0.88
4928.00,0.88
4927.00,0.88
4926.00,0.88
4925.00,0.88
4924.00,0.88
4923.00,0.88
4922.00,0.88
4921.00,0.88
4920.00,0.88
4919.00,0.88
4918.00,0.88
4917.00,0.88
4916.00,0.88
4915.00,0.88
4914.00,0.88
4913.00,0.88
4912.00,0.88
4911.00,0.88
4910.00,0.88
4909.00,0.88
4908.00,0.88
4907.00,0.88
4906.00,0.88
4905.00,0.88
4904.00,0.88
4903.00,0.89
4902.00,0.89
4901.00,0.89
4900.00,0.89
4899.00,0.89
4898.00,0.89
4897.00,0.89
4896.00,0.89
4895.00,0.89
4894.00,0.89
4893.00,0.89
4892.00,0.89
4891.00,0.89
4890.00,0.89
4889.00,0.89
4888.00,0.90
4887.00,0.90
4886.00,0.90
4885.00,0.90
4884.00,0.90
4883.00,0.90
4882.00,0.90
4881.00,0.90
4880.00,0.90
4879.00,0.90
4878.00,0.90
4877.00,0.90
4876.00,0.90
4875.00,0.90
4874.00,0.90
4873.00,0.90
4872.00,0.89
4871.00,0.89
4870.00,0.89
4869.00,0.89
4868.00,0.89
4867.00,0.90
4866.00,0.90
4865.00,0.90
4864.00,0.90
4863.00,0.90
4862.00,0.90
4861.00,0.90
4860.00,0.90
4859.00,0.90
4858.00,0.90
4857.00,0.90
4856.00,0.91
4855.00,0.91
4854.00,0.91
4853.00,0.91
4852.00,0.91
4851.00,0.91
4850.00,0.92
4849.00,0.92
4848.00,0.92
4847.00,0.92
4846.00,0.92
4845.00,0.92
4844.00,0.93
4843.00,0.93
4842.00,0.93
4841.00,0.93
4840.00,0.93
4839.00,0.93
4838.00,0.93
4837.00,0.93
4836.00,0.93
4835.00,0.93
4834.00,0.93
4833.00,0.93
4832.00,0.93
4831.00,0.94
4830.00,0.94
4829.00,0.94
4828.00,0.94
4827.00,0.94
4826.00,0.94
4825.00,0.94
4824.00,0.94
4823.00,0.94
4822.00,0.94
4821.00,0.94
4820.00,0.94
4819.00,0.94
4818.00,0.94
4817.00,0.94
4816.00,0.94
4815.00,0.94
4814.00,0.94
4813.00,0.94
4812.00,0.94
4811.00,0.95
4810.00,0.95
4809.00,0.95
4808.00,0.95
4807.00,0.95
4806.00,0.95
4805.00,0.95
4804.00,0.95
4803.00,0.95
4802.00,0.95
4801.00,0.95
4800.00,0.95
4799.00,0.95
4798.00,0.95
4797.00,0.96
4796.00,0.96
4795.00,0.96
4794.00,0.96
4793.00,0.96
4792.00,0.96
4791.00,0.96
4790.00,0.96
4789.00,0.96
4788.00,0.96
4787.00,0.96
4786.00,0.97
4785.00,0.97
4784.00,0.97
4783.00,0.97
4782.00,0.97
4781.00,0.97
4780.00,0.98
4779.00,0.98
4778.00,0.98
4777.00,0.98
4776.00,0.98
4775.00,0.99
4774.00,0.99
4773.00,0.99
4772.00,0.99
4771.00,0.99
4770.00,0.99
4769.00,0.99
4768.00,0.99
4767.00,1.00
4766.00,1.00
4765.00,1.00
4764.00,1.00
4763.00,1.00
4762.00,1.00
4761.00,1.00
4760.00,1.00
4759.00,1.00
4758.00,1.00
4757.00,1.00
4756.00,1.00
4755.00,1.00
4754.00,1.00
4753.00,1.00
4752.00,1.00
4751.00,1.00
4750.00,1.00
4749.00,1.00
4748.00,1.00
4747.00,1.01
4746.00,1.01
4745.00,1.01
4744.00,1.01
4743.00,1.01
4742.00,1.01
4741.00,1.01
4740.00,1.01
4739.00,1.01
4738.00,1.02
4737.00,1.02
4736.00,1.02
4735.00,1.02
4734.00,1.02
4733.00,1.02
4732.00,1.03
4731.00,1.03
4730.00,1.03
4729.00,1.03
4728.00,1.03
4727.00,1.04
4726.00,1.04
4725.00,1.04
4724.00,1.04
4723.00,1.04
4722.00,1.04
4721.00,1.05
4720.00,1.05
4719.00,1.05
4718.00,1.05
4717.00,1.05
4716.00,1.05
4715.00,1.05
4714.00,1.05
4713.00,1.06
4712.00,1.06
4711.00,1.06
4710.00,1.06
4709.00,1.06
4708.00,1.06
4707.00,1.07
4706.00,1.07
4705.00,1.07
4704.00,1.07
4703.00,1.07
4702.00,1.08
4701.00,1.08
4700.00,1.08
4699.00,1.08
4698.00,1.08
4697.00,1.08
4696.00,1.08
4695.00,1.09
4694.00,1.09
4693.00,1.09
4692.00,1.09
4691.00,1.09
4690.00,1.09
4689.00,1.09
4688.00,1.09
4687.00,1.09
4686.00,1.09
4685.00,1.09
4684.00,1.10
4683.00,1.10
4682.00,1.10
4681.00,1.10
4680.00,1.10
4679.00,1.10
4678.00,1.10
4677.00,1.11
4676.00,1.11
4675.00,1.11
4674.00,1.11
4673.00,1.11
4672.00,1.11
4671.00,1.11
4670.00,1.12
4669.00,1.12
4668.00,1.12
4667.00,1.12
4666.00,1.12
4665.00,1.12
4664.00,1.12
4663.00,1.12
4662.00,1.12
4661.00,1.13
4660.00,1.13
4659.00,1.13
4658.00,1.13
4657.00,1.13
4656.00,1.13
4655.00,1.14
4654.00,1.14
4653.00,1.14
4652.00,1.14
4651.00,1.14
4650.00,1.14
4649.00,1.15
4648.00,1.15
4647.00,1.15
4646.00,1.15
4645.00,1.15
4644.00,1.15
4643.00,1.15
4642.00,1.15
4641.00,1.15
4640.00,1.15
4639.00,1.15
4638.00,1.15
4637.00,1.15
4636.00,1.15
4635.00,1.15
4634.00,1.15
4633.00,1.15
4632.00,1.15
4631.00,1.15
4630.00,1.15
4629.00,1.15
4628.00,1.15
4627.00,1.15
4626.00,1.16
4625.00,1.16
4624.00,1.16
4623.00,1.16
4622.00,1.16
4621.00,1.16
4620.00,1.16
4619.00,1.16
4618.00,1.17
4617.00,1.17
4616.00,1.17
4615.00,1.17
4614.00,1.17
4613.00,1.17
4612.00,1.18
4611.00,1.18
4610.00,1.18
4609.00,1.18
4608.00,1.18
4607.00,1.18
4606.00,1.18
4605.00,1.18
4604.00,1.18
4603.00,1.18
4602.00,1.18
4601.00,1.18
4600.00,1.18
4599.00,1.18
4598.00,1.18
4597.00,1.18
4596.00,1.18
4595.00,1.18
4594.00,1.19
4593.00,1.19
4592.00,1.19
4591.00,1.19
4590.00,1.19
4589.00,1.19
4588.00,1.19
4587.00,1.19
4586.00,1.19
4585.00,1.19
4584.00,1.19
4583.00,1.19
4582.00,1.20
4581.00,1.20
4580.00,1.20
4579.00,1.20
4578.00,1.20
4577.00,1.20
4576.00,1.20
4575.00,1.20
4574.00,1.20
4573.00,1.20
4572.00,1.20
4571.00,1.20
4570.00,1.20
4569.00,1.20
4568.00,1.20
4567.00,1.20
4566.00,1.20
4565.00,1.20
4564.00,1.21
4563.00,1.21
4562.00,1.21
4561.00,1.21
4560.00,1.21
4559.00,1.21
4558.00,1.21
4557.00,1.21
4556.00,1.21
4555.00,1.22
4554.00,1.22
4553.00,1.22
4552.00,1.22
4551.00,1.22
4550.00,1.22
4549.00,1.22
4548.00,1.22
4547.00,1.22
4546.00,1.22
4545.00,1.23
4544.00,1.23
4543.00,1.23
4542.00,1.23
4541.00,1.23
4540.00,1.23
4539.00,1.23
4538.00,1.23
4537.00,1.23
4536.00,1.23
4535.00,1.23
4534.00,1.23
4533.00,1.23
4532.00,1.23
4531.00,1.23
4530.00,1.23
4529.00,1.23
4528.00,1.23
4527.00,1.23
4526.00,1.23
4525.00,1.23
4524.00,1.23
4523.00,1.23
4522.00,1.23
4521.00,1.23
4520.00,1.23
4519.00,1.23
4518.00,1.23
4517.00,1.23
4516.00,1.23
4515.00,1.23
4514.00,1.23
4513.00,1.23
4512.00,1.23
4511.00,1.23
4510.00,1.23
4509.00,1.23
4508.00,1.23
4507.00,1.23
4506.00,1.24
4505.00,1.24
4504.00,1.24
4503.00,1.24
4502.00,1.24
4501.00,1.24
4500.00,1.24
4499.00,1.24
4498.00,1.24
4497.00,1.24
4496.00,1.24
4495.00,1.24
4494.00,1.24
4493.00,1.24
4492.00,1.24
4491.00,1.24
4490.00,1.24
4489.00,1.23
4488.00,1.23
4487.00,1.23
4486.00,1.23
4485.00,1.23
4484.00,1.23
4483.00,1.23
4482.00,1.23
4481.00,1.23
4480.00,1.23
4479.00,1.23
4478.00,1.23
4477.00,1.23
4476.00,1.22
4475.00,1.22
4474.00,1.22
4473.00,1.22
4472.00,1.22
4471.00,1.22
4470.00,1.21
4469.00,1.21
4468.00,1.21
4467.00,1.21
4466.00,1.21
4465.00,1.20
4464.00,1.20
4463.00,1.20
4462.00,1.19
4461.00,1.19
4460.00,1.19
4459.00,1.19
4458.00,1.18
4457.00,1.18
4456.00,1.18
4455.00,1.17
4454.00,1.17
4453.00,1.17
4452.00,1.17
4451.00,1.16
4450.00,1.16
4449.00,1.16
4448.00,1.16
4447.00,1.15
4446.00,1.15
4445.00,1.15
4444.00,1.14
4443.00,1.14
4442.00,1.14
4441.00,1.14
4440.00,1.13
4439.00,1.13
4438.00,1.13
4437.00,1.13
4436.00,1.12
4435.00,1.12
4434.00,1.12
4433.00,1.12
4432.00,1.12
4431.00,1.11
4430.00,1.11
4429.00,1.11
4428.00,1.11
4427.00,1.11
4426.00,1.11
4425.00,1.11
4424.00,1.11
4423.00,1.11
4422.00,1.11
4421.00,1.11
4420.00,1.11
4419.00,1.11
4418.00,1.11
4417.00,1.11
4416.00,1.11
4415.00,1.11
4414.00,1.11
4413.00,1.11
4412.00,1.11
4411.00,1.11
4410.00,1.11
4409.00,1.11
4408.00,1.11
4407.00,1.11
4406.00,1.11
4405.00,1.11
4404.00,1.11
4403.00,1.11
4402.00,1.12
4401.00,1.12
4400.00,1.12
4399.00,1.12
4398.00,1.12
4397.00,1.12
4396.00,1.12
4395.00,1.12
4394.00,1.12
4393.00,1.12
4392.00,1.12
4391.00,1.12
4390.00,1.13
4389.00,1.13
4388.00,1.13
4387.00,1.13
4386.00,1.13
4385.00,1.13
4384.00,1.13
4383.00,1.13
4382.00,1.13
4381.00,1.13
4380.00,1.14
4379.00,1.14
4378.00,1.14
4377.00,1.14
4376.00,1.14
4375.00,1.14
4374.00,1.14
4373.00,1.14
4372.00,1.14
4371.00,1.15
4370.00,1.15
4369.00,1.15
4368.00,1.15
4367.00,1.15
4366.00,1.15
4365.00,1.15
4364.00,1.15
4363.00,1.15
4362.00,1.15
4361.00,1.16
4360.00,1.16
4359.00,1.16
4358.00,1.16
4357.00,1.16
4356.00,1.16
4355.00,1.16
4354.00,1.16
4353.00,1.16
4352.00,1.16
4351.00,1.16
4350.00,1.16
4349.00,1.16
4348.00,1.16
4347.00,1.16
4346.00,1.16
4345.00,1.16
4344.00,1.16
4343.00,1.16
4342.00,1.16
4341.00,1.16
4340.00,1.16
4339.00,1.16
4338.00,1.16
4337.00,1.16
4336.00,1.16
4335.00,1.16
4334.00,1.16
4333.00,1.16
4332.00,1.16
4331.00,1.16
4330.00,1.16
4329.00,1.16
4328.00,1.16
4327.00,1.16
4326.00,1.16
4325.00,1.16
4324.00,1.16
4323.00,1.16
4322.00,1.16
4321.00,1.17
4320.00,1.17
4319.00,1.17
4318.00,1.17
4317.00,1.17
4316.00,1.17
4315.00,1.18
4314.00,1.18
4313.00,1.18
4312.00,1.18
4311.00,1.19
4310.00,1.19
4309.00,1.19
4308.00,1.19
4307.00,1.20
4306.00,1.20
4305.00,1.20
4304.00,1.20
4303.00,1.20
4302.00,1.20
4301.00,1.20
4300.00,1.20
4299.00,1.20
4298.00,1.20
4297.00,1.20
4296.00,1.21
4295.00,1.21
4294.00,1.21
4293.00,1.21
4292.00,1.21
4291.00,1.21
4290.00,1.21
4289.00,1.21
4288.00,1.21
4287.00,1.21
4286.00,1.21
4285.00,1.21
4284.00,1.22
4283.00,1.22
4282.00,1.22
4281.00,1.22
4280.00,1.22
4279.00,1.22
4278.00,1.22
4277.00,1.22
4276.00,1.22
4275.00,1.22
4274.00,1.22
4273.00,1.22
4272.00,1.22
4271.00,1.22
4270.00,1.22
4269.00,1.22
4268.00,1.22
4267.00,1.22
4266.00,1.22
4265.00,1.22
4264.00,1.22
4263.00,1.22
4262.00,1.22
4261.00,1.22
4260.00,1.22
4259.00,1.22
4258.00,1.22
4257.00,1.22
4256.00,1.22
4255.00,1.22
4254.00,1.22
4253.00,1.22
4252.00,1.23
4251.00,1.23
4250.00,1.23
4249.00,1.23
4248.00,1.23
4247.00,1.23
4246.00,1.23
4245.00,1.23
4244.00,1.23
4243.00,1.23
4242.00,1.23
4241.00,1.23
4240.00,1.23
4239.00,1.23
4238.00,1.23
4237.00,1.23
4236.00,1.24
4235.00,1.24
4234.00,1.24
4233.00,1.24
4232.00,1.24
4231.00,1.24
4230.00,1.24
4229.00,1.24
4228.00,1.24
4227.00,1.25
4226.00,1.25
4225.00,1.25
4224.00,1.25
4223.00,1.25
4222.00,1.25
4221.00,1.25
4220.00,1.25
4219.00,1.25
4218.00,1.26
4217.00,1.26
4216.00,1.26
4215.00,1.26
4214.00,1.26
4213.00,1.26
4212.00,1.26
4211.00,1.26
4210.00,1.26
4209.00,1.26
4208.00,1.26
4207.00,1.26
4206.00,1.26
4205.00,1.26
4204.00,1.26
4203.00,1.26
4202.00,1.26
4201.00,1.26
4200.00,1.26
4199.00,1.26
4198.00,1.27
4197.00,1.27
4196.00,1.27
4195.00,1.27
4194.00,1.27
4193.00,1.27
4192.00,1.27
4191.00,1.27
4190.00,1.27
4189.00,1.27
4188.00,1.28
4187.00,1.28
4186.00,1.28
4185.00,1.28
4184.00,1.28
4183.00,1.28
4182.00,1.28
4181.00,1.28
4180.00,1.28
4179.00,1.28
4178.00,1.28
4177.00,1.28
4176.00,1.28
4175.00,1.28
4174.00,1.28
4173.00,1.28
4172.00,1.28
4171.00,1.28
4170.00,1.28
4169.00,1.28
4168.00,1.28
4167.00,1.27
4166.00,1.27
4165.00,1.27
4164.00,1.27
4163.00,1.27
4162.00,1.27
4161.00,1.27
4160.00,1.27
4159.00,1.27
4158.00,1.27
4157.00,1.27
4156.00,1.27
4155.00,1.27
4154.00,1.28
4153.00,1.28
4152.00,1.28
4151.00,1.28
4150.00,1.28
4149.00,1.28
4148.00,1.28
4147.00,1.28
4146.00,1.28
4145.00,1.28
4144.00,1.28
4143.00,1.28
4142.00,1.28
4141.00,1.28
4140.00,1.28
4139.00,1.28
4138.00,1.29
4137.00,1.29
4136.00,1.29
4135.00,1.29
4134.00,1.29
4133.00,1.29
4132.00,1.30
4131.00,1.30
4130.00,1.30
4129.00,1.30
4128.00,1.30
4127.00,1.30
4126.00,1.31
4125.00,1.31
4124.00,1.31
4123.00,1.31
4122.00,1.31
4121.00,1.31
4120.00,1.31
4119.00,1.31
4118.00,1.31
4117.00,1.31
4116.00,1.31
4115.00,1.31
4114.00,1.32
4113.00,1.32
4112.00,1.32
4111.00,1.32
4110.00,1.32
4109.00,1.32
4108.00,1.32
4107.00,1.32
4106.00,1.32
4105.00,1.32
4104.00,1.32
4103.00,1.32
4102.00,1.32
4101.00,1.32
4100.00,1.32
4099.00,1.32
4098.00,1.32
4097.00,1.32
4096.00,1.32
4095.00,1.32
4094.00,1.32
4093.00,1.32
4092.00,1.32
4091.00,1.32
4090.00,1.32
4089.00,1.33
4088.00,1.33
4087.00,1.33
4086.00,1.33
4085.00,1.33
4084.00,1.33
4083.00,1.33
4082.00,1.33
4081.00,1.33
4080.00,1.33
4079.00,1.34
4078.00,1.34
4077.00,1.34
4076.00,1.34
4075.00,1.34
4074.00,1.34
4073.00,1.34
4072.00,1.34
4071.00,1.34
4070.00,1.35
4069.00,1.35
4068.00,1.35
4067.00,1.35
4066.00,1.35
4065.00,1.35
4064.00,1.35
4063.00,1.35
4062.00,1.35
4061.00,1.35
4060.00,1.34
4059.00,1.34
4058.00,1.34
4057.00,1.34
4056.00,1.34
4055.00,1.34
4054.00,1.34
4053.00,1.34
4052.00,1.34
4051.00,1.34
4050.00,1.34
4049.00,1.34
4048.00,1.34
4047.00,1.34
4046.00,1.34
4045.00,1.34
4044.00,1.34
4043.00,1.34
4042.00,1.34
4041.00,1.34
4040.00,1.34
4039.00,1.33
4038.00,1.33
4037.00,1.33
4036.00,1.33
4035.00,1.33
4034.00,1.33
4033.00,1.33
4032.00,1.33
4031.00,1.33
4030.00,1.33
4029.00,1.33
4028.00,1.34
4027.00,1.34
4026.00,1.34
4025.00,1.34
4024.00,1.35
4023.00,1.35
4022.00,1.35
4021.00,1.36
4020.00,1.36
4019.00,1.36
4018.00,1.36
4017.00,1.37
4016.00,1.37
4015.00,1.37
4014.00,1.37
4013.00,1.37
4012.00,1.37
4011.00,1.37
4010.00,1.38
4009.00,1.38
4008.00,1.38
4007.00,1.38
4006.00,1.38
4005.00,1.38
4004.00,1.37
4003.00,1.37
4002.00,1.37
4001.00,1.37
4000.00,1.37
