创建为新数据集,样品 180 用户 Administrator 日期 星期六, 七月 21 2018
cm-1,%T
10000.00,1.73
9999.00,1.73
9998.00,1.73
9997.00,1.73
9996.00,1.74
9995.00,1.74
9994.00,1.74
9993.00,1.74
9992.00,1.74
9991.00,1.74
9990.00,1.74
9989.00,1.74
9988.00,1.74
9987.00,1.74
9986.00,1.74
9985.00,1.74
9984.00,1.73
9983.00,1.73
9982.00,1.73
9981.00,1.73
9980.00,1.73
9979.00,1.72
9978.00,1.72
9977.00,1.72
9976.00,1.72
9975.00,1.71
9974.00,1.71
9973.00,1.71
9972.00,1.70
9971.00,1.70
9970.00,1.70
9969.00,1.69
9968.00,1.69
9967.00,1.69
9966.00,1.68
9965.00,1.68
9964.00,1.68
9963.00,1.67
9962.00,1.67
9961.00,1.67
9960.00,1.67
9959.00,1.67
9958.00,1.67
9957.00,1.67
9956.00,1.67
9955.00,1.67
9954.00,1.67
9953.00,1.67
9952.00,1.67
9951.00,1.67
9950.00,1.67
9949.00,1.68
9948.00,1.68
9947.00,1.68
9946.00,1.68
9945.00,1.69
9944.00,1.69
9943.00,1.69
9942.00,1.69
9941.00,1.69
9940.00,1.69
9939.00,1.69
9938.00,1.69
9937.00,1.69
9936.00,1.69
9935.00,1.69
9934.00,1.68
9933.00,1.68
9932.00,1.68
9931.00,1.68
9930.00,1.68
9929.00,1.68
9928.00,1.68
9927.00,1.68
9926.00,1.68
9925.00,1.68
9924.00,1.68
9923.00,1.68
9922.00,1.68
9921.00,1.68
9920.00,1.68
9919.00,1.69
9918.00,1.69
9917.00,1.69
9916.00,1.69
9915.00,1.69
9914.00,1.69
9913.00,1.68
9912.00,1.68
9911.00,1.68
9910.00,1.68
9909.00,1.68
9908.00,1.68
9907.00,1.68
9906.00,1.68
9905.00,1.68
9904.00,1.68
9903.00,1.68
9902.00,1.68
9901.00,1.68
9900.00,1.68
9899.00,1.68
9898.00,1.68
9897.00,1.69
9896.00,1.69
9895.00,1.69
9894.00,1.69
9893.00,1.69
9892.00,1.69
9891.00,1.69
9890.00,1.69
9889.00,1.69
9888.00,1.69
9887.00,1.69
9886.00,1.69
9885.00,1.69
9884.00,1.69
9883.00,1.69
9882.00,1.69
9881.00,1.69
9880.00,1.69
9879.00,1.69
9878.00,1.68
9877.00,1.68
9876.00,1.68
9875.00,1.68
9874.00,1.68
9873.00,1.68
9872.00,1.67
9871.00,1.67
9870.00,1.67
9869.00,1.67
9868.00,1.67
9867.00,1.68
9866.00,1.68
9865.00,1.68
9864.00,1.68
9863.00,1.69
9862.00,1.69
9861.00,1.69
9860.00,1.70
9859.00,1.70
9858.00,1.70
9857.00,1.71
9856.00,1.71
9855.00,1.71
9854.00,1.71
9853.00,1.71
9852.00,1.71
9851.00,1.71
9850.00,1.71
9849.00,1.71
9848.00,1.71
9847.00,1.71
9846.00,1.71
9845.00,1.71
9844.00,1.71
9843.00,1.71
9842.00,1.71
9841.00,1.71
9840.00,1.71
9839.00,1.71
9838.00,1.71
9837.00,1.71
9836.00,1.71
9835.00,1.71
9834.00,1.71
9833.00,1.71
9832.00,1.72
9831.00,1.72
9830.00,1.71
9829.00,1.71
9828.00,1.71
9827.00,1.71
9826.00,1.71
9825.00,1.71
9824.00,1.70
9823.00,1.70
9822.00,1.70
9821.00,1.70
9820.00,1.69
9819.00,1.69
9818.00,1.69
9817.00,1.69
9816.00,1.69
9815.00,1.69
9814.00,1.69
9813.00,1.69
9812.00,1.69
9811.00,1.69
9810.00,1.69
9809.00,1.69
9808.00,1.69
9807.00,1.69
9806.00,1.69
9805.00,1.69
9804.00,1.69
9803.00,1.69
9802.00,1.69
9801.00,1.69
9800.00,1.69
9799.00,1.69
9798.00,1.69
9797.00,1.69
9796.00,1.69
9795.00,1.69
9794.00,1.69
9793.00,1.69
9792.00,1.69
9791.00,1.69
9790.00,1.70
9789.00,1.70
9788.00,1.70
9787.00,1.70
9786.00,1.70
9785.00,1.71
9784.00,1.71
9783.00,1.71
9782.00,1.71
9781.00,1.71
9780.00,1.71
9779.00,1.71
9778.00,1.71
9777.00,1.71
9776.00,1.71
9775.00,1.71
9774.00,1.71
9773.00,1.71
9772.00,1.71
9771.00,1.71
9770.00,1.71
9769.00,1.71
9768.00,1.71
9767.00,1.71
9766.00,1.71
9765.00,1.71
9764.00,1.70
9763.00,1.70
9762.00,1.70
9761.00,1.70
9760.00,1.70
9759.00,1.70
9758.00,1.69
9757.00,1.69
9756.00,1.69
9755.00,1.68
9754.00,1.68
9753.00,1.68
9752.00,1.67
9751.00,1.67
9750.00,1.67
9749.00,1.67
9748.00,1.66
9747.00,1.66
9746.00,1.66
9745.00,1.66
9744.00,1.66
9743.00,1.66
9742.00,1.66
9741.00,1.66
9740.00,1.66
9739.00,1.66
9738.00,1.66
9737.00,1.67
9736.00,1.67
9735.00,1.67
9734.00,1.67
9733.00,1.67
9732.00,1.67
9731.00,1.67
9730.00,1.67
9729.00,1.68
9728.00,1.68
9727.00,1.68
9726.00,1.68
9725.00,1.68
9724.00,1.68
9723.00,1.69
9722.00,1.69
9721.00,1.69
9720.00,1.69
9719.00,1.69
9718.00,1.69
9717.00,1.70
9716.00,1.70
9715.00,1.70
9714.00,1.70
9713.00,1.70
9712.00,1.70
9711.00,1.69
9710.00,1.69
9709.00,1.69
9708.00,1.69
9707.00,1.69
9706.00,1.69
9705.00,1.68
9704.00,1.68
9703.00,1.68
9702.00,1.68
9701.00,1.68
9700.00,1.68
9699.00,1.68
9698.00,1.69
9697.00,1.69
9696.00,1.69
9695.00,1.69
9694.00,1.70
9693.00,1.70
9692.00,1.70
9691.00,1.70
9690.00,1.70
9689.00,1.71
9688.00,1.71
9687.00,1.71
9686.00,1.71
9685.00,1.71
9684.00,1.71
9683.00,1.71
9682.00,1.70
9681.00,1.70
9680.00,1.70
9679.00,1.70
9678.00,1.70
9677.00,1.70
9676.00,1.69
9675.00,1.69
9674.00,1.69
9673.00,1.69
9672.00,1.69
9671.00,1.69
9670.00,1.69
9669.00,1.69
9668.00,1.69
9667.00,1.69
9666.00,1.69
9665.00,1.69
9664.00,1.69
9663.00,1.69
9662.00,1.69
9661.00,1.69
9660.00,1.69
9659.00,1.69
9658.00,1.69
9657.00,1.69
9656.00,1.69
9655.00,1.69
9654.00,1.69
9653.00,1.69
9652.00,1.69
9651.00,1.69
9650.00,1.69
9649.00,1.69
9648.00,1.69
9647.00,1.69
9646.00,1.69
9645.00,1.69
9644.00,1.69
9643.00,1.69
9642.00,1.69
9641.00,1.69
9640.00,1.69
9639.00,1.69
9638.00,1.69
9637.00,1.69
9636.00,1.69
9635.00,1.69
9634.00,1.69
9633.00,1.69
9632.00,1.69
9631.00,1.69
9630.00,1.69
9629.00,1.70
9628.00,1.70
9627.00,1.70
9626.00,1.70
9625.00,1.70
9624.00,1.70
9623.00,1.70
9622.00,1.70
9621.00,1.70
9620.00,1.70
9619.00,1.70
9618.00,1.70
9617.00,1.70
9616.00,1.70
9615.00,1.70
9614.00,1.70
9613.00,1.69
9612.00,1.69
9611.00,1.69
9610.00,1.69
9609.00,1.69
9608.00,1.69
9607.00,1.69
9606.00,1.69
9605.00,1.69
9604.00,1.69
9603.00,1.69
9602.00,1.69
9601.00,1.69
9600.00,1.69
9599.00,1.69
9598.00,1.69
9597.00,1.69
9596.00,1.69
9595.00,1.69
9594.00,1.69
9593.00,1.69
9592.00,1.69
9591.00,1.69
9590.00,1.69
9589.00,1.69
9588.00,1.69
9587.00,1.69
9586.00,1.69
9585.00,1.69
9584.00,1.69
9583.00,1.70
9582.00,1.70
9581.00,1.70
9580.00,1.70
9579.00,1.70
9578.00,1.70
9577.00,1.70
9576.00,1.70
9575.00,1.71
9574.00,1.71
9573.00,1.71
9572.00,1.71
9571.00,1.71
9570.00,1.70
9569.00,1.70
9568.00,1.70
9567.00,1.70
9566.00,1.70
9565.00,1.70
9564.00,1.70
9563.00,1.70
9562.00,1.70
9561.00,1.70
9560.00,1.69
9559.00,1.69
9558.00,1.69
9557.00,1.69
9556.00,1.69
9555.00,1.69
9554.00,1.69
9553.00,1.69
9552.00,1.69
9551.00,1.69
9550.00,1.70
9549.00,1.70
9548.00,1.70
9547.00,1.70
9546.00,1.70
9545.00,1.70
9544.00,1.70
9543.00,1.70
9542.00,1.70
9541.00,1.70
9540.00,1.70
9539.00,1.70
9538.00,1.70
9537.00,1.70
9536.00,1.70
9535.00,1.70
9534.00,1.70
9533.00,1.70
9532.00,1.70
9531.00,1.70
9530.00,1.70
9529.00,1.70
9528.00,1.70
9527.00,1.70
9526.00,1.71
9525.00,1.71
9524.00,1.71
9523.00,1.71
9522.00,1.71
9521.00,1.71
9520.00,1.71
9519.00,1.71
9518.00,1.71
9517.00,1.71
9516.00,1.71
9515.00,1.71
9514.00,1.71
9513.00,1.71
9512.00,1.70
9511.00,1.70
9510.00,1.70
9509.00,1.70
9508.00,1.70
9507.00,1.70
9506.00,1.70
9505.00,1.70
9504.00,1.69
9503.00,1.69
9502.00,1.69
9501.00,1.69
9500.00,1.69
9499.00,1.69
9498.00,1.69
9497.00,1.69
9496.00,1.69
9495.00,1.69
9494.00,1.69
9493.00,1.69
9492.00,1.69
9491.00,1.69
9490.00,1.69
9489.00,1.69
9488.00,1.70
9487.00,1.70
9486.00,1.70
9485.00,1.70
9484.00,1.71
9483.00,1.71
9482.00,1.71
9481.00,1.71
9480.00,1.72
9479.00,1.72
9478.00,1.72
9477.00,1.72
9476.00,1.72
9475.00,1.73
9474.00,1.73
9473.00,1.73
9472.00,1.73
9471.00,1.73
9470.00,1.73
9469.00,1.73
9468.00,1.73
9467.00,1.73
9466.00,1.72
9465.00,1.72
9464.00,1.72
9463.00,1.72
9462.00,1.72
9461.00,1.72
9460.00,1.72
9459.00,1.72
9458.00,1.72
9457.00,1.71
9456.00,1.71
9455.00,1.71
9454.00,1.71
9453.00,1.71
9452.00,1.71
9451.00,1.71
9450.00,1.70
9449.00,1.70
9448.00,1.70
9447.00,1.70
9446.00,1.70
9445.00,1.70
9444.00,1.70
9443.00,1.70
9442.00,1.69
9441.00,1.69
9440.00,1.69
9439.00,1.69
9438.00,1.69
9437.00,1.69
9436.00,1.69
9435.00,1.69
9434.00,1.68
9433.00,1.68
9432.00,1.68
9431.00,1.68
9430.00,1.68
9429.00,1.68
9428.00,1.69
9427.00,1.69
9426.00,1.69
9425.00,1.69
9424.00,1.69
9423.00,1.69
9422.00,1.69
9421.00,1.69
9420.00,1.70
9419.00,1.70
9418.00,1.70
9417.00,1.70
9416.00,1.70
9415.00,1.70
9414.00,1.70
9413.00,1.71
9412.00,1.71
9411.00,1.71
9410.00,1.71
9409.00,1.71
9408.00,1.71
9407.00,1.71
9406.00,1.71
9405.00,1.71
9404.00,1.71
9403.00,1.70
9402.00,1.70
9401.00,1.70
9400.00,1.70
9399.00,1.70
9398.00,1.69
9397.00,1.69
9396.00,1.69
9395.00,1.69
9394.00,1.69
9393.00,1.69
9392.00,1.69
9391.00,1.69
9390.00,1.69
9389.00,1.69
9388.00,1.69
9387.00,1.69
9386.00,1.69
9385.00,1.70
9384.00,1.70
9383.00,1.70
9382.00,1.71
9381.00,1.71
9380.00,1.71
9379.00,1.71
9378.00,1.72
9377.00,1.72
9376.00,1.72
9375.00,1.72
9374.00,1.72
9373.00,1.72
9372.00,1.72
9371.00,1.72
9370.00,1.72
9369.00,1.71
9368.00,1.71
9367.00,1.71
9366.00,1.71
9365.00,1.71
9364.00,1.71
9363.00,1.71
9362.00,1.71
9361.00,1.71
9360.00,1.71
9359.00,1.71
9358.00,1.71
9357.00,1.71
9356.00,1.71
9355.00,1.71
9354.00,1.71
9353.00,1.72
9352.00,1.72
9351.00,1.72
9350.00,1.72
9349.00,1.72
9348.00,1.72
9347.00,1.72
9346.00,1.72
9345.00,1.72
9344.00,1.72
9343.00,1.72
9342.00,1.72
9341.00,1.72
9340.00,1.72
9339.00,1.72
9338.00,1.72
9337.00,1.72
9336.00,1.72
9335.00,1.72
9334.00,1.71
9333.00,1.71
9332.00,1.71
9331.00,1.71
9330.00,1.70
9329.00,1.70
9328.00,1.70
9327.00,1.70
9326.00,1.70
9325.00,1.70
9324.00,1.69
9323.00,1.69
9322.00,1.69
9321.00,1.69
9320.00,1.69
9319.00,1.69
9318.00,1.69
9317.00,1.69
9316.00,1.69
9315.00,1.69
9314.00,1.69
9313.00,1.69
9312.00,1.69
9311.00,1.69
9310.00,1.69
9309.00,1.69
9308.00,1.69
9307.00,1.69
9306.00,1.69
9305.00,1.69
9304.00,1.69
9303.00,1.69
9302.00,1.69
9301.00,1.69
9300.00,1.69
9299.00,1.69
9298.00,1.70
9297.00,1.70
9296.00,1.70
9295.00,1.70
9294.00,1.70
9293.00,1.70
9292.00,1.70
9291.00,1.70
9290.00,1.70
9289.00,1.70
9288.00,1.70
9287.00,1.70
9286.00,1.70
9285.00,1.70
9284.00,1.70
9283.00,1.70
9282.00,1.70
9281.00,1.70
9280.00,1.70
9279.00,1.70
9278.00,1.70
9277.00,1.70
9276.00,1.70
9275.00,1.70
9274.00,1.70
9273.00,1.70
9272.00,1.71
9271.00,1.71
9270.00,1.71
9269.00,1.71
9268.00,1.71
9267.00,1.71
9266.00,1.71
9265.00,1.71
9264.00,1.71
9263.00,1.71
9262.00,1.71
9261.00,1.71
9260.00,1.71
9259.00,1.71
9258.00,1.72
9257.00,1.72
9256.00,1.72
9255.00,1.72
9254.00,1.72
9253.00,1.72
9252.00,1.72
9251.00,1.72
9250.00,1.72
9249.00,1.72
9248.00,1.72
9247.00,1.72
9246.00,1.72
9245.00,1.72
9244.00,1.72
9243.00,1.72
9242.00,1.72
9241.00,1.72
9240.00,1.72
9239.00,1.72
9238.00,1.72
9237.00,1.72
9236.00,1.72
9235.00,1.72
9234.00,1.72
9233.00,1.72
9232.00,1.72
9231.00,1.72
9230.00,1.72
9229.00,1.72
9228.00,1.72
9227.00,1.72
9226.00,1.72
9225.00,1.72
9224.00,1.72
9223.00,1.72
9222.00,1.72
9221.00,1.72
9220.00,1.72
9219.00,1.72
9218.00,1.72
9217.00,1.72
9216.00,1.72
9215.00,1.72
9214.00,1.72
9213.00,1.72
9212.00,1.72
9211.00,1.72
9210.00,1.72
9209.00,1.72
9208.00,1.72
9207.00,1.72
9206.00,1.72
9205.00,1.72
9204.00,1.72
9203.00,1.71
9202.00,1.71
9201.00,1.71
9200.00,1.71
9199.00,1.71
9198.00,1.71
9197.00,1.71
9196.00,1.71
9195.00,1.71
9194.00,1.71
9193.00,1.71
9192.00,1.71
9191.00,1.71
9190.00,1.71
9189.00,1.71
9188.00,1.71
9187.00,1.72
9186.00,1.72
9185.00,1.72
9184.00,1.72
9183.00,1.72
9182.00,1.73
9181.00,1.73
9180.00,1.73
9179.00,1.73
9178.00,1.73
9177.00,1.73
9176.00,1.73
9175.00,1.73
9174.00,1.73
9173.00,1.73
9172.00,1.73
9171.00,1.73
9170.00,1.73
9169.00,1.73
9168.00,1.73
9167.00,1.73
9166.00,1.73
9165.00,1.73
9164.00,1.72
9163.00,1.72
9162.00,1.72
9161.00,1.72
9160.00,1.72
9159.00,1.72
9158.00,1.72
9157.00,1.72
9156.00,1.72
9155.00,1.72
9154.00,1.72
9153.00,1.72
9152.00,1.72
9151.00,1.72
9150.00,1.72
9149.00,1.72
9148.00,1.72
9147.00,1.72
9146.00,1.72
9145.00,1.72
9144.00,1.72
9143.00,1.72
9142.00,1.72
9141.00,1.72
9140.00,1.72
9139.00,1.72
9138.00,1.72
9137.00,1.71
9136.00,1.71
9135.00,1.71
9134.00,1.71
9133.00,1.71
9132.00,1.71
9131.00,1.71
9130.00,1.71
9129.00,1.71
9128.00,1.71
9127.00,1.71
9126.00,1.70
9125.00,1.70
9124.00,1.70
9123.00,1.70
9122.00,1.70
9121.00,1.70
9120.00,1.70
9119.00,1.70
9118.00,1.70
9117.00,1.70
9116.00,1.70
9115.00,1.70
9114.00,1.70
9113.00,1.70
9112.00,1.70
9111.00,1.70
9110.00,1.70
9109.00,1.70
9108.00,1.70
9107.00,1.70
9106.00,1.70
9105.00,1.70
9104.00,1.70
9103.00,1.70
9102.00,1.70
9101.00,1.70
9100.00,1.70
9099.00,1.70
9098.00,1.70
9097.00,1.70
9096.00,1.70
9095.00,1.70
9094.00,1.70
9093.00,1.70
9092.00,1.70
9091.00,1.70
9090.00,1.70
9089.00,1.70
9088.00,1.70
9087.00,1.70
9086.00,1.69
9085.00,1.69
9084.00,1.69
9083.00,1.69
9082.00,1.69
9081.00,1.69
9080.00,1.69
9079.00,1.69
9078.00,1.69
9077.00,1.69
9076.00,1.69
9075.00,1.69
9074.00,1.69
9073.00,1.69
9072.00,1.69
9071.00,1.69
9070.00,1.70
9069.00,1.70
9068.00,1.70
9067.00,1.70
9066.00,1.70
9065.00,1.70
9064.00,1.71
9063.00,1.71
9062.00,1.71
9061.00,1.71
9060.00,1.71
9059.00,1.72
9058.00,1.72
9057.00,1.72
9056.00,1.72
9055.00,1.72
9054.00,1.72
9053.00,1.72
9052.00,1.72
9051.00,1.72
9050.00,1.72
9049.00,1.72
9048.00,1.71
9047.00,1.71
9046.00,1.71
9045.00,1.71
9044.00,1.71
9043.00,1.71
9042.00,1.71
9041.00,1.70
9040.00,1.70
9039.00,1.70
9038.00,1.70
9037.00,1.70
9036.00,1.70
9035.00,1.70
9034.00,1.70
9033.00,1.70
9032.00,1.70
9031.00,1.70
9030.00,1.70
9029.00,1.70
9028.00,1.70
9027.00,1.70
9026.00,1.70
9025.00,1.70
9024.00,1.70
9023.00,1.70
9022.00,1.70
9021.00,1.70
9020.00,1.70
9019.00,1.70
9018.00,1.70
9017.00,1.70
9016.00,1.70
9015.00,1.70
9014.00,1.70
9013.00,1.70
9012.00,1.70
9011.00,1.70
9010.00,1.70
9009.00,1.70
9008.00,1.71
9007.00,1.71
9006.00,1.71
9005.00,1.71
9004.00,1.71
9003.00,1.71
9002.00,1.71
9001.00,1.72
9000.00,1.72
8999.00,1.72
8998.00,1.72
8997.00,1.72
8996.00,1.72
8995.00,1.72
8994.00,1.72
8993.00,1.72
8992.00,1.71
8991.00,1.71
8990.00,1.71
8989.00,1.71
8988.00,1.71
8987.00,1.70
8986.00,1.70
8985.00,1.70
8984.00,1.70
8983.00,1.70
8982.00,1.69
8981.00,1.69
8980.00,1.69
8979.00,1.69
8978.00,1.69
8977.00,1.69
8976.00,1.69
8975.00,1.69
8974.00,1.69
8973.00,1.69
8972.00,1.69
8971.00,1.69
8970.00,1.69
8969.00,1.69
8968.00,1.69
8967.00,1.69
8966.00,1.69
8965.00,1.69
8964.00,1.69
8963.00,1.70
8962.00,1.70
8961.00,1.70
8960.00,1.70
8959.00,1.69
8958.00,1.69
8957.00,1.69
8956.00,1.69
8955.00,1.69
8954.00,1.69
8953.00,1.69
8952.00,1.69
8951.00,1.69
8950.00,1.69
8949.00,1.69
8948.00,1.69
8947.00,1.69
8946.00,1.69
8945.00,1.70
8944.00,1.70
8943.00,1.70
8942.00,1.70
8941.00,1.70
8940.00,1.70
8939.00,1.71
8938.00,1.71
8937.00,1.71
8936.00,1.71
8935.00,1.71
8934.00,1.71
8933.00,1.71
8932.00,1.71
8931.00,1.71
8930.00,1.71
8929.00,1.71
8928.00,1.71
8927.00,1.71
8926.00,1.71
8925.00,1.71
8924.00,1.71
8923.00,1.71
8922.00,1.71
8921.00,1.71
8920.00,1.71
8919.00,1.71
8918.00,1.71
8917.00,1.72
8916.00,1.72
8915.00,1.72
8914.00,1.72
8913.00,1.72
8912.00,1.72
8911.00,1.72
8910.00,1.72
8909.00,1.73
8908.00,1.73
8907.00,1.73
8906.00,1.73
8905.00,1.73
8904.00,1.73
8903.00,1.73
8902.00,1.73
8901.00,1.73
8900.00,1.73
8899.00,1.73
8898.00,1.73
8897.00,1.73
8896.00,1.73
8895.00,1.73
8894.00,1.73
8893.00,1.73
8892.00,1.73
8891.00,1.73
8890.00,1.72
8889.00,1.72
8888.00,1.72
8887.00,1.72
8886.00,1.72
8885.00,1.72
8884.00,1.71
8883.00,1.71
8882.00,1.71
8881.00,1.71
8880.00,1.71
8879.00,1.71
8878.00,1.71
8877.00,1.72
8876.00,1.72
8875.00,1.72
8874.00,1.72
8873.00,1.72
8872.00,1.72
8871.00,1.72
8870.00,1.72
8869.00,1.72
8868.00,1.72
8867.00,1.72
8866.00,1.72
8865.00,1.72
8864.00,1.72
8863.00,1.72
8862.00,1.72
8861.00,1.72
8860.00,1.72
8859.00,1.71
8858.00,1.71
8857.00,1.71
8856.00,1.71
8855.00,1.71
8854.00,1.70
8853.00,1.70
8852.00,1.70
8851.00,1.70
8850.00,1.70
8849.00,1.70
8848.00,1.69
8847.00,1.69
8846.00,1.69
8845.00,1.69
8844.00,1.69
8843.00,1.69
8842.00,1.69
8841.00,1.69
8840.00,1.69
8839.00,1.69
8838.00,1.69
8837.00,1.69
8836.00,1.69
8835.00,1.69
8834.00,1.69
8833.00,1.69
8832.00,1.69
8831.00,1.69
8830.00,1.69
8829.00,1.69
8828.00,1.69
8827.00,1.69
8826.00,1.69
8825.00,1.69
8824.00,1.69
8823.00,1.69
8822.00,1.69
8821.00,1.69
8820.00,1.69
8819.00,1.69
8818.00,1.69
8817.00,1.69
8816.00,1.68
8815.00,1.68
8814.00,1.68
8813.00,1.68
8812.00,1.68
8811.00,1.68
8810.00,1.68
8809.00,1.68
8808.00,1.68
8807.00,1.67
8806.00,1.67
8805.00,1.67
8804.00,1.67
8803.00,1.67
8802.00,1.67
8801.00,1.67
8800.00,1.67
8799.00,1.67
8798.00,1.67
8797.00,1.67
8796.00,1.67
8795.00,1.67
8794.00,1.67
8793.00,1.68
8792.00,1.68
8791.00,1.68
8790.00,1.68
8789.00,1.68
8788.00,1.68
8787.00,1.68
8786.00,1.68
8785.00,1.68
8784.00,1.68
8783.00,1.68
8782.00,1.68
8781.00,1.68
8780.00,1.68
8779.00,1.68
8778.00,1.68
8777.00,1.68
8776.00,1.67
8775.00,1.67
8774.00,1.67
8773.00,1.67
8772.00,1.67
8771.00,1.66
8770.00,1.66
8769.00,1.66
8768.00,1.66
8767.00,1.65
8766.00,1.65
8765.00,1.65
8764.00,1.65
8763.00,1.65
8762.00,1.65
8761.00,1.65
8760.00,1.65
8759.00,1.65
8758.00,1.65
8757.00,1.65
8756.00,1.65
8755.00,1.65
8754.00,1.65
8753.00,1.65
8752.00,1.65
8751.00,1.65
8750.00,1.65
8749.00,1.65
8748.00,1.65
8747.00,1.65
8746.00,1.65
8745.00,1.65
8744.00,1.65
8743.00,1.66
8742.00,1.66
8741.00,1.66
8740.00,1.66
8739.00,1.66
8738.00,1.66
8737.00,1.66
8736.00,1.66
8735.00,1.66
8734.00,1.66
8733.00,1.66
8732.00,1.66
8731.00,1.66
8730.00,1.66
8729.00,1.66
8728.00,1.66
8727.00,1.66
8726.00,1.66
8725.00,1.66
8724.00,1.66
8723.00,1.66
8722.00,1.66
8721.00,1.66
8720.00,1.66
8719.00,1.67
8718.00,1.67
8717.00,1.67
8716.00,1.67
8715.00,1.67
8714.00,1.67
8713.00,1.67
8712.00,1.67
8711.00,1.67
8710.00,1.67
8709.00,1.67
8708.00,1.67
8707.00,1.67
8706.00,1.67
8705.00,1.67
8704.00,1.66
8703.00,1.66
8702.00,1.66
8701.00,1.66
8700.00,1.66
8699.00,1.66
8698.00,1.65
8697.00,1.65
8696.00,1.65
8695.00,1.65
8694.00,1.64
8693.00,1.64
8692.00,1.64
8691.00,1.64
8690.00,1.63
8689.00,1.63
8688.00,1.63
8687.00,1.63
8686.00,1.62
8685.00,1.62
8684.00,1.62
8683.00,1.62
8682.00,1.62
8681.00,1.62
8680.00,1.61
8679.00,1.61
8678.00,1.61
8677.00,1.61
8676.00,1.61
8675.00,1.61
8674.00,1.62
8673.00,1.62
8672.00,1.62
8671.00,1.62
8670.00,1.62
8669.00,1.62
8668.00,1.63
8667.00,1.63
8666.00,1.63
8665.00,1.64
8664.00,1.64
8663.00,1.64
8662.00,1.64
8661.00,1.65
8660.00,1.65
8659.00,1.65
8658.00,1.65
8657.00,1.65
8656.00,1.66
8655.00,1.66
8654.00,1.66
8653.00,1.66
8652.00,1.66
8651.00,1.66
8650.00,1.66
8649.00,1.66
8648.00,1.66
8647.00,1.66
8646.00,1.66
8645.00,1.66
8644.00,1.65
8643.00,1.65
8642.00,1.65
8641.00,1.65
8640.00,1.65
8639.00,1.65
8638.00,1.65
8637.00,1.65
8636.00,1.65
8635.00,1.64
8634.00,1.64
8633.00,1.64
8632.00,1.64
8631.00,1.64
8630.00,1.64
8629.00,1.64
8628.00,1.64
8627.00,1.64
8626.00,1.64
8625.00,1.64
8624.00,1.64
8623.00,1.64
8622.00,1.64
8621.00,1.63
8620.00,1.63
8619.00,1.63
8618.00,1.63
8617.00,1.63
8616.00,1.63
8615.00,1.63
8614.00,1.63
8613.00,1.62
8612.00,1.62
8611.00,1.62
8610.00,1.62
8609.00,1.62
8608.00,1.62
8607.00,1.62
8606.00,1.61
8605.00,1.61
8604.00,1.61
8603.00,1.61
8602.00,1.61
8601.00,1.61
8600.00,1.61
8599.00,1.61
8598.00,1.61
8597.00,1.61
8596.00,1.61
8595.00,1.61
8594.00,1.61
8593.00,1.61
8592.00,1.61
8591.00,1.61
8590.00,1.61
8589.00,1.61
8588.00,1.61
8587.00,1.61
8586.00,1.61
8585.00,1.61
8584.00,1.61
8583.00,1.61
8582.00,1.61
8581.00,1.61
8580.00,1.61
8579.00,1.61
8578.00,1.61
8577.00,1.61
8576.00,1.61
8575.00,1.61
8574.00,1.61
8573.00,1.61
8572.00,1.61
8571.00,1.61
8570.00,1.61
8569.00,1.60
8568.00,1.60
8567.00,1.60
8566.00,1.60
8565.00,1.60
8564.00,1.60
8563.00,1.60
8562.00,1.60
8561.00,1.60
8560.00,1.60
8559.00,1.60
8558.00,1.60
8557.00,1.60
8556.00,1.60
8555.00,1.60
8554.00,1.60
8553.00,1.60
8552.00,1.60
8551.00,1.60
8550.00,1.60
8549.00,1.60
8548.00,1.60
8547.00,1.60
8546.00,1.60
8545.00,1.60
8544.00,1.59
8543.00,1.59
8542.00,1.59
8541.00,1.59
8540.00,1.59
8539.00,1.59
8538.00,1.59
8537.00,1.59
8536.00,1.59
8535.00,1.58
8534.00,1.58
8533.00,1.58
8532.00,1.58
8531.00,1.58
8530.00,1.57
8529.00,1.57
8528.00,1.57
8527.00,1.57
8526.00,1.57
8525.00,1.56
8524.00,1.56
8523.00,1.56
8522.00,1.56
8521.00,1.56
8520.00,1.56
8519.00,1.56
8518.00,1.56
8517.00,1.56
8516.00,1.56
8515.00,1.56
8514.00,1.56
8513.00,1.56
8512.00,1.56
8511.00,1.56
8510.00,1.56
8509.00,1.56
8508.00,1.56
8507.00,1.56
8506.00,1.56
8505.00,1.55
8504.00,1.55
8503.00,1.55
8502.00,1.55
8501.00,1.55
8500.00,1.55
8499.00,1.55
8498.00,1.55
8497.00,1.55
8496.00,1.55
8495.00,1.55
8494.00,1.55
8493.00,1.55
8492.00,1.54
8491.00,1.54
8490.00,1.54
8489.00,1.54
8488.00,1.54
8487.00,1.54
8486.00,1.54
8485.00,1.54
8484.00,1.54
8483.00,1.54
8482.00,1.54
8481.00,1.54
8480.00,1.54
8479.00,1.54
8478.00,1.54
8477.00,1.54
8476.00,1.54
8475.00,1.54
8474.00,1.54
8473.00,1.54
8472.00,1.54
8471.00,1.54
8470.00,1.54
8469.00,1.54
8468.00,1.54
8467.00,1.53
8466.00,1.53
8465.00,1.53
8464.00,1.53
8463.00,1.53
8462.00,1.53
8461.00,1.53
8460.00,1.53
8459.00,1.52
8458.00,1.52
8457.00,1.52
8456.00,1.52
8455.00,1.52
8454.00,1.51
8453.00,1.51
8452.00,1.51
8451.00,1.51
8450.00,1.51
8449.00,1.51
8448.00,1.50
8447.00,1.50
8446.00,1.50
8445.00,1.50
8444.00,1.50
8443.00,1.50
8442.00,1.50
8441.00,1.50
8440.00,1.51
8439.00,1.51
8438.00,1.51
8437.00,1.51
8436.00,1.51
8435.00,1.51
8434.00,1.52
8433.00,1.52
8432.00,1.52
8431.00,1.52
8430.00,1.52
8429.00,1.52
8428.00,1.52
8427.00,1.52
8426.00,1.52
8425.00,1.52
8424.00,1.52
8423.00,1.52
8422.00,1.52
8421.00,1.52
8420.00,1.52
8419.00,1.52
8418.00,1.52
8417.00,1.52
8416.00,1.52
8415.00,1.52
8414.00,1.52
8413.00,1.52
8412.00,1.52
8411.00,1.52
8410.00,1.52
8409.00,1.52
8408.00,1.52
8407.00,1.52
8406.00,1.52
8405.00,1.52
8404.00,1.52
8403.00,1.52
8402.00,1.53
8401.00,1.53
8400.00,1.53
8399.00,1.53
8398.00,1.53
8397.00,1.53
8396.00,1.54
8395.00,1.54
8394.00,1.54
8393.00,1.54
8392.00,1.54
8391.00,1.54
8390.00,1.55
8389.00,1.55
8388.00,1.55
8387.00,1.55
8386.00,1.55
8385.00,1.55
8384.00,1.55
8383.00,1.55
8382.00,1.55
8381.00,1.55
8380.00,1.55
8379.00,1.55
8378.00,1.55
8377.00,1.56
8376.00,1.56
8375.00,1.56
8374.00,1.56
8373.00,1.56
8372.00,1.56
8371.00,1.56
8370.00,1.56
8369.00,1.56
8368.00,1.56
8367.00,1.56
8366.00,1.56
8365.00,1.56
8364.00,1.56
8363.00,1.56
8362.00,1.56
8361.00,1.56
8360.00,1.56
8359.00,1.56
8358.00,1.56
8357.00,1.56
8356.00,1.56
8355.00,1.55
8354.00,1.55
8353.00,1.55
8352.00,1.55
8351.00,1.55
8350.00,1.55
8349.00,1.55
8348.00,1.55
8347.00,1.55
8346.00,1.55
8345.00,1.56
8344.00,1.56
8343.00,1.56
8342.00,1.56
8341.00,1.56
8340.00,1.56
8339.00,1.56
8338.00,1.56
8337.00,1.56
8336.00,1.56
8335.00,1.56
8334.00,1.56
8333.00,1.56
8332.00,1.56
8331.00,1.56
8330.00,1.56
8329.00,1.56
8328.00,1.56
8327.00,1.56
8326.00,1.56
8325.00,1.56
8324.00,1.56
8323.00,1.56
8322.00,1.56
8321.00,1.56
8320.00,1.56
8319.00,1.56
8318.00,1.57
8317.00,1.57
8316.00,1.57
8315.00,1.57
8314.00,1.57
8313.00,1.57
8312.00,1.57
8311.00,1.57
8310.00,1.57
8309.00,1.57
8308.00,1.57
8307.00,1.57
8306.00,1.57
8305.00,1.57
8304.00,1.57
8303.00,1.57
8302.00,1.57
8301.00,1.57
8300.00,1.57
8299.00,1.57
8298.00,1.57
8297.00,1.57
8296.00,1.57
8295.00,1.57
8294.00,1.57
8293.00,1.57
8292.00,1.57
8291.00,1.57
8290.00,1.57
8289.00,1.57
8288.00,1.57
8287.00,1.57
8286.00,1.58
8285.00,1.58
8284.00,1.58
8283.00,1.58
8282.00,1.58
8281.00,1.58
8280.00,1.58
8279.00,1.58
8278.00,1.59
8277.00,1.59
8276.00,1.59
8275.00,1.59
8274.00,1.59
8273.00,1.59
8272.00,1.59
8271.00,1.59
8270.00,1.59
8269.00,1.59
8268.00,1.59
8267.00,1.58
8266.00,1.58
8265.00,1.58
8264.00,1.58
8263.00,1.58
8262.00,1.58
8261.00,1.58
8260.00,1.58
8259.00,1.58
8258.00,1.58
8257.00,1.58
8256.00,1.58
8255.00,1.58
8254.00,1.58
8253.00,1.58
8252.00,1.58
8251.00,1.59
8250.00,1.59
8249.00,1.59
8248.00,1.59
8247.00,1.59
8246.00,1.60
8245.00,1.60
8244.00,1.60
8243.00,1.60
8242.00,1.60
8241.00,1.60
8240.00,1.61
8239.00,1.61
8238.00,1.61
8237.00,1.61
8236.00,1.61
8235.00,1.61
8234.00,1.61
8233.00,1.61
8232.00,1.60
8231.00,1.60
8230.00,1.60
8229.00,1.60
8228.00,1.60
8227.00,1.60
8226.00,1.59
8225.00,1.59
8224.00,1.59
8223.00,1.59
8222.00,1.59
8221.00,1.59
8220.00,1.59
8219.00,1.59
8218.00,1.59
8217.00,1.59
8216.00,1.60
8215.00,1.60
8214.00,1.60
8213.00,1.60
8212.00,1.60
8211.00,1.60
8210.00,1.61
8209.00,1.61
8208.00,1.61
8207.00,1.61
8206.00,1.61
8205.00,1.61
8204.00,1.61
8203.00,1.61
8202.00,1.61
8201.00,1.61
8200.00,1.61
8199.00,1.61
8198.00,1.61
8197.00,1.61
8196.00,1.61
8195.00,1.61
8194.00,1.61
8193.00,1.61
8192.00,1.61
8191.00,1.62
8190.00,1.62
8189.00,1.62
8188.00,1.62
8187.00,1.62
8186.00,1.62
8185.00,1.62
8184.00,1.62
8183.00,1.62
8182.00,1.62
8181.00,1.62
8180.00,1.62
8179.00,1.62
8178.00,1.62
8177.00,1.62
8176.00,1.62
8175.00,1.63
8174.00,1.63
8173.00,1.63
8172.00,1.63
8171.00,1.63
8170.00,1.63
8169.00,1.63
8168.00,1.63
8167.00,1.64
8166.00,1.64
8165.00,1.64
8164.00,1.64
8163.00,1.64
8162.00,1.64
8161.00,1.64
8160.00,1.64
8159.00,1.65
8158.00,1.65
8157.00,1.65
8156.00,1.65
8155.00,1.65
8154.00,1.65
8153.00,1.65
8152.00,1.65
8151.00,1.65
8150.00,1.64
8149.00,1.64
8148.00,1.64
8147.00,1.64
8146.00,1.64
8145.00,1.64
8144.00,1.64
8143.00,1.64
8142.00,1.64
8141.00,1.64
8140.00,1.64
8139.00,1.64
8138.00,1.64
8137.00,1.64
8136.00,1.64
8135.00,1.64
8134.00,1.64
8133.00,1.64
8132.00,1.64
8131.00,1.64
8130.00,1.64
8129.00,1.64
8128.00,1.64
8127.00,1.64
8126.00,1.64
8125.00,1.64
8124.00,1.64
8123.00,1.64
8122.00,1.64
8121.00,1.64
8120.00,1.64
8119.00,1.64
8118.00,1.65
8117.00,1.65
8116.00,1.65
8115.00,1.65
8114.00,1.65
8113.00,1.65
8112.00,1.65
8111.00,1.65
8110.00,1.66
8109.00,1.66
8108.00,1.66
8107.00,1.66
8106.00,1.66
8105.00,1.66
8104.00,1.66
8103.00,1.66
8102.00,1.66
8101.00,1.66
8100.00,1.66
8099.00,1.66
8098.00,1.66
8097.00,1.66
8096.00,1.66
8095.00,1.66
8094.00,1.66
8093.00,1.66
8092.00,1.66
8091.00,1.66
8090.00,1.66
8089.00,1.66
8088.00,1.66
8087.00,1.67
8086.00,1.67
8085.00,1.67
8084.00,1.67
8083.00,1.67
8082.00,1.67
8081.00,1.67
8080.00,1.68
8079.00,1.68
8078.00,1.68
8077.00,1.68
8076.00,1.68
8075.00,1.68
8074.00,1.68
8073.00,1.68
8072.00,1.68
8071.00,1.68
8070.00,1.68
8069.00,1.68
8068.00,1.68
8067.00,1.68
8066.00,1.68
8065.00,1.68
8064.00,1.68
8063.00,1.67
8062.00,1.67
8061.00,1.67
8060.00,1.67
8059.00,1.67
8058.00,1.67
8057.00,1.67
8056.00,1.68
8055.00,1.68
8054.00,1.68
8053.00,1.68
8052.00,1.68
8051.00,1.68
8050.00,1.68
8049.00,1.68
8048.00,1.69
8047.00,1.69
8046.00,1.69
8045.00,1.69
8044.00,1.69
8043.00,1.69
8042.00,1.69
8041.00,1.69
8040.00,1.69
8039.00,1.69
8038.00,1.68
8037.00,1.68
8036.00,1.68
8035.00,1.68
8034.00,1.68
8033.00,1.68
8032.00,1.68
8031.00,1.68
8030.00,1.68
8029.00,1.67
8028.00,1.67
8027.00,1.67
8026.00,1.67
8025.00,1.67
8024.00,1.67
8023.00,1.67
8022.00,1.67
8021.00,1.67
8020.00,1.67
8019.00,1.67
8018.00,1.67
8017.00,1.67
8016.00,1.67
8015.00,1.67
8014.00,1.67
8013.00,1.67
8012.00,1.67
8011.00,1.67
8010.00,1.67
8009.00,1.67
8008.00,1.67
8007.00,1.67
8006.00,1.67
8005.00,1.67
8004.00,1.67
8003.00,1.67
8002.00,1.67
8001.00,1.67
8000.00,1.67
7999.00,1.67
7998.00,1.67
7997.00,1.67
7996.00,1.67
7995.00,1.67
7994.00,1.67
7993.00,1.67
7992.00,1.67
7991.00,1.68
7990.00,1.68
7989.00,1.68
7988.00,1.68
7987.00,1.68
7986.00,1.68
7985.00,1.68
7984.00,1.68
7983.00,1.69
7982.00,1.69
7981.00,1.69
7980.00,1.69
7979.00,1.69
7978.00,1.69
7977.00,1.69
7976.00,1.69
7975.00,1.70
7974.00,1.70
7973.00,1.70
7972.00,1.70
7971.00,1.70
7970.00,1.70
7969.00,1.70
7968.00,1.70
7967.00,1.70
7966.00,1.69
7965.00,1.69
7964.00,1.69
7963.00,1.69
7962.00,1.69
7961.00,1.69
7960.00,1.69
7959.00,1.69
7958.00,1.68
7957.00,1.68
7956.00,1.68
7955.00,1.68
7954.00,1.68
7953.00,1.68
7952.00,1.68
7951.00,1.68
7950.00,1.68
7949.00,1.68
7948.00,1.68
7947.00,1.68
7946.00,1.68
7945.00,1.69
7944.00,1.69
7943.00,1.69
7942.00,1.69
7941.00,1.69
7940.00,1.69
7939.00,1.69
7938.00,1.69
7937.00,1.69
7936.00,1.69
7935.00,1.69
7934.00,1.69
7933.00,1.69
7932.00,1.69
7931.00,1.69
7930.00,1.69
7929.00,1.69
7928.00,1.69
7927.00,1.69
7926.00,1.69
7925.00,1.69
7924.00,1.69
7923.00,1.69
7922.00,1.69
7921.00,1.69
7920.00,1.70
7919.00,1.70
7918.00,1.70
7917.00,1.70
7916.00,1.70
7915.00,1.70
7914.00,1.70
7913.00,1.70
7912.00,1.70
7911.00,1.70
7910.00,1.70
7909.00,1.70
7908.00,1.70
7907.00,1.70
7906.00,1.70
7905.00,1.70
7904.00,1.70
7903.00,1.70
7902.00,1.70
7901.00,1.70
7900.00,1.70
7899.00,1.70
7898.00,1.70
7897.00,1.70
7896.00,1.70
7895.00,1.70
7894.00,1.70
7893.00,1.70
7892.00,1.70
7891.00,1.70
7890.00,1.70
7889.00,1.70
7888.00,1.70
7887.00,1.70
7886.00,1.70
7885.00,1.70
7884.00,1.70
7883.00,1.70
7882.00,1.70
7881.00,1.70
7880.00,1.71
7879.00,1.71
7878.00,1.71
7877.00,1.71
7876.00,1.71
7875.00,1.71
7874.00,1.72
7873.00,1.72
7872.00,1.72
7871.00,1.72
7870.00,1.72
7869.00,1.72
7868.00,1.72
7867.00,1.72
7866.00,1.72
7865.00,1.72
7864.00,1.72
7863.00,1.72
7862.00,1.72
7861.00,1.72
7860.00,1.72
7859.00,1.72
7858.00,1.72
7857.00,1.72
7856.00,1.72
7855.00,1.72
7854.00,1.72
7853.00,1.72
7852.00,1.72
7851.00,1.72
7850.00,1.72
7849.00,1.72
7848.00,1.72
7847.00,1.72
7846.00,1.72
7845.00,1.72
7844.00,1.72
7843.00,1.72
7842.00,1.71
7841.00,1.71
7840.00,1.71
7839.00,1.71
7838.00,1.71
7837.00,1.71
7836.00,1.71
7835.00,1.71
7834.00,1.71
7833.00,1.71
7832.00,1.71
7831.00,1.71
7830.00,1.71
7829.00,1.71
7828.00,1.71
7827.00,1.71
7826.00,1.71
7825.00,1.71
7824.00,1.71
7823.00,1.71
7822.00,1.71
7821.00,1.71
7820.00,1.71
7819.00,1.71
7818.00,1.71
7817.00,1.71
7816.00,1.71
7815.00,1.71
7814.00,1.71
7813.00,1.71
7812.00,1.71
7811.00,1.71
7810.00,1.71
7809.00,1.71
7808.00,1.71
7807.00,1.71
7806.00,1.71
7805.00,1.71
7804.00,1.71
7803.00,1.71
7802.00,1.71
7801.00,1.71
7800.00,1.72
7799.00,1.72
7798.00,1.72
7797.00,1.72
7796.00,1.72
7795.00,1.72
7794.00,1.72
7793.00,1.72
7792.00,1.72
7791.00,1.72
7790.00,1.72
7789.00,1.72
7788.00,1.72
7787.00,1.72
7786.00,1.72
7785.00,1.72
7784.00,1.72
7783.00,1.72
7782.00,1.72
7781.00,1.72
7780.00,1.72
7779.00,1.72
7778.00,1.72
7777.00,1.72
7776.00,1.72
7775.00,1.72
7774.00,1.72
7773.00,1.72
7772.00,1.72
7771.00,1.72
7770.00,1.72
7769.00,1.73
7768.00,1.73
7767.00,1.73
7766.00,1.73
7765.00,1.73
7764.00,1.73
7763.00,1.73
7762.00,1.73
7761.00,1.73
7760.00,1.73
7759.00,1.73
7758.00,1.73
7757.00,1.73
7756.00,1.73
7755.00,1.73
7754.00,1.73
7753.00,1.73
7752.00,1.73
7751.00,1.73
7750.00,1.73
7749.00,1.73
7748.00,1.73
7747.00,1.73
7746.00,1.73
7745.00,1.73
7744.00,1.73
7743.00,1.73
7742.00,1.73
7741.00,1.73
7740.00,1.73
7739.00,1.73
7738.00,1.73
7737.00,1.73
7736.00,1.73
7735.00,1.73
7734.00,1.73
7733.00,1.73
7732.00,1.73
7731.00,1.73
7730.00,1.73
7729.00,1.73
7728.00,1.72
7727.00,1.72
7726.00,1.72
7725.00,1.72
7724.00,1.72
7723.00,1.72
7722.00,1.72
7721.00,1.72
7720.00,1.72
7719.00,1.72
7718.00,1.72
7717.00,1.72
7716.00,1.72
7715.00,1.72
7714.00,1.72
7713.00,1.72
7712.00,1.72
7711.00,1.72
7710.00,1.72
7709.00,1.72
7708.00,1.72
7707.00,1.72
7706.00,1.72
7705.00,1.72
7704.00,1.73
7703.00,1.73
7702.00,1.73
7701.00,1.73
7700.00,1.73
7699.00,1.73
7698.00,1.73
7697.00,1.73
7696.00,1.73
7695.00,1.73
7694.00,1.73
7693.00,1.73
7692.00,1.73
7691.00,1.73
7690.00,1.73
7689.00,1.73
7688.00,1.73
7687.00,1.73
7686.00,1.73
7685.00,1.73
7684.00,1.73
7683.00,1.73
7682.00,1.73
7681.00,1.73
7680.00,1.73
7679.00,1.73
7678.00,1.73
7677.00,1.73
7676.00,1.73
7675.00,1.73
7674.00,1.73
7673.00,1.73
7672.00,1.73
7671.00,1.73
7670.00,1.73
7669.00,1.73
7668.00,1.73
7667.00,1.73
7666.00,1.73
7665.00,1.73
7664.00,1.74
7663.00,1.74
7662.00,1.74
7661.00,1.74
7660.00,1.74
7659.00,1.74
7658.00,1.74
7657.00,1.74
7656.00,1.74
7655.00,1.74
7654.00,1.74
7653.00,1.73
7652.00,1.73
7651.00,1.73
7650.00,1.73
7649.00,1.73
7648.00,1.73
7647.00,1.73
7646.00,1.73
7645.00,1.73
7644.00,1.73
7643.00,1.73
7642.00,1.73
7641.00,1.73
7640.00,1.73
7639.00,1.73
7638.00,1.73
7637.00,1.73
7636.00,1.73
7635.00,1.73
7634.00,1.73
7633.00,1.73
7632.00,1.73
7631.00,1.73
7630.00,1.73
7629.00,1.73
7628.00,1.73
7627.00,1.73
7626.00,1.73
7625.00,1.73
7624.00,1.73
7623.00,1.73
7622.00,1.73
7621.00,1.73
7620.00,1.73
7619.00,1.73
7618.00,1.73
7617.00,1.73
7616.00,1.73
7615.00,1.73
7614.00,1.73
7613.00,1.73
7612.00,1.73
7611.00,1.73
7610.00,1.73
7609.00,1.73
7608.00,1.73
7607.00,1.73
7606.00,1.73
7605.00,1.73
7604.00,1.73
7603.00,1.73
7602.00,1.74
7601.00,1.74
7600.00,1.74
7599.00,1.74
7598.00,1.74
7597.00,1.74
7596.00,1.74
7595.00,1.74
7594.00,1.74
7593.00,1.74
7592.00,1.74
7591.00,1.73
7590.00,1.73
7589.00,1.73
7588.00,1.73
7587.00,1.73
7586.00,1.73
7585.00,1.73
7584.00,1.73
7583.00,1.73
7582.00,1.72
7581.00,1.72
7580.00,1.72
7579.00,1.72
7578.00,1.72
7577.00,1.72
7576.00,1.72
7575.00,1.72
7574.00,1.72
7573.00,1.72
7572.00,1.72
7571.00,1.71
7570.00,1.71
7569.00,1.71
7568.00,1.71
7567.00,1.71
7566.00,1.71
7565.00,1.71
7564.00,1.72
7563.00,1.72
7562.00,1.72
7561.00,1.72
7560.00,1.72
7559.00,1.72
7558.00,1.72
7557.00,1.72
7556.00,1.71
7555.00,1.71
7554.00,1.71
7553.00,1.71
7552.00,1.71
7551.00,1.71
7550.00,1.71
7549.00,1.71
7548.00,1.71
7547.00,1.71
7546.00,1.71
7545.00,1.71
7544.00,1.71
7543.00,1.71
7542.00,1.71
7541.00,1.71
7540.00,1.72
7539.00,1.72
7538.00,1.72
7537.00,1.72
7536.00,1.72
7535.00,1.72
7534.00,1.72
7533.00,1.72
7532.00,1.72
7531.00,1.72
7530.00,1.72
7529.00,1.72
7528.00,1.72
7527.00,1.71
7526.00,1.71
7525.00,1.71
7524.00,1.71
7523.00,1.71
7522.00,1.71
7521.00,1.71
7520.00,1.71
7519.00,1.71
7518.00,1.71
7517.00,1.71
7516.00,1.71
7515.00,1.71
7514.00,1.71
7513.00,1.71
7512.00,1.71
7511.00,1.71
7510.00,1.71
7509.00,1.71
7508.00,1.71
7507.00,1.71
7506.00,1.71
7505.00,1.71
7504.00,1.70
7503.00,1.70
7502.00,1.70
7501.00,1.70
7500.00,1.70
7499.00,1.70
7498.00,1.70
7497.00,1.70
7496.00,1.70
7495.00,1.70
7494.00,1.69
7493.00,1.69
7492.00,1.69
7491.00,1.69
7490.00,1.69
7489.00,1.69
7488.00,1.69
7487.00,1.69
7486.00,1.69
7485.00,1.69
7484.00,1.69
7483.00,1.69
7482.00,1.69
7481.00,1.69
7480.00,1.69
7479.00,1.69
7478.00,1.69
7477.00,1.69
7476.00,1.69
7475.00,1.69
7474.00,1.69
7473.00,1.69
7472.00,1.69
7471.00,1.69
7470.00,1.69
7469.00,1.69
7468.00,1.69
7467.00,1.68
7466.00,1.68
7465.00,1.68
7464.00,1.68
7463.00,1.68
7462.00,1.68
7461.00,1.68
7460.00,1.68
7459.00,1.68
7458.00,1.68
7457.00,1.68
7456.00,1.68
7455.00,1.68
7454.00,1.68
7453.00,1.68
7452.00,1.67
7451.00,1.67
7450.00,1.67
7449.00,1.67
7448.00,1.67
7447.00,1.67
7446.00,1.67
7445.00,1.67
7444.00,1.67
7443.00,1.66
7442.00,1.66
7441.00,1.66
7440.00,1.66
7439.00,1.66
7438.00,1.66
7437.00,1.66
7436.00,1.66
7435.00,1.66
7434.00,1.66
7433.00,1.65
7432.00,1.65
7431.00,1.65
7430.00,1.65
7429.00,1.65
7428.00,1.65
7427.00,1.65
7426.00,1.65
7425.00,1.65
7424.00,1.64
7423.00,1.64
7422.00,1.64
7421.00,1.64
7420.00,1.64
7419.00,1.64
7418.00,1.64
7417.00,1.64
7416.00,1.64
7415.00,1.64
7414.00,1.64
7413.00,1.64
7412.00,1.64
7411.00,1.64
7410.00,1.64
7409.00,1.64
7408.00,1.64
7407.00,1.64
7406.00,1.63
7405.00,1.63
7404.00,1.63
7403.00,1.63
7402.00,1.63
7401.00,1.62
7400.00,1.62
7399.00,1.62
7398.00,1.62
7397.00,1.62
7396.00,1.61
7395.00,1.61
7394.00,1.61
7393.00,1.61
7392.00,1.61
7391.00,1.60
7390.00,1.60
7389.00,1.60
7388.00,1.60
7387.00,1.60
7386.00,1.59
7385.00,1.59
7384.00,1.59
7383.00,1.59
7382.00,1.59
7381.00,1.59
7380.00,1.59
7379.00,1.58
7378.00,1.58
7377.00,1.58
7376.00,1.58
7375.00,1.58
7374.00,1.58
7373.00,1.58
7372.00,1.58
7371.00,1.58
7370.00,1.58
7369.00,1.58
7368.00,1.58
7367.00,1.58
7366.00,1.58
7365.00,1.58
7364.00,1.58
7363.00,1.58
7362.00,1.58
7361.00,1.58
7360.00,1.58
7359.00,1.58
7358.00,1.58
7357.00,1.58
7356.00,1.58
7355.00,1.58
7354.00,1.58
7353.00,1.58
7352.00,1.58
7351.00,1.58
7350.00,1.58
7349.00,1.58
7348.00,1.57
7347.00,1.57
7346.00,1.57
7345.00,1.57
7344.00,1.57
7343.00,1.57
7342.00,1.57
7341.00,1.57
7340.00,1.57
7339.00,1.57
7338.00,1.57
7337.00,1.57
7336.00,1.57
7335.00,1.57
7334.00,1.57
7333.00,1.57
7332.00,1.57
7331.00,1.57
7330.00,1.57
7329.00,1.57
7328.00,1.57
7327.00,1.57
7326.00,1.57
7325.00,1.57
7324.00,1.57
7323.00,1.57
7322.00,1.57
7321.00,1.57
7320.00,1.57
7319.00,1.57
7318.00,1.57
7317.00,1.57
7316.00,1.57
7315.00,1.57
7314.00,1.57
7313.00,1.56
7312.00,1.56
7311.00,1.56
7310.00,1.56
7309.00,1.56
7308.00,1.56
7307.00,1.56
7306.00,1.55
7305.00,1.55
7304.00,1.55
7303.00,1.55
7302.00,1.55
7301.00,1.54
7300.00,1.54
7299.00,1.54
7298.00,1.54
7297.00,1.54
7296.00,1.54
7295.00,1.54
7294.00,1.54
7293.00,1.53
7292.00,1.53
7291.00,1.53
7290.00,1.53
7289.00,1.53
7288.00,1.53
7287.00,1.53
7286.00,1.53
7285.00,1.53
7284.00,1.53
7283.00,1.53
7282.00,1.53
7281.00,1.53
7280.00,1.53
7279.00,1.53
7278.00,1.52
7277.00,1.52
7276.00,1.52
7275.00,1.52
7274.00,1.52
7273.00,1.51
7272.00,1.51
7271.00,1.51
7270.00,1.51
7269.00,1.51
7268.00,1.50
7267.00,1.50
7266.00,1.50
7265.00,1.50
7264.00,1.50
7263.00,1.50
7262.00,1.49
7261.00,1.49
7260.00,1.49
7259.00,1.49
7258.00,1.49
7257.00,1.49
7256.00,1.49
7255.00,1.49
7254.00,1.49
7253.00,1.49
7252.00,1.49
7251.00,1.49
7250.00,1.49
7249.00,1.48
7248.00,1.48
7247.00,1.48
7246.00,1.48
7245.00,1.47
7244.00,1.47
7243.00,1.46
7242.00,1.46
7241.00,1.46
7240.00,1.45
7239.00,1.45
7238.00,1.44
7237.00,1.44
7236.00,1.43
7235.00,1.43
7234.00,1.42
7233.00,1.42
7232.00,1.41
7231.00,1.41
7230.00,1.41
7229.00,1.40
7228.00,1.40
7227.00,1.39
7226.00,1.39
7225.00,1.39
7224.00,1.38
7223.00,1.38
7222.00,1.38
7221.00,1.37
7220.00,1.37
7219.00,1.37
7218.00,1.36
7217.00,1.36
7216.00,1.35
7215.00,1.35
7214.00,1.35
7213.00,1.34
7212.00,1.34
7211.00,1.33
7210.00,1.33
7209.00,1.33
7208.00,1.32
7207.00,1.32
7206.00,1.32
7205.00,1.31
7204.00,1.31
7203.00,1.30
7202.00,1.30
7201.00,1.30
7200.00,1.30
7199.00,1.29
7198.00,1.29
7197.00,1.29
7196.00,1.28
7195.00,1.28
7194.00,1.28
7193.00,1.28
7192.00,1.27
7191.00,1.27
7190.00,1.27
7189.00,1.26
7188.00,1.26
7187.00,1.26
7186.00,1.25
7185.00,1.25
7184.00,1.25
7183.00,1.24
7182.00,1.24
7181.00,1.24
7180.00,1.23
7179.00,1.23
7178.00,1.23
7177.00,1.22
7176.00,1.22
7175.00,1.21
7174.00,1.21
7173.00,1.21
7172.00,1.20
7171.00,1.20
7170.00,1.20
7169.00,1.19
7168.00,1.19
7167.00,1.19
7166.00,1.18
7165.00,1.18
7164.00,1.18
7163.00,1.17
7162.00,1.17
7161.00,1.17
7160.00,1.17
7159.00,1.16
7158.00,1.16
7157.00,1.16
7156.00,1.16
7155.00,1.15
7154.00,1.15
7153.00,1.15
7152.00,1.15
7151.00,1.14
7150.00,1.14
7149.00,1.14
7148.00,1.14
7147.00,1.13
7146.00,1.13
7145.00,1.13
7144.00,1.12
7143.00,1.12
7142.00,1.12
7141.00,1.12
7140.00,1.11
7139.00,1.11
7138.00,1.11
7137.00,1.10
7136.00,1.10
7135.00,1.10
7134.00,1.10
7133.00,1.09
7132.00,1.09
7131.00,1.09
7130.00,1.08
7129.00,1.08
7128.00,1.08
7127.00,1.08
7126.00,1.07
7125.00,1.07
7124.00,1.07
7123.00,1.06
7122.00,1.06
7121.00,1.06
7120.00,1.05
7119.00,1.05
7118.00,1.05
7117.00,1.04
7116.00,1.04
7115.00,1.03
7114.00,1.03
7113.00,1.03
7112.00,1.02
7111.00,1.02
7110.00,1.02
7109.00,1.01
7108.00,1.01
7107.00,1.01
7106.00,1.00
7105.00,1.00
7104.00,1.00
7103.00,1.00
7102.00,1.00
7101.00,0.99
7100.00,0.99
7099.00,0.99
7098.00,0.99
7097.00,0.99
7096.00,0.99
7095.00,0.99
7094.00,0.98
7093.00,0.98
7092.00,0.98
7091.00,0.98
7090.00,0.98
7089.00,0.98
7088.00,0.97
7087.00,0.97
7086.00,0.97
7085.00,0.97
7084.00,0.97
7083.00,0.96
7082.00,0.96
7081.00,0.96
7080.00,0.96
7079.00,0.95
7078.00,0.95
7077.00,0.95
7076.00,0.95
7075.00,0.94
7074.00,0.94
7073.00,0.94
7072.00,0.94
7071.00,0.93
7070.00,0.93
7069.00,0.93
7068.00,0.93
7067.00,0.93
7066.00,0.93
7065.00,0.93
7064.00,0.92
7063.00,0.92
7062.00,0.92
7061.00,0.92
7060.00,0.92
7059.00,0.92
7058.00,0.92
7057.00,0.92
7056.00,0.92
7055.00,0.92
7054.00,0.91
7053.00,0.91
7052.00,0.91
7051.00,0.91
7050.00,0.91
7049.00,0.91
7048.00,0.91
7047.00,0.90
7046.00,0.90
7045.00,0.90
7044.00,0.90
7043.00,0.90
7042.00,0.90
7041.00,0.90
7040.00,0.90
7039.00,0.90
7038.00,0.89
7037.00,0.89
7036.00,0.89
7035.00,0.89
7034.00,0.89
7033.00,0.89
7032.00,0.89
7031.00,0.89
7030.00,0.89
7029.00,0.89
7028.00,0.89
7027.00,0.89
7026.00,0.89
7025.00,0.88
7024.00,0.88
7023.00,0.88
7022.00,0.88
7021.00,0.88
7020.00,0.88
7019.00,0.88
7018.00,0.88
7017.00,0.87
7016.00,0.87
7015.00,0.87
7014.00,0.87
7013.00,0.87
7012.00,0.87
7011.00,0.87
7010.00,0.87
7009.00,0.87
7008.00,0.86
7007.00,0.86
7006.00,0.86
7005.00,0.86
7004.00,0.86
7003.00,0.86
7002.00,0.86
7001.00,0.86
7000.00,0.85
6999.00,0.85
6998.00,0.85
6997.00,0.85
6996.00,0.85
6995.00,0.85
6994.00,0.85
6993.00,0.85
6992.00,0.85
6991.00,0.85
6990.00,0.85
6989.00,0.84
6988.00,0.84
6987.00,0.84
6986.00,0.84
6985.00,0.84
6984.00,0.84
6983.00,0.84
6982.00,0.84
6981.00,0.84
6980.00,0.84
6979.00,0.84
6978.00,0.84
6977.00,0.84
6976.00,0.84
6975.00,0.84
6974.00,0.84
6973.00,0.84
6972.00,0.84
6971.00,0.84
6970.00,0.84
6969.00,0.84
6968.00,0.83
6967.00,0.83
6966.00,0.83
6965.00,0.83
6964.00,0.83
6963.00,0.83
6962.00,0.83
6961.00,0.83
6960.00,0.83
6959.00,0.83
6958.00,0.83
6957.00,0.83
6956.00,0.83
6955.00,0.83
6954.00,0.83
6953.00,0.83
6952.00,0.83
6951.00,0.83
6950.00,0.83
6949.00,0.83
6948.00,0.83
6947.00,0.83
6946.00,0.83
6945.00,0.82
6944.00,0.82
6943.00,0.82
6942.00,0.82
6941.00,0.82
6940.00,0.82
6939.00,0.82
6938.00,0.82
6937.00,0.82
6936.00,0.82
6935.00,0.82
6934.00,0.82
6933.00,0.82
6932.00,0.82
6931.00,0.82
6930.00,0.82
6929.00,0.82
6928.00,0.82
6927.00,0.82
6926.00,0.82
6925.00,0.82
6924.00,0.82
6923.00,0.82
6922.00,0.82
6921.00,0.82
6920.00,0.82
6919.00,0.82
6918.00,0.82
6917.00,0.82
6916.00,0.82
6915.00,0.82
6914.00,0.82
6913.00,0.82
6912.00,0.82
6911.00,0.82
6910.00,0.82
6909.00,0.82
6908.00,0.82
6907.00,0.82
6906.00,0.82
6905.00,0.82
6904.00,0.82
6903.00,0.81
6902.00,0.81
6901.00,0.81
6900.00,0.81
6899.00,0.81
6898.00,0.81
6897.00,0.81
6896.00,0.81
6895.00,0.81
6894.00,0.81
6893.00,0.81
6892.00,0.81
6891.00,0.81
6890.00,0.81
6889.00,0.81
6888.00,0.81
6887.00,0.81
6886.00,0.81
6885.00,0.81
6884.00,0.81
6883.00,0.81
6882.00,0.81
6881.00,0.81
6880.00,0.81
6879.00,0.81
6878.00,0.81
6877.00,0.81
6876.00,0.81
6875.00,0.81
6874.00,0.81
6873.00,0.81
6872.00,0.81
6871.00,0.81
6870.00,0.81
6869.00,0.80
6868.00,0.80
6867.00,0.80
6866.00,0.80
6865.00,0.80
6864.00,0.80
6863.00,0.80
6862.00,0.80
6861.00,0.80
6860.00,0.80
6859.00,0.80
6858.00,0.80
6857.00,0.80
6856.00,0.80
6855.00,0.80
6854.00,0.80
6853.00,0.80
6852.00,0.80
6851.00,0.81
6850.00,0.81
6849.00,0.81
6848.00,0.81
6847.00,0.81
6846.00,0.81
6845.00,0.81
6844.00,0.81
6843.00,0.81
6842.00,0.81
6841.00,0.81
6840.00,0.81
6839.00,0.82
6838.00,0.82
6837.00,0.82
6836.00,0.82
6835.00,0.82
6834.00,0.82
6833.00,0.82
6832.00,0.82
6831.00,0.82
6830.00,0.83
6829.00,0.83
6828.00,0.83
6827.00,0.83
6826.00,0.83
6825.00,0.83
6824.00,0.83
6823.00,0.83
6822.00,0.83
6821.00,0.83
6820.00,0.83
6819.00,0.83
6818.00,0.83
6817.00,0.83
6816.00,0.83
6815.00,0.82
6814.00,0.82
6813.00,0.82
6812.00,0.82
6811.00,0.82
6810.00,0.82
6809.00,0.82
6808.00,0.82
6807.00,0.82
6806.00,0.82
6805.00,0.82
6804.00,0.83
6803.00,0.83
6802.00,0.83
6801.00,0.83
6800.00,0.83
6799.00,0.83
6798.00,0.83
6797.00,0.83
6796.00,0.83
6795.00,0.83
6794.00,0.84
6793.00,0.84
6792.00,0.84
6791.00,0.84
6790.00,0.84
6789.00,0.84
6788.00,0.84
6787.00,0.84
6786.00,0.84
6785.00,0.84
6784.00,0.84
6783.00,0.84
6782.00,0.84
6781.00,0.84
6780.00,0.84
6779.00,0.84
6778.00,0.84
6777.00,0.84
6776.00,0.84
6775.00,0.84
6774.00,0.84
6773.00,0.84
6772.00,0.84
6771.00,0.84
6770.00,0.84
6769.00,0.84
6768.00,0.84
6767.00,0.84
6766.00,0.84
6765.00,0.85
6764.00,0.85
6763.00,0.85
6762.00,0.85
6761.00,0.85
6760.00,0.85
6759.00,0.85
6758.00,0.85
6757.00,0.85
6756.00,0.86
6755.00,0.86
6754.00,0.86
6753.00,0.86
6752.00,0.86
6751.00,0.86
6750.00,0.86
6749.00,0.86
6748.00,0.86
6747.00,0.86
6746.00,0.86
6745.00,0.86
6744.00,0.86
6743.00,0.86
6742.00,0.86
6741.00,0.86
6740.00,0.86
6739.00,0.86
6738.00,0.86
6737.00,0.86
6736.00,0.86
6735.00,0.86
6734.00,0.87
6733.00,0.87
6732.00,0.87
6731.00,0.87
6730.00,0.87
6729.00,0.87
6728.00,0.88
6727.00,0.88
6726.00,0.88
6725.00,0.88
6724.00,0.88
6723.00,0.88
6722.00,0.88
6721.00,0.88
6720.00,0.89
6719.00,0.89
6718.00,0.89
6717.00,0.89
6716.00,0.89
6715.00,0.89
6714.00,0.89
6713.00,0.89
6712.00,0.89
6711.00,0.89
6710.00,0.89
6709.00,0.89
6708.00,0.89
6707.00,0.89
6706.00,0.89
6705.00,0.89
6704.00,0.89
6703.00,0.90
6702.00,0.90
6701.00,0.90
6700.00,0.90
6699.00,0.90
6698.00,0.90
6697.00,0.90
6696.00,0.90
6695.00,0.91
6694.00,0.91
6693.00,0.91
6692.00,0.91
6691.00,0.91
6690.00,0.91
6689.00,0.92
6688.00,0.92
6687.00,0.92
6686.00,0.92
6685.00,0.92
6684.00,0.92
6683.00,0.92
6682.00,0.92
6681.00,0.92
6680.00,0.93
6679.00,0.93
6678.00,0.93
6677.00,0.93
6676.00,0.93
6675.00,0.93
6674.00,0.93
6673.00,0.93
6672.00,0.93
6671.00,0.94
6670.00,0.94
6669.00,0.94
6668.00,0.94
6667.00,0.94
6666.00,0.94
6665.00,0.94
6664.00,0.94
6663.00,0.94
6662.00,0.95
6661.00,0.95
6660.00,0.95
6659.00,0.95
6658.00,0.95
6657.00,0.95
6656.00,0.95
6655.00,0.95
6654.00,0.95
6653.00,0.95
6652.00,0.95
6651.00,0.96
6650.00,0.96
6649.00,0.96
6648.00,0.96
6647.00,0.96
6646.00,0.96
6645.00,0.96
6644.00,0.97
6643.00,0.97
6642.00,0.97
6641.00,0.97
6640.00,0.97
6639.00,0.97
6638.00,0.97
6637.00,0.97
6636.00,0.97
6635.00,0.98
6634.00,0.98
6633.00,0.98
6632.00,0.98
6631.00,0.98
6630.00,0.98
6629.00,0.98
6628.00,0.98
6627.00,0.98
6626.00,0.98
6625.00,0.98
6624.00,0.98
6623.00,0.98
6622.00,0.98
6621.00,0.99
6620.00,0.99
6619.00,0.99
6618.00,0.99
6617.00,0.99
6616.00,0.99
6615.00,0.99
6614.00,0.99
6613.00,0.99
6612.00,0.99
6611.00,0.99
6610.00,1.00
6609.00,1.00
6608.00,1.00
6607.00,1.00
6606.00,1.00
6605.00,1.00
6604.00,1.00
6603.00,1.00
6602.00,1.00
6601.00,1.00
6600.00,1.00
6599.00,1.00
6598.00,1.00
6597.00,1.00
6596.00,1.01
6595.00,1.01
6594.00,1.01
6593.00,1.01
6592.00,1.01
6591.00,1.01
6590.00,1.01
6589.00,1.01
6588.00,1.01
6587.00,1.02
6586.00,1.02
6585.00,1.02
6584.00,1.02
6583.00,1.02
6582.00,1.02
6581.00,1.02
6580.00,1.02
6579.00,1.02
6578.00,1.02
6577.00,1.02
6576.00,1.03
6575.00,1.03
6574.00,1.03
6573.00,1.03
6572.00,1.03
6571.00,1.03
6570.00,1.03
6569.00,1.03
6568.00,1.03
6567.00,1.03
6566.00,1.03
6565.00,1.03
6564.00,1.04
6563.00,1.04
6562.00,1.04
6561.00,1.04
6560.00,1.04
6559.00,1.04
6558.00,1.04
6557.00,1.05
6556.00,1.05
6555.00,1.05
6554.00,1.05
6553.00,1.05
6552.00,1.05
6551.00,1.06
6550.00,1.06
6549.00,1.06
6548.00,1.06
6547.00,1.06
6546.00,1.06
6545.00,1.06
6544.00,1.07
6543.00,1.07
6542.00,1.07
6541.00,1.07
6540.00,1.07
6539.00,1.07
6538.00,1.07
6537.00,1.07
6536.00,1.07
6535.00,1.07
6534.00,1.07
6533.00,1.07
6532.00,1.07
6531.00,1.07
6530.00,1.07
6529.00,1.07
6528.00,1.07
6527.00,1.07
6526.00,1.07
6525.00,1.07
6524.00,1.08
6523.00,1.08
6522.00,1.08
6521.00,1.08
6520.00,1.08
6519.00,1.08
6518.00,1.08
6517.00,1.08
6516.00,1.08
6515.00,1.08
6514.00,1.08
6513.00,1.08
6512.00,1.08
6511.00,1.09
6510.00,1.09
6509.00,1.09
6508.00,1.09
6507.00,1.09
6506.00,1.09
6505.00,1.09
6504.00,1.09
6503.00,1.10
6502.00,1.10
6501.00,1.10
6500.00,1.10
6499.00,1.10
6498.00,1.10
6497.00,1.10
6496.00,1.10
6495.00,1.10
6494.00,1.11
6493.00,1.11
6492.00,1.11
6491.00,1.11
6490.00,1.11
6489.00,1.11
6488.00,1.11
6487.00,1.11
6486.00,1.11
6485.00,1.11
6484.00,1.11
6483.00,1.11
6482.00,1.11
6481.00,1.11
6480.00,1.11
6479.00,1.11
6478.00,1.11
6477.00,1.11
6476.00,1.11
6475.00,1.11
6474.00,1.11
6473.00,1.11
6472.00,1.11
6471.00,1.12
6470.00,1.12
6469.00,1.12
6468.00,1.12
6467.00,1.12
6466.00,1.12
6465.00,1.12
6464.00,1.12
6463.00,1.12
6462.00,1.12
6461.00,1.12
6460.00,1.12
6459.00,1.12
6458.00,1.12
6457.00,1.13
6456.00,1.13
6455.00,1.13
6454.00,1.13
6453.00,1.13
6452.00,1.13
6451.00,1.13
6450.00,1.13
6449.00,1.13
6448.00,1.13
6447.00,1.13
6446.00,1.13
6445.00,1.13
6444.00,1.13
6443.00,1.13
6442.00,1.13
6441.00,1.13
6440.00,1.13
6439.00,1.13
6438.00,1.13
6437.00,1.13
6436.00,1.13
6435.00,1.13
6434.00,1.13
6433.00,1.14
6432.00,1.14
6431.00,1.14
6430.00,1.14
6429.00,1.14
6428.00,1.14
6427.00,1.14
6426.00,1.14
6425.00,1.14
6424.00,1.14
6423.00,1.14
6422.00,1.14
6421.00,1.15
6420.00,1.15
6419.00,1.15
6418.00,1.15
6417.00,1.15
6416.00,1.15
6415.00,1.15
6414.00,1.15
6413.00,1.15
6412.00,1.15
6411.00,1.15
6410.00,1.16
6409.00,1.16
6408.00,1.16
6407.00,1.16
6406.00,1.16
6405.00,1.16
6404.00,1.16
6403.00,1.16
6402.00,1.16
6401.00,1.16
6400.00,1.16
6399.00,1.16
6398.00,1.16
6397.00,1.16
6396.00,1.17
6395.00,1.17
6394.00,1.17
6393.00,1.17
6392.00,1.17
6391.00,1.17
6390.00,1.17
6389.00,1.17
6388.00,1.17
6387.00,1.17
6386.00,1.17
6385.00,1.17
6384.00,1.17
6383.00,1.17
6382.00,1.17
6381.00,1.18
6380.00,1.18
6379.00,1.18
6378.00,1.18
6377.00,1.18
6376.00,1.18
6375.00,1.18
6374.00,1.18
6373.00,1.18
6372.00,1.18
6371.00,1.18
6370.00,1.18
6369.00,1.18
6368.00,1.18
6367.00,1.18
6366.00,1.18
6365.00,1.18
6364.00,1.18
6363.00,1.18
6362.00,1.18
6361.00,1.18
6360.00,1.18
6359.00,1.18
6358.00,1.18
6357.00,1.19
6356.00,1.19
6355.00,1.19
6354.00,1.19
6353.00,1.19
6352.00,1.19
6351.00,1.19
6350.00,1.19
6349.00,1.19
6348.00,1.19
6347.00,1.20
6346.00,1.20
6345.00,1.20
6344.00,1.20
6343.00,1.20
6342.00,1.20
6341.00,1.20
6340.00,1.21
6339.00,1.21
6338.00,1.21
6337.00,1.21
6336.00,1.21
6335.00,1.21
6334.00,1.22
6333.00,1.22
6332.00,1.22
6331.00,1.22
6330.00,1.22
6329.00,1.22
6328.00,1.22
6327.00,1.22
6326.00,1.22
6325.00,1.22
6324.00,1.23
6323.00,1.23
6322.00,1.23
6321.00,1.23
6320.00,1.23
6319.00,1.23
6318.00,1.23
6317.00,1.23
6316.00,1.24
6315.00,1.24
6314.00,1.24
6313.00,1.24
6312.00,1.24
6311.00,1.24
6310.00,1.24
6309.00,1.25
6308.00,1.25
6307.00,1.25
6306.00,1.25
6305.00,1.25
6304.00,1.25
6303.00,1.25
6302.00,1.26
6301.00,1.26
6300.00,1.26
6299.00,1.26
6298.00,1.26
6297.00,1.26
6296.00,1.26
6295.00,1.26
6294.00,1.26
6293.00,1.26
6292.00,1.27
6291.00,1.27
6290.00,1.27
6289.00,1.27
6288.00,1.27
6287.00,1.27
6286.00,1.27
6285.00,1.27
6284.00,1.27
6283.00,1.28
6282.00,1.28
6281.00,1.28
6280.00,1.28
6279.00,1.28
6278.00,1.28
6277.00,1.28
6276.00,1.28
6275.00,1.29
6274.00,1.29
6273.00,1.29
6272.00,1.29
6271.00,1.29
6270.00,1.29
6269.00,1.29
6268.00,1.29
6267.00,1.29
6266.00,1.29
6265.00,1.29
6264.00,1.29
6263.00,1.30
6262.00,1.30
6261.00,1.30
6260.00,1.30
6259.00,1.30
6258.00,1.30
6257.00,1.30
6256.00,1.30
6255.00,1.30
6254.00,1.30
6253.00,1.30
6252.00,1.31
6251.00,1.31
6250.00,1.31
6249.00,1.31
6248.00,1.31
6247.00,1.31
6246.00,1.32
6245.00,1.32
6244.00,1.32
6243.00,1.32
6242.00,1.32
6241.00,1.32
6240.00,1.33
6239.00,1.33
6238.00,1.33
6237.00,1.33
6236.00,1.33
6235.00,1.34
6234.00,1.34
6233.00,1.34
6232.00,1.34
6231.00,1.34
6230.00,1.34
6229.00,1.34
6228.00,1.35
6227.00,1.35
6226.00,1.35
6225.00,1.35
6224.00,1.35
6223.00,1.35
6222.00,1.35
6221.00,1.35
6220.00,1.35
6219.00,1.35
6218.00,1.35
6217.00,1.35
6216.00,1.36
6215.00,1.36
6214.00,1.36
6213.00,1.36
6212.00,1.36
6211.00,1.36
6210.00,1.36
6209.00,1.36
6208.00,1.36
6207.00,1.36
6206.00,1.36
6205.00,1.37
6204.00,1.37
6203.00,1.37
6202.00,1.37
6201.00,1.37
6200.00,1.37
6199.00,1.38
6198.00,1.38
6197.00,1.38
6196.00,1.38
6195.00,1.38
6194.00,1.39
6193.00,1.39
6192.00,1.39
6191.00,1.39
6190.00,1.40
6189.00,1.40
6188.00,1.40
6187.00,1.40
6186.00,1.41
6185.00,1.41
6184.00,1.41
6183.00,1.41
6182.00,1.41
6181.00,1.41
6180.00,1.42
6179.00,1.42
6178.00,1.42
6177.00,1.42
6176.00,1.42
6175.00,1.42
6174.00,1.42
6173.00,1.43
6172.00,1.43
6171.00,1.43
6170.00,1.43
6169.00,1.43
6168.00,1.43
6167.00,1.43
6166.00,1.44
6165.00,1.44
6164.00,1.44
6163.00,1.44
6162.00,1.44
6161.00,1.45
6160.00,1.45
6159.00,1.45
6158.00,1.45
6157.00,1.45
6156.00,1.45
6155.00,1.45
6154.00,1.46
6153.00,1.46
6152.00,1.46
6151.00,1.46
6150.00,1.46
6149.00,1.46
6148.00,1.46
6147.00,1.46
6146.00,1.47
6145.00,1.47
6144.00,1.47
6143.00,1.47
6142.00,1.47
6141.00,1.47
6140.00,1.47
6139.00,1.47
6138.00,1.48
6137.00,1.48
6136.00,1.48
6135.00,1.48
6134.00,1.48
6133.00,1.49
6132.00,1.49
6131.00,1.49
6130.00,1.49
6129.00,1.49
6128.00,1.50
6127.00,1.50
6126.00,1.50
6125.00,1.50
6124.00,1.50
6123.00,1.51
6122.00,1.51
6121.00,1.51
6120.00,1.51
6119.00,1.51
6118.00,1.51
6117.00,1.52
6116.00,1.52
6115.00,1.52
6114.00,1.52
6113.00,1.52
6112.00,1.52
6111.00,1.53
6110.00,1.53
6109.00,1.53
6108.00,1.53
6107.00,1.53
6106.00,1.53
6105.00,1.54
6104.00,1.54
6103.00,1.54
6102.00,1.54
6101.00,1.54
6100.00,1.54
6099.00,1.54
6098.00,1.55
6097.00,1.55
6096.00,1.55
6095.00,1.55
6094.00,1.55
6093.00,1.55
6092.00,1.55
6091.00,1.56
6090.00,1.56
6089.00,1.56
6088.00,1.56
6087.00,1.56
6086.00,1.56
6085.00,1.56
6084.00,1.56
6083.00,1.57
6082.00,1.57
6081.00,1.57
6080.00,1.57
6079.00,1.57
6078.00,1.57
6077.00,1.58
6076.00,1.58
6075.00,1.58
6074.00,1.58
6073.00,1.58
6072.00,1.58
6071.00,1.59
6070.00,1.59
6069.00,1.59
6068.00,1.59
6067.00,1.59
6066.00,1.59
6065.00,1.59
6064.00,1.59
6063.00,1.59
6062.00,1.60
6061.00,1.60
6060.00,1.60
6059.00,1.60
6058.00,1.60
6057.00,1.60
6056.00,1.60
6055.00,1.60
6054.00,1.60
6053.00,1.60
6052.00,1.60
6051.00,1.60
6050.00,1.60
6049.00,1.60
6048.00,1.60
6047.00,1.60
6046.00,1.60
6045.00,1.60
6044.00,1.61
6043.00,1.61
6042.00,1.61
6041.00,1.61
6040.00,1.61
6039.00,1.61
6038.00,1.61
6037.00,1.61
6036.00,1.62
6035.00,1.62
6034.00,1.62
6033.00,1.62
6032.00,1.62
6031.00,1.62
6030.00,1.62
6029.00,1.62
6028.00,1.63
6027.00,1.63
6026.00,1.63
6025.00,1.63
6024.00,1.63
6023.00,1.63
6022.00,1.63
6021.00,1.63
6020.00,1.63
6019.00,1.63
6018.00,1.63
6017.00,1.63
6016.00,1.63
6015.00,1.63
6014.00,1.63
6013.00,1.63
6012.00,1.63
6011.00,1.63
6010.00,1.63
6009.00,1.63
6008.00,1.63
6007.00,1.63
6006.00,1.63
6005.00,1.63
6004.00,1.63
6003.00,1.63
6002.00,1.62
6001.00,1.62
6000.00,1.62
5999.00,1.62
5998.00,1.62
5997.00,1.62
5996.00,1.62
5995.00,1.62
5994.00,1.62
5993.00,1.62
5992.00,1.61
5991.00,1.61
5990.00,1.61
5989.00,1.61
5988.00,1.60
5987.00,1.60
5986.00,1.60
5985.00,1.60
5984.00,1.59
5983.00,1.59
5982.00,1.58
5981.00,1.58
5980.00,1.58
5979.00,1.57
5978.00,1.57
5977.00,1.56
5976.00,1.56
5975.00,1.55
5974.00,1.55
5973.00,1.54
5972.00,1.53
5971.00,1.53
5970.00,1.52
5969.00,1.51
5968.00,1.51
5967.00,1.50
5966.00,1.49
5965.00,1.48
5964.00,1.48
5963.00,1.47
5962.00,1.46
5961.00,1.45
5960.00,1.44
5959.00,1.44
5958.00,1.43
5957.00,1.42
5956.00,1.41
5955.00,1.40
5954.00,1.40
5953.00,1.39
5952.00,1.38
5951.00,1.38
5950.00,1.37
5949.00,1.36
5948.00,1.36
5947.00,1.35
5946.00,1.35
5945.00,1.34
5944.00,1.34
5943.00,1.33
5942.00,1.33
5941.00,1.33
5940.00,1.33
5939.00,1.33
5938.00,1.32
5937.00,1.32
5936.00,1.32
5935.00,1.32
5934.00,1.32
5933.00,1.32
5932.00,1.32
5931.00,1.32
5930.00,1.32
5929.00,1.32
5928.00,1.32
5927.00,1.31
5926.00,1.31
5925.00,1.31
5924.00,1.31
5923.00,1.31
5922.00,1.30
5921.00,1.30
5920.00,1.30
5919.00,1.30
5918.00,1.29
5917.00,1.29
5916.00,1.29
5915.00,1.28
5914.00,1.28
5913.00,1.28
5912.00,1.27
5911.00,1.27
5910.00,1.27
5909.00,1.27
5908.00,1.26
5907.00,1.26
5906.00,1.26
5905.00,1.26
5904.00,1.26
5903.00,1.26
5902.00,1.26
5901.00,1.26
5900.00,1.26
5899.00,1.26
5898.00,1.26
5897.00,1.26
5896.00,1.26
5895.00,1.26
5894.00,1.26
5893.00,1.27
5892.00,1.27
5891.00,1.27
5890.00,1.27
5889.00,1.28
5888.00,1.28
5887.00,1.29
5886.00,1.29
5885.00,1.29
5884.00,1.30
5883.00,1.30
5882.00,1.30
5881.00,1.31
5880.00,1.31
5879.00,1.31
5878.00,1.32
5877.00,1.32
5876.00,1.32
5875.00,1.33
5874.00,1.33
5873.00,1.33
5872.00,1.33
5871.00,1.34
5870.00,1.34
5869.00,1.34
5868.00,1.34
5867.00,1.34
5866.00,1.34
5865.00,1.35
5864.00,1.35
5863.00,1.35
5862.00,1.35
5861.00,1.35
5860.00,1.36
5859.00,1.36
5858.00,1.36
5857.00,1.36
5856.00,1.36
5855.00,1.37
5854.00,1.37
5853.00,1.37
5852.00,1.37
5851.00,1.37
5850.00,1.37
5849.00,1.38
5848.00,1.38
5847.00,1.38
5846.00,1.38
5845.00,1.38
5844.00,1.38
5843.00,1.38
5842.00,1.38
5841.00,1.38
5840.00,1.38
5839.00,1.38
5838.00,1.38
5837.00,1.38
5836.00,1.38
5835.00,1.38
5834.00,1.38
5833.00,1.38
5832.00,1.38
5831.00,1.38
5830.00,1.38
5829.00,1.38
5828.00,1.38
5827.00,1.38
5826.00,1.38
5825.00,1.38
5824.00,1.38
5823.00,1.38
5822.00,1.38
5821.00,1.38
5820.00,1.38
5819.00,1.38
5818.00,1.38
5817.00,1.38
5816.00,1.38
5815.00,1.38
5814.00,1.38
5813.00,1.38
5812.00,1.38
5811.00,1.38
5810.00,1.38
5809.00,1.38
5808.00,1.38
5807.00,1.38
5806.00,1.38
5805.00,1.38
5804.00,1.38
5803.00,1.37
5802.00,1.37
5801.00,1.37
5800.00,1.37
5799.00,1.37
5798.00,1.37
5797.00,1.36
5796.00,1.36
5795.00,1.36
5794.00,1.36
5793.00,1.35
5792.00,1.35
5791.00,1.35
5790.00,1.35
5789.00,1.34
5788.00,1.34
5787.00,1.34
5786.00,1.33
5785.00,1.33
5784.00,1.33
5783.00,1.33
5782.00,1.32
5781.00,1.32
5780.00,1.32
5779.00,1.32
5778.00,1.32
5777.00,1.32
5776.00,1.32
5775.00,1.31
5774.00,1.31
5773.00,1.31
5772.00,1.31
5771.00,1.31
5770.00,1.32
5769.00,1.32
5768.00,1.32
5767.00,1.32
5766.00,1.32
5765.00,1.32
5764.00,1.32
5763.00,1.33
5762.00,1.33
5761.00,1.33
5760.00,1.33
5759.00,1.34
5758.00,1.34
5757.00,1.35
5756.00,1.35
5755.00,1.35
5754.00,1.36
5753.00,1.36
5752.00,1.37
5751.00,1.37
5750.00,1.37
5749.00,1.38
5748.00,1.38
5747.00,1.39
5746.00,1.39
5745.00,1.40
5744.00,1.40
5743.00,1.40
5742.00,1.41
5741.00,1.41
5740.00,1.42
5739.00,1.42
5738.00,1.42
5737.00,1.42
5736.00,1.43
5735.00,1.43
5734.00,1.43
5733.00,1.43
5732.00,1.43
5731.00,1.44
5730.00,1.44
5729.00,1.44
5728.00,1.44
5727.00,1.44
5726.00,1.44
5725.00,1.44
5724.00,1.44
5723.00,1.44
5722.00,1.44
5721.00,1.45
5720.00,1.45
5719.00,1.45
5718.00,1.45
5717.00,1.45
5716.00,1.45
5715.00,1.45
5714.00,1.45
5713.00,1.45
5712.00,1.45
5711.00,1.44
5710.00,1.44
5709.00,1.44
5708.00,1.44
5707.00,1.44
5706.00,1.44
5705.00,1.44
5704.00,1.44
5703.00,1.44
5702.00,1.44
5701.00,1.44
5700.00,1.44
5699.00,1.44
5698.00,1.44
5697.00,1.44
5696.00,1.43
5695.00,1.43
5694.00,1.43
5693.00,1.43
5692.00,1.43
5691.00,1.43
5690.00,1.42
5689.00,1.42
5688.00,1.42
5687.00,1.42
5686.00,1.42
5685.00,1.42
5684.00,1.41
5683.00,1.41
5682.00,1.41
5681.00,1.41
5680.00,1.41
5679.00,1.41
5678.00,1.41
5677.00,1.41
5676.00,1.40
5675.00,1.40
5674.00,1.40
5673.00,1.40
5672.00,1.40
5671.00,1.40
5670.00,1.40
5669.00,1.40
5668.00,1.41
5667.00,1.41
5666.00,1.41
5665.00,1.41
5664.00,1.41
5663.00,1.41
5662.00,1.41
5661.00,1.41
5660.00,1.42
5659.00,1.42
5658.00,1.42
5657.00,1.42
5656.00,1.42
5655.00,1.42
5654.00,1.43
5653.00,1.43
5652.00,1.43
5651.00,1.43
5650.00,1.44
5649.00,1.44
5648.00,1.44
5647.00,1.45
5646.00,1.45
5645.00,1.45
5644.00,1.45
5643.00,1.46
5642.00,1.46
5641.00,1.46
5640.00,1.46
5639.00,1.47
5638.00,1.47
5637.00,1.47
5636.00,1.47
5635.00,1.48
5634.00,1.48
5633.00,1.48
5632.00,1.48
5631.00,1.48
5630.00,1.49
5629.00,1.49
5628.00,1.49
5627.00,1.49
5626.00,1.49
5625.00,1.49
5624.00,1.49
5623.00,1.49
5622.00,1.50
5621.00,1.50
5620.00,1.50
5619.00,1.50
5618.00,1.50
5617.00,1.50
5616.00,1.51
5615.00,1.51
5614.00,1.51
5613.00,1.51
5612.00,1.51
5611.00,1.52
5610.00,1.52
5609.00,1.52
5608.00,1.52
5607.00,1.52
5606.00,1.53
5605.00,1.53
5604.00,1.53
5603.00,1.53
5602.00,1.53
5601.00,1.54
5600.00,1.54
5599.00,1.54
5598.00,1.54
5597.00,1.55
5596.00,1.55
5595.00,1.55
5594.00,1.55
5593.00,1.56
5592.00,1.56
5591.00,1.56
5590.00,1.56
5589.00,1.57
5588.00,1.57
5587.00,1.57
5586.00,1.57
5585.00,1.58
5584.00,1.58
5583.00,1.58
5582.00,1.58
5581.00,1.58
5580.00,1.59
5579.00,1.59
5578.00,1.59
5577.00,1.59
5576.00,1.59
5575.00,1.59
5574.00,1.59
5573.00,1.59
5572.00,1.60
5571.00,1.60
5570.00,1.60
5569.00,1.60
5568.00,1.60
5567.00,1.60
5566.00,1.60
5565.00,1.60
5564.00,1.60
5563.00,1.60
5562.00,1.60
5561.00,1.60
5560.00,1.60
5559.00,1.60
5558.00,1.60
5557.00,1.60
5556.00,1.60
5555.00,1.61
5554.00,1.61
5553.00,1.61
5552.00,1.61
5551.00,1.61
5550.00,1.61
5549.00,1.61
5548.00,1.62
5547.00,1.62
5546.00,1.62
5545.00,1.62
5544.00,1.62
5543.00,1.63
5542.00,1.63
5541.00,1.63
5540.00,1.63
5539.00,1.63
5538.00,1.64
5537.00,1.64
5536.00,1.64
5535.00,1.64
5534.00,1.64
5533.00,1.64
5532.00,1.65
5531.00,1.65
5530.00,1.65
5529.00,1.65
5528.00,1.65
5527.00,1.65
5526.00,1.65
5525.00,1.65
5524.00,1.65
5523.00,1.65
5522.00,1.66
5521.00,1.66
5520.00,1.66
5519.00,1.66
5518.00,1.66
5517.00,1.66
5516.00,1.66
5515.00,1.66
5514.00,1.66
5513.00,1.66
5512.00,1.66
5511.00,1.66
5510.00,1.66
5509.00,1.66
5508.00,1.66
5507.00,1.66
5506.00,1.67
5505.00,1.67
5504.00,1.67
5503.00,1.67
5502.00,1.67
5501.00,1.67
5500.00,1.67
5499.00,1.67
5498.00,1.67
5497.00,1.67
5496.00,1.67
5495.00,1.67
5494.00,1.67
5493.00,1.68
5492.00,1.68
5491.00,1.68
5490.00,1.68
5489.00,1.68
5488.00,1.68
5487.00,1.68
5486.00,1.68
5485.00,1.68
5484.00,1.69
5483.00,1.69
5482.00,1.69
5481.00,1.69
5480.00,1.69
5479.00,1.69
5478.00,1.69
5477.00,1.70
5476.00,1.70
5475.00,1.70
5474.00,1.70
5473.00,1.70
5472.00,1.70
5471.00,1.70
5470.00,1.70
5469.00,1.71
5468.00,1.71
5467.00,1.71
5466.00,1.71
5465.00,1.71
5464.00,1.71
5463.00,1.71
5462.00,1.72
5461.00,1.72
5460.00,1.72
5459.00,1.72
5458.00,1.72
5457.00,1.72
5456.00,1.72
5455.00,1.72
5454.00,1.72
5453.00,1.72
5452.00,1.72
5451.00,1.72
5450.00,1.72
5449.00,1.72
5448.00,1.72
5447.00,1.72
5446.00,1.72
5445.00,1.72
5444.00,1.72
5443.00,1.72
5442.00,1.72
5441.00,1.72
5440.00,1.72
5439.00,1.72
5438.00,1.72
5437.00,1.72
5436.00,1.73
5435.00,1.73
5434.00,1.73
5433.00,1.73
5432.00,1.73
5431.00,1.73
5430.00,1.73
5429.00,1.73
5428.00,1.73
5427.00,1.73
5426.00,1.73
5425.00,1.73
5424.00,1.73
5423.00,1.74
5422.00,1.74
5421.00,1.74
5420.00,1.74
5419.00,1.74
5418.00,1.74
5417.00,1.74
5416.00,1.74
5415.00,1.74
5414.00,1.74
5413.00,1.74
5412.00,1.74
5411.00,1.73
5410.00,1.73
5409.00,1.73
5408.00,1.73
5407.00,1.74
5406.00,1.74
5405.00,1.74
5404.00,1.74
5403.00,1.74
5402.00,1.74
5401.00,1.74
5400.00,1.74
5399.00,1.74
5398.00,1.73
5397.00,1.73
5396.00,1.73
5395.00,1.73
5394.00,1.73
5393.00,1.73
5392.00,1.73
5391.00,1.73
5390.00,1.73
5389.00,1.72
5388.00,1.72
5387.00,1.72
5386.00,1.72
5385.00,1.72
5384.00,1.71
5383.00,1.71
5382.00,1.71
5381.00,1.70
5380.00,1.70
5379.00,1.70
5378.00,1.69
5377.00,1.69
5376.00,1.68
5375.00,1.68
5374.00,1.67
5373.00,1.67
5372.00,1.66
5371.00,1.66
5370.00,1.65
5369.00,1.65
5368.00,1.64
5367.00,1.64
5366.00,1.63
5365.00,1.63
5364.00,1.62
5363.00,1.61
5362.00,1.61
5361.00,1.60
5360.00,1.59
5359.00,1.58
5358.00,1.58
5357.00,1.57
5356.00,1.56
5355.00,1.55
5354.00,1.54
5353.00,1.53
5352.00,1.52
5351.00,1.51
5350.00,1.50
5349.00,1.49
5348.00,1.48
5347.00,1.47
5346.00,1.46
5345.00,1.45
5344.00,1.44
5343.00,1.43
5342.00,1.42
5341.00,1.41
5340.00,1.40
5339.00,1.39
5338.00,1.37
5337.00,1.36
5336.00,1.35
5335.00,1.34
5334.00,1.33
5333.00,1.32
5332.00,1.31
5331.00,1.30
5330.00,1.29
5329.00,1.27
5328.00,1.26
5327.00,1.25
5326.00,1.24
5325.00,1.23
5324.00,1.22
5323.00,1.21
5322.00,1.20
5321.00,1.19
5320.00,1.18
5319.00,1.17
5318.00,1.16
5317.00,1.15
5316.00,1.14
5315.00,1.13
5314.00,1.12
5313.00,1.11
5312.00,1.10
5311.00,1.09
5310.00,1.08
5309.00,1.07
5308.00,1.07
5307.00,1.06
5306.00,1.05
5305.00,1.04
5304.00,1.04
5303.00,1.03
5302.00,1.02
5301.00,1.02
5300.00,1.01
5299.00,1.01
5298.00,1.00
5297.00,1.00
5296.00,0.99
5295.00,0.99
5294.00,0.98
5293.00,0.98
5292.00,0.97
5291.00,0.97
5290.00,0.97
5289.00,0.96
5288.00,0.96
5287.00,0.96
5286.00,0.96
5285.00,0.95
5284.00,0.95
5283.00,0.95
5282.00,0.95
5281.00,0.95
5280.00,0.95
5279.00,0.95
5278.00,0.95
5277.00,0.95
5276.00,0.95
5275.00,0.95
5274.00,0.95
5273.00,0.94
5272.00,0.94
5271.00,0.94
5270.00,0.94
5269.00,0.94
5268.00,0.94
5267.00,0.94
5266.00,0.94
5265.00,0.94
5264.00,0.94
5263.00,0.94
5262.00,0.94
5261.00,0.94
5260.00,0.94
5259.00,0.94
5258.00,0.94
5257.00,0.93
5256.00,0.93
5255.00,0.93
5254.00,0.93
5253.00,0.93
5252.00,0.93
5251.00,0.93
5250.00,0.93
5249.00,0.93
5248.00,0.93
5247.00,0.93
5246.00,0.94
5245.00,0.94
5244.00,0.94
5243.00,0.94
5242.00,0.94
5241.00,0.94
5240.00,0.94
5239.00,0.94
5238.00,0.94
5237.00,0.94
5236.00,0.94
5235.00,0.95
5234.00,0.95
5233.00,0.95
5232.00,0.95
5231.00,0.95
5230.00,0.95
5229.00,0.95
5228.00,0.95
5227.00,0.95
5226.00,0.95
5225.00,0.95
5224.00,0.95
5223.00,0.95
5222.00,0.95
5221.00,0.95
5220.00,0.95
5219.00,0.95
5218.00,0.95
5217.00,0.95
5216.00,0.95
5215.00,0.95
5214.00,0.95
5213.00,0.95
5212.00,0.95
5211.00,0.95
5210.00,0.95
5209.00,0.95
5208.00,0.95
5207.00,0.95
5206.00,0.95
5205.00,0.95
5204.00,0.95
5203.00,0.95
5202.00,0.95
5201.00,0.95
5200.00,0.96
5199.00,0.96
5198.00,0.96
5197.00,0.96
5196.00,0.96
5195.00,0.96
5194.00,0.96
5193.00,0.96
5192.00,0.96
5191.00,0.96
5190.00,0.96
5189.00,0.96
5188.00,0.96
5187.00,0.97
5186.00,0.97
5185.00,0.97
5184.00,0.97
5183.00,0.97
5182.00,0.97
5181.00,0.97
5180.00,0.97
5179.00,0.97
5178.00,0.97
5177.00,0.97
5176.00,0.97
5175.00,0.97
5174.00,0.97
5173.00,0.98
5172.00,0.98
5171.00,0.98
5170.00,0.98
5169.00,0.98
5168.00,0.98
5167.00,0.98
5166.00,0.98
5165.00,0.98
5164.00,0.98
5163.00,0.98
5162.00,0.98
5161.00,0.98
5160.00,0.98
5159.00,0.98
5158.00,0.98
5157.00,0.99
5156.00,0.99
5155.00,0.99
5154.00,0.99
5153.00,0.99
5152.00,0.99
5151.00,0.99
5150.00,0.99
5149.00,0.99
5148.00,0.99
5147.00,0.99
5146.00,0.99
5145.00,0.99
5144.00,0.99
5143.00,0.99
5142.00,0.99
5141.00,0.99
5140.00,0.99
5139.00,0.99
5138.00,0.99
5137.00,0.99
5136.00,0.99
5135.00,0.99
5134.00,0.99
5133.00,0.99
5132.00,0.99
5131.00,0.99
5130.00,0.99
5129.00,0.99
5128.00,0.99
5127.00,0.99
5126.00,0.99
5125.00,0.99
5124.00,0.99
5123.00,1.00
5122.00,1.00
5121.00,1.00
5120.00,1.00
5119.00,1.00
5118.00,1.00
5117.00,1.00
5116.00,1.00
5115.00,1.00
5114.00,1.00
5113.00,1.00
5112.00,1.00
5111.00,1.00
5110.00,1.00
5109.00,1.01
5108.00,1.01
5107.00,1.01
5106.00,1.01
5105.00,1.01
5104.00,1.01
5103.00,1.01
5102.00,1.01
5101.00,1.01
5100.00,1.01
5099.00,1.01
5098.00,1.02
5097.00,1.02
5096.00,1.02
5095.00,1.02
5094.00,1.02
5093.00,1.02
5092.00,1.02
5091.00,1.02
5090.00,1.02
5089.00,1.02
5088.00,1.02
5087.00,1.02
5086.00,1.02
5085.00,1.02
5084.00,1.02
5083.00,1.02
5082.00,1.03
5081.00,1.03
5080.00,1.03
5079.00,1.03
5078.00,1.03
5077.00,1.03
5076.00,1.03
5075.00,1.03
5074.00,1.03
5073.00,1.03
5072.00,1.03
5071.00,1.04
5070.00,1.04
5069.00,1.04
5068.00,1.04
5067.00,1.04
5066.00,1.04
5065.00,1.04
5064.00,1.04
5063.00,1.04
5062.00,1.04
5061.00,1.04
5060.00,1.04
5059.00,1.04
5058.00,1.04
5057.00,1.04
5056.00,1.05
5055.00,1.05
5054.00,1.05
5053.00,1.05
5052.00,1.05
5051.00,1.05
5050.00,1.05
5049.00,1.05
5048.00,1.05
5047.00,1.05
5046.00,1.05
5045.00,1.06
5044.00,1.06
5043.00,1.06
5042.00,1.06
5041.00,1.06
5040.00,1.06
5039.00,1.06
5038.00,1.07
5037.00,1.07
5036.00,1.07
5035.00,1.07
5034.00,1.07
5033.00,1.07
5032.00,1.07
5031.00,1.07
5030.00,1.07
5029.00,1.07
5028.00,1.08
5027.00,1.08
5026.00,1.08
5025.00,1.08
5024.00,1.08
5023.00,1.08
5022.00,1.08
5021.00,1.08
5020.00,1.08
5019.00,1.08
5018.00,1.08
5017.00,1.08
5016.00,1.08
5015.00,1.08
5014.00,1.08
5013.00,1.08
5012.00,1.08
5011.00,1.08
5010.00,1.08
5009.00,1.09
5008.00,1.09
5007.00,1.09
5006.00,1.09
5005.00,1.09
5004.00,1.09
5003.00,1.09
5002.00,1.09
5001.00,1.09
5000.00,1.10
4999.00,1.10
4998.00,1.10
4997.00,1.10
4996.00,1.10
4995.00,1.10
4994.00,1.10
4993.00,1.10
4992.00,1.11
4991.00,1.11
4990.00,1.11
4989.00,1.11
4988.00,1.11
4987.00,1.11
4986.00,1.11
4985.00,1.11
4984.00,1.11
4983.00,1.11
4982.00,1.11
4981.00,1.11
4980.00,1.11
4979.00,1.12
4978.00,1.12
4977.00,1.12
4976.00,1.12
4975.00,1.12
4974.00,1.12
4973.00,1.12
4972.00,1.12
4971.00,1.12
4970.00,1.12
4969.00,1.12
4968.00,1.12
4967.00,1.12
4966.00,1.12
4965.00,1.13
4964.00,1.13
4963.00,1.13
4962.00,1.13
4961.00,1.13
4960.00,1.13
4959.00,1.13
4958.00,1.13
4957.00,1.14
4956.00,1.14
4955.00,1.14
4954.00,1.14
4953.00,1.14
4952.00,1.14
4951.00,1.14
4950.00,1.14
4949.00,1.14
4948.00,1.14
4947.00,1.14
4946.00,1.14
4945.00,1.14
4944.00,1.14
4943.00,1.14
4942.00,1.15
4941.00,1.15
4940.00,1.15
4939.00,1.15
4938.00,1.15
4937.00,1.15
4936.00,1.15
4935.00,1.15
4934.00,1.15
4933.00,1.15
4932.00,1.16
4931.00,1.16
4930.00,1.16
4929.00,1.16
4928.00,1.16
4927.00,1.16
4926.00,1.16
4925.00,1.16
4924.00,1.16
4923.00,1.17
4922.00,1.17
4921.00,1.17
4920.00,1.17
4919.00,1.17
4918.00,1.17
4917.00,1.17
4916.00,1.17
4915.00,1.17
4914.00,1.17
4913.00,1.17
4912.00,1.17
4911.00,1.17
4910.00,1.17
4909.00,1.17
4908.00,1.17
4907.00,1.17
4906.00,1.17
4905.00,1.17
4904.00,1.17
4903.00,1.17
4902.00,1.17
4901.00,1.17
4900.00,1.17
4899.00,1.17
4898.00,1.18
4897.00,1.18
4896.00,1.18
4895.00,1.18
4894.00,1.18
4893.00,1.18
4892.00,1.18
4891.00,1.18
4890.00,1.18
4889.00,1.18
4888.00,1.18
4887.00,1.18
4886.00,1.18
4885.00,1.19
4884.00,1.19
4883.00,1.19
4882.00,1.19
4881.00,1.19
4880.00,1.19
4879.00,1.19
4878.00,1.19
4877.00,1.19
4876.00,1.19
4875.00,1.19
4874.00,1.19
4873.00,1.19
4872.00,1.20
4871.00,1.20
4870.00,1.20
4869.00,1.20
4868.00,1.20
4867.00,1.20
4866.00,1.20
4865.00,1.20
4864.00,1.20
4863.00,1.20
4862.00,1.20
4861.00,1.20
4860.00,1.20
4859.00,1.20
4858.00,1.20
4857.00,1.21
4856.00,1.21
4855.00,1.21
4854.00,1.21
4853.00,1.21
4852.00,1.21
4851.00,1.21
4850.00,1.21
4849.00,1.21
4848.00,1.21
4847.00,1.21
4846.00,1.22
4845.00,1.22
4844.00,1.22
4843.00,1.22
4842.00,1.22
4841.00,1.22
4840.00,1.22
4839.00,1.22
4838.00,1.22
4837.00,1.22
4836.00,1.22
4835.00,1.22
4834.00,1.22
4833.00,1.22
4832.00,1.22
4831.00,1.22
4830.00,1.22
4829.00,1.22
4828.00,1.22
4827.00,1.22
4826.00,1.22
4825.00,1.22
4824.00,1.22
4823.00,1.22
4822.00,1.22
4821.00,1.23
4820.00,1.23
4819.00,1.23
4818.00,1.23
4817.00,1.23
4816.00,1.23
4815.00,1.23
4814.00,1.24
4813.00,1.24
4812.00,1.24
4811.00,1.24
4810.00,1.24
4809.00,1.25
4808.00,1.25
4807.00,1.25
4806.00,1.25
4805.00,1.25
4804.00,1.25
4803.00,1.25
4802.00,1.26
4801.00,1.26
4800.00,1.26
4799.00,1.26
4798.00,1.26
4797.00,1.26
4796.00,1.26
4795.00,1.26
4794.00,1.26
4793.00,1.26
4792.00,1.26
4791.00,1.26
4790.00,1.27
4789.00,1.27
4788.00,1.27
4787.00,1.27
4786.00,1.27
4785.00,1.27
4784.00,1.27
4783.00,1.27
4782.00,1.28
4781.00,1.28
4780.00,1.28
4779.00,1.28
4778.00,1.28
4777.00,1.28
4776.00,1.29
4775.00,1.29
4774.00,1.29
4773.00,1.29
4772.00,1.29
4771.00,1.30
4770.00,1.30
4769.00,1.30
4768.00,1.30
4767.00,1.30
4766.00,1.31
4765.00,1.31
4764.00,1.31
4763.00,1.31
4762.00,1.31
4761.00,1.31
4760.00,1.32
4759.00,1.32
4758.00,1.32
4757.00,1.32
4756.00,1.32
4755.00,1.32
4754.00,1.33
4753.00,1.33
4752.00,1.33
4751.00,1.33
4750.00,1.33
4749.00,1.33
4748.00,1.34
4747.00,1.34
4746.00,1.34
4745.00,1.34
4744.00,1.34
4743.00,1.34
4742.00,1.34
4741.00,1.34
4740.00,1.35
4739.00,1.35
4738.00,1.35
4737.00,1.35
4736.00,1.35
4735.00,1.35
4734.00,1.35
4733.00,1.35
4732.00,1.36
4731.00,1.36
4730.00,1.36
4729.00,1.36
4728.00,1.36
4727.00,1.36
4726.00,1.36
4725.00,1.37
4724.00,1.37
4723.00,1.37
4722.00,1.37
4721.00,1.38
4720.00,1.38
4719.00,1.38
4718.00,1.38
4717.00,1.39
4716.00,1.39
4715.00,1.39
4714.00,1.39
4713.00,1.40
4712.00,1.40
4711.00,1.40
4710.00,1.40
4709.00,1.40
4708.00,1.41
4707.00,1.41
4706.00,1.41
4705.00,1.41
4704.00,1.41
4703.00,1.41
4702.00,1.42
4701.00,1.42
4700.00,1.42
4699.00,1.42
4698.00,1.42
4697.00,1.43
4696.00,1.43
4695.00,1.43
4694.00,1.43
4693.00,1.44
4692.00,1.44
4691.00,1.44
4690.00,1.44
4689.00,1.44
4688.00,1.45
4687.00,1.45
4686.00,1.45
4685.00,1.45
4684.00,1.45
4683.00,1.45
4682.00,1.45
4681.00,1.45
4680.00,1.46
4679.00,1.46
4678.00,1.46
4677.00,1.46
4676.00,1.46
4675.00,1.46
4674.00,1.46
4673.00,1.46
4672.00,1.46
4671.00,1.47
4670.00,1.47
4669.00,1.47
4668.00,1.47
4667.00,1.47
4666.00,1.47
4665.00,1.48
4664.00,1.48
4663.00,1.48
4662.00,1.48
4661.00,1.48
4660.00,1.49
4659.00,1.49
4658.00,1.49
4657.00,1.49
4656.00,1.49
4655.00,1.49
4654.00,1.49
4653.00,1.50
4652.00,1.50
4651.00,1.50
4650.00,1.50
4649.00,1.50
4648.00,1.50
4647.00,1.50
4646.00,1.51
4645.00,1.51
4644.00,1.51
4643.00,1.51
4642.00,1.51
4641.00,1.51
4640.00,1.51
4639.00,1.51
4638.00,1.51
4637.00,1.52
4636.00,1.52
4635.00,1.52
4634.00,1.52
4633.00,1.52
4632.00,1.52
4631.00,1.52
4630.00,1.52
4629.00,1.52
4628.00,1.53
4627.00,1.53
4626.00,1.53
4625.00,1.53
4624.00,1.53
4623.00,1.54
4622.00,1.54
4621.00,1.54
4620.00,1.54
4619.00,1.54
4618.00,1.55
4617.00,1.55
4616.00,1.55
4615.00,1.55
4614.00,1.55
4613.00,1.55
4612.00,1.55
4611.00,1.55
4610.00,1.55
4609.00,1.55
4608.00,1.55
4607.00,1.55
4606.00,1.55
4605.00,1.56
4604.00,1.56
4603.00,1.56
4602.00,1.56
4601.00,1.56
4600.00,1.56
4599.00,1.56
4598.00,1.56
4597.00,1.56
4596.00,1.56
4595.00,1.57
4594.00,1.57
4593.00,1.57
4592.00,1.57
4591.00,1.57
4590.00,1.57
4589.00,1.57
4588.00,1.57
4587.00,1.57
4586.00,1.57
4585.00,1.57
4584.00,1.57
4583.00,1.57
4582.00,1.57
4581.00,1.57
4580.00,1.57
4579.00,1.57
4578.00,1.57
4577.00,1.57
4576.00,1.57
4575.00,1.58
4574.00,1.58
4573.00,1.58
4572.00,1.58
4571.00,1.58
4570.00,1.58
4569.00,1.58
4568.00,1.58
4567.00,1.58
4566.00,1.58
4565.00,1.58
4564.00,1.58
4563.00,1.58
4562.00,1.59
4561.00,1.59
4560.00,1.59
4559.00,1.59
4558.00,1.59
4557.00,1.59
4556.00,1.59
4555.00,1.60
4554.00,1.60
4553.00,1.60
4552.00,1.60
4551.00,1.60
4550.00,1.60
4549.00,1.60
4548.00,1.61
4547.00,1.61
4546.00,1.61
4545.00,1.61
4544.00,1.61
4543.00,1.61
4542.00,1.61
4541.00,1.61
4540.00,1.61
4539.00,1.61
4538.00,1.62
4537.00,1.62
4536.00,1.62
4535.00,1.62
4534.00,1.62
4533.00,1.62
4532.00,1.62
4531.00,1.62
4530.00,1.62
4529.00,1.62
4528.00,1.62
4527.00,1.62
4526.00,1.62
4525.00,1.62
4524.00,1.62
4523.00,1.62
4522.00,1.62
4521.00,1.62
4520.00,1.62
4519.00,1.62
4518.00,1.63
4517.00,1.63
4516.00,1.63
4515.00,1.63
4514.00,1.63
4513.00,1.63
4512.00,1.63
4511.00,1.63
4510.00,1.63
4509.00,1.63
4508.00,1.63
4507.00,1.63
4506.00,1.63
4505.00,1.63
4504.00,1.63
4503.00,1.63
4502.00,1.63
4501.00,1.63
4500.00,1.63
4499.00,1.63
4498.00,1.62
4497.00,1.62
4496.00,1.62
4495.00,1.62
4494.00,1.62
4493.00,1.62
4492.00,1.62
4491.00,1.62
4490.00,1.62
4489.00,1.62
4488.00,1.61
4487.00,1.61
4486.00,1.61
4485.00,1.61
4484.00,1.61
4483.00,1.61
4482.00,1.61
4481.00,1.61
4480.00,1.60
4479.00,1.60
4478.00,1.60
4477.00,1.60
4476.00,1.60
4475.00,1.59
4474.00,1.59
4473.00,1.59
4472.00,1.59
4471.00,1.58
4470.00,1.58
4469.00,1.58
4468.00,1.57
4467.00,1.57
4466.00,1.57
4465.00,1.56
4464.00,1.56
4463.00,1.56
4462.00,1.55
4461.00,1.55
4460.00,1.55
4459.00,1.54
4458.00,1.54
4457.00,1.54
4456.00,1.53
4455.00,1.53
4454.00,1.53
4453.00,1.52
4452.00,1.52
4451.00,1.52
4450.00,1.51
4449.00,1.51
4448.00,1.51
4447.00,1.50
4446.00,1.50
4445.00,1.50
4444.00,1.49
4443.00,1.49
4442.00,1.49
4441.00,1.48
4440.00,1.48
4439.00,1.48
4438.00,1.47
4437.00,1.47
4436.00,1.47
4435.00,1.46
4434.00,1.46
4433.00,1.46
4432.00,1.46
4431.00,1.45
4430.00,1.45
4429.00,1.45
4428.00,1.45
4427.00,1.44
4426.00,1.44
4425.00,1.44
4424.00,1.44
4423.00,1.44
4422.00,1.44
4421.00,1.44
4420.00,1.44
4419.00,1.44
4418.00,1.44
4417.00,1.44
4416.00,1.44
4415.00,1.44
4414.00,1.44
4413.00,1.44
4412.00,1.44
4411.00,1.44
4410.00,1.44
4409.00,1.44
4408.00,1.44
4407.00,1.44
4406.00,1.44
4405.00,1.45
4404.00,1.45
4403.00,1.45
4402.00,1.45
4401.00,1.45
4400.00,1.45
4399.00,1.45
4398.00,1.46
4397.00,1.46
4396.00,1.46
4395.00,1.46
4394.00,1.46
4393.00,1.46
4392.00,1.46
4391.00,1.47
4390.00,1.47
4389.00,1.47
4388.00,1.47
4387.00,1.47
4386.00,1.47
4385.00,1.47
4384.00,1.47
4383.00,1.47
4382.00,1.47
4381.00,1.47
4380.00,1.47
4379.00,1.47
4378.00,1.47
4377.00,1.47
4376.00,1.47
4375.00,1.47
4374.00,1.48
4373.00,1.48
4372.00,1.48
4371.00,1.48
4370.00,1.48
4369.00,1.48
4368.00,1.48
4367.00,1.48
4366.00,1.48
4365.00,1.48
4364.00,1.49
4363.00,1.49
4362.00,1.49
4361.00,1.49
4360.00,1.49
4359.00,1.49
4358.00,1.49
4357.00,1.49
4356.00,1.49
4355.00,1.49
4354.00,1.49
4353.00,1.49
4352.00,1.49
4351.00,1.49
4350.00,1.49
4349.00,1.49
4348.00,1.49
4347.00,1.49
4346.00,1.49
4345.00,1.49
4344.00,1.49
4343.00,1.49
4342.00,1.49
4341.00,1.49
4340.00,1.49
4339.00,1.49
4338.00,1.49
4337.00,1.49
4336.00,1.49
4335.00,1.49
4334.00,1.49
4333.00,1.49
4332.00,1.49
4331.00,1.49
4330.00,1.50
4329.00,1.50
4328.00,1.50
4327.00,1.50
4326.00,1.50
4325.00,1.50
4324.00,1.50
4323.00,1.51
4322.00,1.51
4321.00,1.51
4320.00,1.51
4319.00,1.51
4318.00,1.51
4317.00,1.51
4316.00,1.51
4315.00,1.51
4314.00,1.51
4313.00,1.52
4312.00,1.52
4311.00,1.52
4310.00,1.52
4309.00,1.52
4308.00,1.52
4307.00,1.53
4306.00,1.53
4305.00,1.53
4304.00,1.53
4303.00,1.54
4302.00,1.54
4301.00,1.54
4300.00,1.54
4299.00,1.55
4298.00,1.55
4297.00,1.55
4296.00,1.55
4295.00,1.55
4294.00,1.56
4293.00,1.56
4292.00,1.56
4291.00,1.56
4290.00,1.56
4289.00,1.56
4288.00,1.56
4287.00,1.56
4286.00,1.56
4285.00,1.57
4284.00,1.57
4283.00,1.57
4282.00,1.57
4281.00,1.57
4280.00,1.57
4279.00,1.57
4278.00,1.57
4277.00,1.57
4276.00,1.57
4275.00,1.58
4274.00,1.58
4273.00,1.58
4272.00,1.58
4271.00,1.58
4270.00,1.58
4269.00,1.58
4268.00,1.58
4267.00,1.58
4266.00,1.58
4265.00,1.58
4264.00,1.58
4263.00,1.58
4262.00,1.58
4261.00,1.58
4260.00,1.58
4259.00,1.58
4258.00,1.58
4257.00,1.58
4256.00,1.58
4255.00,1.58
4254.00,1.58
4253.00,1.58
4252.00,1.58
4251.00,1.58
4250.00,1.58
4249.00,1.58
4248.00,1.58
4247.00,1.58
4246.00,1.59
4245.00,1.59
4244.00,1.59
4243.00,1.59
4242.00,1.59
4241.00,1.59
4240.00,1.59
4239.00,1.59
4238.00,1.59
4237.00,1.59
4236.00,1.59
4235.00,1.59
4234.00,1.59
4233.00,1.60
4232.00,1.60
4231.00,1.60
4230.00,1.60
4229.00,1.60
4228.00,1.60
4227.00,1.61
4226.00,1.61
4225.00,1.61
4224.00,1.61
4223.00,1.61
4222.00,1.61
4221.00,1.61
4220.00,1.62
4219.00,1.62
4218.00,1.62
4217.00,1.62
4216.00,1.62
4215.00,1.62
4214.00,1.62
4213.00,1.62
4212.00,1.62
4211.00,1.62
4210.00,1.62
4209.00,1.62
4208.00,1.62
4207.00,1.62
4206.00,1.62
4205.00,1.62
4204.00,1.62
4203.00,1.62
4202.00,1.62
4201.00,1.62
4200.00,1.62
4199.00,1.62
4198.00,1.62
4197.00,1.62
4196.00,1.62
4195.00,1.62
4194.00,1.62
4193.00,1.62
4192.00,1.62
4191.00,1.62
4190.00,1.62
4189.00,1.62
4188.00,1.62
4187.00,1.62
4186.00,1.62
4185.00,1.62
4184.00,1.62
4183.00,1.62
4182.00,1.62
4181.00,1.62
4180.00,1.62
4179.00,1.62
4178.00,1.62
4177.00,1.63
4176.00,1.63
4175.00,1.63
4174.00,1.63
4173.00,1.63
4172.00,1.63
4171.00,1.64
4170.00,1.64
4169.00,1.64
4168.00,1.64
4167.00,1.64
4166.00,1.64
4165.00,1.64
4164.00,1.64
4163.00,1.64
4162.00,1.64
4161.00,1.64
4160.00,1.64
4159.00,1.65
4158.00,1.65
4157.00,1.65
4156.00,1.65
4155.00,1.65
4154.00,1.65
4153.00,1.65
4152.00,1.66
4151.00,1.66
4150.00,1.66
4149.00,1.66
4148.00,1.66
4147.00,1.67
4146.00,1.67
4145.00,1.67
4144.00,1.67
4143.00,1.67
4142.00,1.67
4141.00,1.67
4140.00,1.67
4139.00,1.67
4138.00,1.67
4137.00,1.67
4136.00,1.67
4135.00,1.67
4134.00,1.67
4133.00,1.67
4132.00,1.67
4131.00,1.67
4130.00,1.67
4129.00,1.67
4128.00,1.67
4127.00,1.67
4126.00,1.67
4125.00,1.67
4124.00,1.67
4123.00,1.67
4122.00,1.67
4121.00,1.67
4120.00,1.67
4119.00,1.68
4118.00,1.68
4117.00,1.68
4116.00,1.68
4115.00,1.68
4114.00,1.68
4113.00,1.68
4112.00,1.69
4111.00,1.69
4110.00,1.69
4109.00,1.69
4108.00,1.69
4107.00,1.69
4106.00,1.69
4105.00,1.69
4104.00,1.70
4103.00,1.70
4102.00,1.70
4101.00,1.69
4100.00,1.69
4099.00,1.69
4098.00,1.69
4097.00,1.69
4096.00,1.69
4095.00,1.69
4094.00,1.69
4093.00,1.69
4092.00,1.69
4091.00,1.69
4090.00,1.69
4089.00,1.69
4088.00,1.69
4087.00,1.69
4086.00,1.69
4085.00,1.69
4084.00,1.69
4083.00,1.69
4082.00,1.69
4081.00,1.69
4080.00,1.69
4079.00,1.70
4078.00,1.70
4077.00,1.70
4076.00,1.70
4075.00,1.70
4074.00,1.70
4073.00,1.71
4072.00,1.71
4071.00,1.71
4070.00,1.71
4069.00,1.71
4068.00,1.72
4067.00,1.72
4066.00,1.72
4065.00,1.72
4064.00,1.72
4063.00,1.72
4062.00,1.72
4061.00,1.72
4060.00,1.72
4059.00,1.72
4058.00,1.73
4057.00,1.73
4056.00,1.73
4055.00,1.73
4054.00,1.73
4053.00,1.73
4052.00,1.73
4051.00,1.73
4050.00,1.73
4049.00,1.73
4048.00,1.73
4047.00,1.73
4046.00,1.73
4045.00,1.73
4044.00,1.73
4043.00,1.73
4042.00,1.73
4041.00,1.73
4040.00,1.73
4039.00,1.73
4038.00,1.73
4037.00,1.73
4036.00,1.73
4035.00,1.73
4034.00,1.73
4033.00,1.73
4032.00,1.73
4031.00,1.73
4030.00,1.73
4029.00,1.73
4028.00,1.73
4027.00,1.73
4026.00,1.73
4025.00,1.73
4024.00,1.73
4023.00,1.73
4022.00,1.73
4021.00,1.73
4020.00,1.72
4019.00,1.72
4018.00,1.72
4017.00,1.72
4016.00,1.73
4015.00,1.73
4014.00,1.73
4013.00,1.73
4012.00,1.73
4011.00,1.73
4010.00,1.73
4009.00,1.73
4008.00,1.73
4007.00,1.73
4006.00,1.73
4005.00,1.73
4004.00,1.73
4003.00,1.74
4002.00,1.74
4001.00,1.73
4000.00,1.73
