创建为新数据集,样品 183 用户 Administrator 日期 星期六, 七月 21 2018
cm-1,%T
10000.00,1.56
9999.00,1.56
9998.00,1.56
9997.00,1.56
9996.00,1.56
9995.00,1.56
9994.00,1.56
9993.00,1.56
9992.00,1.56
9991.00,1.56
9990.00,1.56
9989.00,1.56
9988.00,1.56
9987.00,1.56
9986.00,1.55
9985.00,1.55
9984.00,1.55
9983.00,1.54
9982.00,1.54
9981.00,1.54
9980.00,1.53
9979.00,1.53
9978.00,1.53
9977.00,1.52
9976.00,1.52
9975.00,1.52
9974.00,1.51
9973.00,1.51
9972.00,1.51
9971.00,1.51
9970.00,1.51
9969.00,1.51
9968.00,1.51
9967.00,1.51
9966.00,1.51
9965.00,1.51
9964.00,1.51
9963.00,1.51
9962.00,1.51
9961.00,1.51
9960.00,1.51
9959.00,1.51
9958.00,1.51
9957.00,1.51
9956.00,1.51
9955.00,1.51
9954.00,1.51
9953.00,1.51
9952.00,1.51
9951.00,1.51
9950.00,1.51
9949.00,1.52
9948.00,1.52
9947.00,1.52
9946.00,1.52
9945.00,1.52
9944.00,1.52
9943.00,1.52
9942.00,1.52
9941.00,1.52
9940.00,1.52
9939.00,1.52
9938.00,1.52
9937.00,1.52
9936.00,1.52
9935.00,1.52
9934.00,1.52
9933.00,1.52
9932.00,1.52
9931.00,1.52
9930.00,1.52
9929.00,1.52
9928.00,1.52
9927.00,1.52
9926.00,1.51
9925.00,1.51
9924.00,1.51
9923.00,1.51
9922.00,1.51
9921.00,1.51
9920.00,1.51
9919.00,1.51
9918.00,1.50
9917.00,1.50
9916.00,1.50
9915.00,1.50
9914.00,1.51
9913.00,1.51
9912.00,1.51
9911.00,1.51
9910.00,1.51
9909.00,1.51
9908.00,1.51
9907.00,1.51
9906.00,1.51
9905.00,1.51
9904.00,1.52
9903.00,1.52
9902.00,1.52
9901.00,1.52
9900.00,1.52
9899.00,1.52
9898.00,1.52
9897.00,1.53
9896.00,1.53
9895.00,1.53
9894.00,1.53
9893.00,1.53
9892.00,1.53
9891.00,1.53
9890.00,1.53
9889.00,1.53
9888.00,1.53
9887.00,1.53
9886.00,1.53
9885.00,1.53
9884.00,1.53
9883.00,1.53
9882.00,1.53
9881.00,1.53
9880.00,1.53
9879.00,1.53
9878.00,1.53
9877.00,1.53
9876.00,1.52
9875.00,1.52
9874.00,1.52
9873.00,1.52
9872.00,1.52
9871.00,1.52
9870.00,1.52
9869.00,1.52
9868.00,1.52
9867.00,1.52
9866.00,1.52
9865.00,1.52
9864.00,1.52
9863.00,1.52
9862.00,1.52
9861.00,1.52
9860.00,1.52
9859.00,1.52
9858.00,1.53
9857.00,1.53
9856.00,1.53
9855.00,1.53
9854.00,1.53
9853.00,1.53
9852.00,1.54
9851.00,1.54
9850.00,1.54
9849.00,1.54
9848.00,1.54
9847.00,1.54
9846.00,1.54
9845.00,1.54
9844.00,1.54
9843.00,1.54
9842.00,1.54
9841.00,1.54
9840.00,1.54
9839.00,1.54
9838.00,1.54
9837.00,1.53
9836.00,1.53
9835.00,1.53
9834.00,1.53
9833.00,1.53
9832.00,1.52
9831.00,1.52
9830.00,1.52
9829.00,1.52
9828.00,1.52
9827.00,1.52
9826.00,1.51
9825.00,1.51
9824.00,1.51
9823.00,1.51
9822.00,1.51
9821.00,1.51
9820.00,1.51
9819.00,1.51
9818.00,1.51
9817.00,1.51
9816.00,1.51
9815.00,1.51
9814.00,1.51
9813.00,1.51
9812.00,1.51
9811.00,1.51
9810.00,1.51
9809.00,1.51
9808.00,1.51
9807.00,1.51
9806.00,1.51
9805.00,1.51
9804.00,1.51
9803.00,1.51
9802.00,1.51
9801.00,1.51
9800.00,1.51
9799.00,1.51
9798.00,1.51
9797.00,1.51
9796.00,1.51
9795.00,1.51
9794.00,1.51
9793.00,1.51
9792.00,1.51
9791.00,1.51
9790.00,1.51
9789.00,1.51
9788.00,1.51
9787.00,1.51
9786.00,1.51
9785.00,1.52
9784.00,1.52
9783.00,1.52
9782.00,1.52
9781.00,1.52
9780.00,1.52
9779.00,1.52
9778.00,1.52
9777.00,1.53
9776.00,1.53
9775.00,1.53
9774.00,1.53
9773.00,1.53
9772.00,1.53
9771.00,1.53
9770.00,1.54
9769.00,1.54
9768.00,1.54
9767.00,1.54
9766.00,1.54
9765.00,1.54
9764.00,1.54
9763.00,1.54
9762.00,1.54
9761.00,1.55
9760.00,1.55
9759.00,1.55
9758.00,1.55
9757.00,1.55
9756.00,1.55
9755.00,1.55
9754.00,1.55
9753.00,1.55
9752.00,1.55
9751.00,1.55
9750.00,1.54
9749.00,1.54
9748.00,1.54
9747.00,1.54
9746.00,1.54
9745.00,1.54
9744.00,1.53
9743.00,1.53
9742.00,1.53
9741.00,1.53
9740.00,1.53
9739.00,1.53
9738.00,1.53
9737.00,1.53
9736.00,1.53
9735.00,1.53
9734.00,1.53
9733.00,1.53
9732.00,1.53
9731.00,1.53
9730.00,1.53
9729.00,1.53
9728.00,1.54
9727.00,1.54
9726.00,1.54
9725.00,1.54
9724.00,1.54
9723.00,1.54
9722.00,1.54
9721.00,1.54
9720.00,1.54
9719.00,1.54
9718.00,1.54
9717.00,1.53
9716.00,1.53
9715.00,1.53
9714.00,1.53
9713.00,1.53
9712.00,1.53
9711.00,1.53
9710.00,1.53
9709.00,1.53
9708.00,1.53
9707.00,1.52
9706.00,1.52
9705.00,1.52
9704.00,1.52
9703.00,1.52
9702.00,1.52
9701.00,1.52
9700.00,1.52
9699.00,1.52
9698.00,1.52
9697.00,1.52
9696.00,1.52
9695.00,1.52
9694.00,1.52
9693.00,1.52
9692.00,1.52
9691.00,1.53
9690.00,1.53
9689.00,1.53
9688.00,1.53
9687.00,1.53
9686.00,1.53
9685.00,1.54
9684.00,1.54
9683.00,1.54
9682.00,1.54
9681.00,1.54
9680.00,1.54
9679.00,1.54
9678.00,1.54
9677.00,1.54
9676.00,1.54
9675.00,1.53
9674.00,1.53
9673.00,1.53
9672.00,1.53
9671.00,1.53
9670.00,1.53
9669.00,1.52
9668.00,1.52
9667.00,1.52
9666.00,1.52
9665.00,1.52
9664.00,1.52
9663.00,1.52
9662.00,1.52
9661.00,1.51
9660.00,1.51
9659.00,1.51
9658.00,1.51
9657.00,1.51
9656.00,1.51
9655.00,1.51
9654.00,1.51
9653.00,1.51
9652.00,1.51
9651.00,1.52
9650.00,1.52
9649.00,1.52
9648.00,1.52
9647.00,1.52
9646.00,1.52
9645.00,1.53
9644.00,1.53
9643.00,1.53
9642.00,1.53
9641.00,1.54
9640.00,1.54
9639.00,1.54
9638.00,1.54
9637.00,1.54
9636.00,1.55
9635.00,1.55
9634.00,1.55
9633.00,1.55
9632.00,1.55
9631.00,1.55
9630.00,1.55
9629.00,1.55
9628.00,1.55
9627.00,1.55
9626.00,1.56
9625.00,1.56
9624.00,1.56
9623.00,1.56
9622.00,1.56
9621.00,1.56
9620.00,1.56
9619.00,1.56
9618.00,1.56
9617.00,1.56
9616.00,1.56
9615.00,1.56
9614.00,1.56
9613.00,1.56
9612.00,1.56
9611.00,1.56
9610.00,1.56
9609.00,1.56
9608.00,1.56
9607.00,1.55
9606.00,1.55
9605.00,1.55
9604.00,1.55
9603.00,1.54
9602.00,1.54
9601.00,1.54
9600.00,1.54
9599.00,1.54
9598.00,1.53
9597.00,1.53
9596.00,1.53
9595.00,1.53
9594.00,1.53
9593.00,1.53
9592.00,1.53
9591.00,1.53
9590.00,1.53
9589.00,1.53
9588.00,1.53
9587.00,1.53
9586.00,1.53
9585.00,1.53
9584.00,1.53
9583.00,1.53
9582.00,1.53
9581.00,1.53
9580.00,1.53
9579.00,1.53
9578.00,1.53
9577.00,1.53
9576.00,1.53
9575.00,1.53
9574.00,1.53
9573.00,1.53
9572.00,1.53
9571.00,1.53
9570.00,1.53
9569.00,1.53
9568.00,1.53
9567.00,1.53
9566.00,1.53
9565.00,1.53
9564.00,1.53
9563.00,1.53
9562.00,1.53
9561.00,1.53
9560.00,1.53
9559.00,1.53
9558.00,1.53
9557.00,1.54
9556.00,1.54
9555.00,1.54
9554.00,1.54
9553.00,1.54
9552.00,1.54
9551.00,1.54
9550.00,1.54
9549.00,1.54
9548.00,1.54
9547.00,1.54
9546.00,1.55
9545.00,1.55
9544.00,1.55
9543.00,1.55
9542.00,1.55
9541.00,1.55
9540.00,1.55
9539.00,1.55
9538.00,1.55
9537.00,1.55
9536.00,1.55
9535.00,1.55
9534.00,1.55
9533.00,1.55
9532.00,1.55
9531.00,1.55
9530.00,1.55
9529.00,1.55
9528.00,1.55
9527.00,1.55
9526.00,1.55
9525.00,1.55
9524.00,1.55
9523.00,1.55
9522.00,1.55
9521.00,1.55
9520.00,1.55
9519.00,1.55
9518.00,1.55
9517.00,1.55
9516.00,1.55
9515.00,1.55
9514.00,1.55
9513.00,1.55
9512.00,1.55
9511.00,1.55
9510.00,1.55
9509.00,1.55
9508.00,1.55
9507.00,1.54
9506.00,1.54
9505.00,1.54
9504.00,1.54
9503.00,1.55
9502.00,1.55
9501.00,1.55
9500.00,1.55
9499.00,1.55
9498.00,1.55
9497.00,1.55
9496.00,1.55
9495.00,1.55
9494.00,1.55
9493.00,1.55
9492.00,1.56
9491.00,1.56
9490.00,1.56
9489.00,1.56
9488.00,1.56
9487.00,1.56
9486.00,1.56
9485.00,1.56
9484.00,1.56
9483.00,1.55
9482.00,1.55
9481.00,1.55
9480.00,1.55
9479.00,1.55
9478.00,1.55
9477.00,1.55
9476.00,1.55
9475.00,1.55
9474.00,1.55
9473.00,1.55
9472.00,1.55
9471.00,1.54
9470.00,1.54
9469.00,1.54
9468.00,1.54
9467.00,1.55
9466.00,1.55
9465.00,1.55
9464.00,1.55
9463.00,1.55
9462.00,1.55
9461.00,1.55
9460.00,1.55
9459.00,1.56
9458.00,1.56
9457.00,1.56
9456.00,1.56
9455.00,1.56
9454.00,1.56
9453.00,1.56
9452.00,1.56
9451.00,1.56
9450.00,1.56
9449.00,1.55
9448.00,1.55
9447.00,1.55
9446.00,1.55
9445.00,1.55
9444.00,1.55
9443.00,1.55
9442.00,1.55
9441.00,1.55
9440.00,1.55
9439.00,1.55
9438.00,1.55
9437.00,1.55
9436.00,1.55
9435.00,1.55
9434.00,1.55
9433.00,1.55
9432.00,1.55
9431.00,1.55
9430.00,1.55
9429.00,1.55
9428.00,1.55
9427.00,1.55
9426.00,1.55
9425.00,1.55
9424.00,1.55
9423.00,1.55
9422.00,1.55
9421.00,1.55
9420.00,1.55
9419.00,1.55
9418.00,1.55
9417.00,1.55
9416.00,1.54
9415.00,1.54
9414.00,1.54
9413.00,1.54
9412.00,1.54
9411.00,1.54
9410.00,1.54
9409.00,1.54
9408.00,1.54
9407.00,1.54
9406.00,1.54
9405.00,1.54
9404.00,1.54
9403.00,1.54
9402.00,1.54
9401.00,1.54
9400.00,1.54
9399.00,1.54
9398.00,1.54
9397.00,1.54
9396.00,1.54
9395.00,1.54
9394.00,1.54
9393.00,1.54
9392.00,1.54
9391.00,1.54
9390.00,1.54
9389.00,1.53
9388.00,1.53
9387.00,1.53
9386.00,1.53
9385.00,1.53
9384.00,1.52
9383.00,1.52
9382.00,1.52
9381.00,1.52
9380.00,1.52
9379.00,1.51
9378.00,1.51
9377.00,1.51
9376.00,1.51
9375.00,1.51
9374.00,1.51
9373.00,1.50
9372.00,1.50
9371.00,1.50
9370.00,1.50
9369.00,1.50
9368.00,1.50
9367.00,1.50
9366.00,1.50
9365.00,1.50
9364.00,1.50
9363.00,1.50
9362.00,1.50
9361.00,1.50
9360.00,1.50
9359.00,1.50
9358.00,1.50
9357.00,1.50
9356.00,1.50
9355.00,1.50
9354.00,1.50
9353.00,1.50
9352.00,1.50
9351.00,1.50
9350.00,1.50
9349.00,1.50
9348.00,1.50
9347.00,1.50
9346.00,1.50
9345.00,1.51
9344.00,1.51
9343.00,1.51
9342.00,1.51
9341.00,1.52
9340.00,1.52
9339.00,1.52
9338.00,1.52
9337.00,1.52
9336.00,1.53
9335.00,1.53
9334.00,1.53
9333.00,1.53
9332.00,1.53
9331.00,1.53
9330.00,1.53
9329.00,1.53
9328.00,1.52
9327.00,1.52
9326.00,1.52
9325.00,1.52
9324.00,1.52
9323.00,1.52
9322.00,1.52
9321.00,1.52
9320.00,1.52
9319.00,1.52
9318.00,1.52
9317.00,1.52
9316.00,1.52
9315.00,1.52
9314.00,1.52
9313.00,1.52
9312.00,1.52
9311.00,1.52
9310.00,1.52
9309.00,1.52
9308.00,1.53
9307.00,1.53
9306.00,1.53
9305.00,1.53
9304.00,1.53
9303.00,1.53
9302.00,1.53
9301.00,1.53
9300.00,1.53
9299.00,1.53
9298.00,1.53
9297.00,1.53
9296.00,1.53
9295.00,1.54
9294.00,1.54
9293.00,1.54
9292.00,1.54
9291.00,1.54
9290.00,1.54
9289.00,1.54
9288.00,1.54
9287.00,1.54
9286.00,1.54
9285.00,1.54
9284.00,1.54
9283.00,1.54
9282.00,1.54
9281.00,1.54
9280.00,1.54
9279.00,1.54
9278.00,1.54
9277.00,1.55
9276.00,1.55
9275.00,1.55
9274.00,1.55
9273.00,1.55
9272.00,1.55
9271.00,1.55
9270.00,1.55
9269.00,1.55
9268.00,1.55
9267.00,1.55
9266.00,1.55
9265.00,1.55
9264.00,1.55
9263.00,1.55
9262.00,1.55
9261.00,1.55
9260.00,1.55
9259.00,1.55
9258.00,1.55
9257.00,1.55
9256.00,1.55
9255.00,1.55
9254.00,1.55
9253.00,1.55
9252.00,1.55
9251.00,1.55
9250.00,1.55
9249.00,1.55
9248.00,1.55
9247.00,1.55
9246.00,1.55
9245.00,1.55
9244.00,1.55
9243.00,1.54
9242.00,1.54
9241.00,1.54
9240.00,1.54
9239.00,1.54
9238.00,1.54
9237.00,1.54
9236.00,1.54
9235.00,1.54
9234.00,1.53
9233.00,1.53
9232.00,1.53
9231.00,1.53
9230.00,1.53
9229.00,1.53
9228.00,1.54
9227.00,1.54
9226.00,1.54
9225.00,1.54
9224.00,1.54
9223.00,1.54
9222.00,1.54
9221.00,1.54
9220.00,1.54
9219.00,1.54
9218.00,1.55
9217.00,1.55
9216.00,1.55
9215.00,1.55
9214.00,1.55
9213.00,1.55
9212.00,1.55
9211.00,1.55
9210.00,1.54
9209.00,1.54
9208.00,1.54
9207.00,1.54
9206.00,1.54
9205.00,1.54
9204.00,1.54
9203.00,1.54
9202.00,1.54
9201.00,1.54
9200.00,1.54
9199.00,1.54
9198.00,1.54
9197.00,1.54
9196.00,1.54
9195.00,1.54
9194.00,1.54
9193.00,1.54
9192.00,1.54
9191.00,1.54
9190.00,1.54
9189.00,1.54
9188.00,1.54
9187.00,1.53
9186.00,1.53
9185.00,1.53
9184.00,1.53
9183.00,1.53
9182.00,1.53
9181.00,1.53
9180.00,1.52
9179.00,1.52
9178.00,1.52
9177.00,1.52
9176.00,1.52
9175.00,1.52
9174.00,1.52
9173.00,1.52
9172.00,1.52
9171.00,1.52
9170.00,1.52
9169.00,1.52
9168.00,1.53
9167.00,1.53
9166.00,1.53
9165.00,1.54
9164.00,1.54
9163.00,1.54
9162.00,1.54
9161.00,1.55
9160.00,1.55
9159.00,1.55
9158.00,1.55
9157.00,1.55
9156.00,1.56
9155.00,1.56
9154.00,1.56
9153.00,1.56
9152.00,1.56
9151.00,1.56
9150.00,1.55
9149.00,1.55
9148.00,1.55
9147.00,1.55
9146.00,1.55
9145.00,1.55
9144.00,1.55
9143.00,1.55
9142.00,1.54
9141.00,1.54
9140.00,1.54
9139.00,1.54
9138.00,1.54
9137.00,1.54
9136.00,1.54
9135.00,1.54
9134.00,1.54
9133.00,1.54
9132.00,1.54
9131.00,1.54
9130.00,1.54
9129.00,1.54
9128.00,1.54
9127.00,1.54
9126.00,1.54
9125.00,1.53
9124.00,1.53
9123.00,1.53
9122.00,1.53
9121.00,1.53
9120.00,1.53
9119.00,1.52
9118.00,1.52
9117.00,1.52
9116.00,1.52
9115.00,1.52
9114.00,1.52
9113.00,1.52
9112.00,1.52
9111.00,1.52
9110.00,1.52
9109.00,1.52
9108.00,1.52
9107.00,1.52
9106.00,1.52
9105.00,1.53
9104.00,1.53
9103.00,1.53
9102.00,1.53
9101.00,1.53
9100.00,1.53
9099.00,1.53
9098.00,1.53
9097.00,1.53
9096.00,1.53
9095.00,1.53
9094.00,1.53
9093.00,1.54
9092.00,1.54
9091.00,1.54
9090.00,1.54
9089.00,1.54
9088.00,1.54
9087.00,1.55
9086.00,1.55
9085.00,1.55
9084.00,1.55
9083.00,1.55
9082.00,1.56
9081.00,1.56
9080.00,1.56
9079.00,1.56
9078.00,1.56
9077.00,1.56
9076.00,1.56
9075.00,1.56
9074.00,1.56
9073.00,1.56
9072.00,1.55
9071.00,1.55
9070.00,1.55
9069.00,1.55
9068.00,1.55
9067.00,1.55
9066.00,1.54
9065.00,1.54
9064.00,1.54
9063.00,1.54
9062.00,1.54
9061.00,1.54
9060.00,1.53
9059.00,1.53
9058.00,1.53
9057.00,1.53
9056.00,1.53
9055.00,1.53
9054.00,1.53
9053.00,1.53
9052.00,1.53
9051.00,1.53
9050.00,1.53
9049.00,1.53
9048.00,1.53
9047.00,1.54
9046.00,1.54
9045.00,1.54
9044.00,1.54
9043.00,1.54
9042.00,1.54
9041.00,1.54
9040.00,1.54
9039.00,1.54
9038.00,1.54
9037.00,1.54
9036.00,1.55
9035.00,1.55
9034.00,1.55
9033.00,1.55
9032.00,1.55
9031.00,1.55
9030.00,1.55
9029.00,1.55
9028.00,1.55
9027.00,1.54
9026.00,1.54
9025.00,1.54
9024.00,1.54
9023.00,1.54
9022.00,1.54
9021.00,1.54
9020.00,1.53
9019.00,1.53
9018.00,1.53
9017.00,1.53
9016.00,1.53
9015.00,1.53
9014.00,1.53
9013.00,1.53
9012.00,1.53
9011.00,1.53
9010.00,1.53
9009.00,1.53
9008.00,1.53
9007.00,1.54
9006.00,1.54
9005.00,1.54
9004.00,1.54
9003.00,1.54
9002.00,1.55
9001.00,1.55
9000.00,1.55
8999.00,1.55
8998.00,1.55
8997.00,1.55
8996.00,1.55
8995.00,1.55
8994.00,1.55
8993.00,1.55
8992.00,1.55
8991.00,1.55
8990.00,1.55
8989.00,1.55
8988.00,1.54
8987.00,1.54
8986.00,1.55
8985.00,1.55
8984.00,1.55
8983.00,1.55
8982.00,1.55
8981.00,1.55
8980.00,1.55
8979.00,1.55
8978.00,1.55
8977.00,1.56
8976.00,1.56
8975.00,1.56
8974.00,1.56
8973.00,1.56
8972.00,1.56
8971.00,1.56
8970.00,1.56
8969.00,1.56
8968.00,1.56
8967.00,1.55
8966.00,1.55
8965.00,1.55
8964.00,1.55
8963.00,1.55
8962.00,1.55
8961.00,1.55
8960.00,1.55
8959.00,1.55
8958.00,1.55
8957.00,1.55
8956.00,1.55
8955.00,1.55
8954.00,1.55
8953.00,1.55
8952.00,1.55
8951.00,1.55
8950.00,1.55
8949.00,1.55
8948.00,1.55
8947.00,1.55
8946.00,1.55
8945.00,1.55
8944.00,1.55
8943.00,1.55
8942.00,1.54
8941.00,1.54
8940.00,1.54
8939.00,1.54
8938.00,1.54
8937.00,1.54
8936.00,1.54
8935.00,1.54
8934.00,1.54
8933.00,1.54
8932.00,1.54
8931.00,1.54
8930.00,1.54
8929.00,1.54
8928.00,1.54
8927.00,1.54
8926.00,1.54
8925.00,1.54
8924.00,1.54
8923.00,1.54
8922.00,1.54
8921.00,1.55
8920.00,1.55
8919.00,1.55
8918.00,1.55
8917.00,1.55
8916.00,1.55
8915.00,1.55
8914.00,1.55
8913.00,1.55
8912.00,1.55
8911.00,1.55
8910.00,1.55
8909.00,1.55
8908.00,1.55
8907.00,1.55
8906.00,1.55
8905.00,1.54
8904.00,1.54
8903.00,1.54
8902.00,1.54
8901.00,1.54
8900.00,1.54
8899.00,1.53
8898.00,1.53
8897.00,1.53
8896.00,1.53
8895.00,1.53
8894.00,1.53
8893.00,1.53
8892.00,1.53
8891.00,1.53
8890.00,1.53
8889.00,1.53
8888.00,1.53
8887.00,1.53
8886.00,1.53
8885.00,1.53
8884.00,1.54
8883.00,1.54
8882.00,1.54
8881.00,1.54
8880.00,1.54
8879.00,1.54
8878.00,1.55
8877.00,1.55
8876.00,1.55
8875.00,1.55
8874.00,1.55
8873.00,1.56
8872.00,1.56
8871.00,1.56
8870.00,1.56
8869.00,1.56
8868.00,1.56
8867.00,1.56
8866.00,1.56
8865.00,1.56
8864.00,1.56
8863.00,1.56
8862.00,1.56
8861.00,1.56
8860.00,1.56
8859.00,1.56
8858.00,1.56
8857.00,1.56
8856.00,1.56
8855.00,1.56
8854.00,1.55
8853.00,1.55
8852.00,1.55
8851.00,1.55
8850.00,1.55
8849.00,1.55
8848.00,1.55
8847.00,1.55
8846.00,1.55
8845.00,1.55
8844.00,1.55
8843.00,1.55
8842.00,1.55
8841.00,1.55
8840.00,1.55
8839.00,1.55
8838.00,1.55
8837.00,1.54
8836.00,1.54
8835.00,1.54
8834.00,1.54
8833.00,1.53
8832.00,1.53
8831.00,1.53
8830.00,1.52
8829.00,1.52
8828.00,1.52
8827.00,1.52
8826.00,1.52
8825.00,1.51
8824.00,1.51
8823.00,1.51
8822.00,1.51
8821.00,1.51
8820.00,1.51
8819.00,1.51
8818.00,1.51
8817.00,1.51
8816.00,1.51
8815.00,1.51
8814.00,1.51
8813.00,1.51
8812.00,1.51
8811.00,1.51
8810.00,1.51
8809.00,1.51
8808.00,1.51
8807.00,1.51
8806.00,1.50
8805.00,1.50
8804.00,1.50
8803.00,1.50
8802.00,1.50
8801.00,1.50
8800.00,1.49
8799.00,1.49
8798.00,1.49
8797.00,1.49
8796.00,1.49
8795.00,1.49
8794.00,1.49
8793.00,1.49
8792.00,1.48
8791.00,1.48
8790.00,1.48
8789.00,1.48
8788.00,1.48
8787.00,1.48
8786.00,1.48
8785.00,1.48
8784.00,1.48
8783.00,1.48
8782.00,1.48
8781.00,1.48
8780.00,1.48
8779.00,1.48
8778.00,1.48
8777.00,1.48
8776.00,1.48
8775.00,1.48
8774.00,1.48
8773.00,1.48
8772.00,1.48
8771.00,1.48
8770.00,1.48
8769.00,1.48
8768.00,1.48
8767.00,1.48
8766.00,1.48
8765.00,1.48
8764.00,1.48
8763.00,1.48
8762.00,1.48
8761.00,1.48
8760.00,1.48
8759.00,1.48
8758.00,1.48
8757.00,1.48
8756.00,1.48
8755.00,1.47
8754.00,1.47
8753.00,1.47
8752.00,1.47
8751.00,1.47
8750.00,1.47
8749.00,1.47
8748.00,1.47
8747.00,1.47
8746.00,1.47
8745.00,1.47
8744.00,1.47
8743.00,1.48
8742.00,1.48
8741.00,1.48
8740.00,1.48
8739.00,1.48
8738.00,1.48
8737.00,1.48
8736.00,1.48
8735.00,1.48
8734.00,1.48
8733.00,1.49
8732.00,1.49
8731.00,1.49
8730.00,1.49
8729.00,1.49
8728.00,1.49
8727.00,1.49
8726.00,1.49
8725.00,1.49
8724.00,1.49
8723.00,1.49
8722.00,1.49
8721.00,1.49
8720.00,1.49
8719.00,1.49
8718.00,1.49
8717.00,1.49
8716.00,1.49
8715.00,1.49
8714.00,1.49
8713.00,1.49
8712.00,1.48
8711.00,1.48
8710.00,1.48
8709.00,1.48
8708.00,1.48
8707.00,1.48
8706.00,1.48
8705.00,1.48
8704.00,1.48
8703.00,1.48
8702.00,1.48
8701.00,1.48
8700.00,1.48
8699.00,1.48
8698.00,1.48
8697.00,1.48
8696.00,1.48
8695.00,1.48
8694.00,1.48
8693.00,1.48
8692.00,1.48
8691.00,1.48
8690.00,1.48
8689.00,1.48
8688.00,1.48
8687.00,1.48
8686.00,1.48
8685.00,1.48
8684.00,1.48
8683.00,1.48
8682.00,1.48
8681.00,1.48
8680.00,1.48
8679.00,1.48
8678.00,1.48
8677.00,1.48
8676.00,1.48
8675.00,1.48
8674.00,1.48
8673.00,1.48
8672.00,1.47
8671.00,1.47
8670.00,1.47
8669.00,1.47
8668.00,1.47
8667.00,1.47
8666.00,1.47
8665.00,1.47
8664.00,1.46
8663.00,1.46
8662.00,1.46
8661.00,1.46
8660.00,1.46
8659.00,1.46
8658.00,1.46
8657.00,1.46
8656.00,1.46
8655.00,1.46
8654.00,1.46
8653.00,1.46
8652.00,1.46
8651.00,1.46
8650.00,1.45
8649.00,1.45
8648.00,1.45
8647.00,1.45
8646.00,1.45
8645.00,1.45
8644.00,1.45
8643.00,1.45
8642.00,1.45
8641.00,1.45
8640.00,1.46
8639.00,1.46
8638.00,1.46
8637.00,1.46
8636.00,1.46
8635.00,1.46
8634.00,1.46
8633.00,1.46
8632.00,1.46
8631.00,1.46
8630.00,1.46
8629.00,1.46
8628.00,1.46
8627.00,1.46
8626.00,1.46
8625.00,1.46
8624.00,1.46
8623.00,1.45
8622.00,1.45
8621.00,1.45
8620.00,1.45
8619.00,1.45
8618.00,1.44
8617.00,1.44
8616.00,1.44
8615.00,1.44
8614.00,1.44
8613.00,1.44
8612.00,1.44
8611.00,1.43
8610.00,1.43
8609.00,1.43
8608.00,1.43
8607.00,1.44
8606.00,1.44
8605.00,1.44
8604.00,1.44
8603.00,1.44
8602.00,1.44
8601.00,1.44
8600.00,1.44
8599.00,1.44
8598.00,1.44
8597.00,1.44
8596.00,1.44
8595.00,1.43
8594.00,1.43
8593.00,1.43
8592.00,1.43
8591.00,1.43
8590.00,1.43
8589.00,1.43
8588.00,1.43
8587.00,1.43
8586.00,1.43
8585.00,1.43
8584.00,1.43
8583.00,1.43
8582.00,1.43
8581.00,1.43
8580.00,1.43
8579.00,1.43
8578.00,1.43
8577.00,1.43
8576.00,1.43
8575.00,1.43
8574.00,1.43
8573.00,1.43
8572.00,1.43
8571.00,1.44
8570.00,1.44
8569.00,1.44
8568.00,1.44
8567.00,1.44
8566.00,1.44
8565.00,1.44
8564.00,1.44
8563.00,1.44
8562.00,1.44
8561.00,1.44
8560.00,1.44
8559.00,1.44
8558.00,1.44
8557.00,1.44
8556.00,1.43
8555.00,1.43
8554.00,1.43
8553.00,1.43
8552.00,1.43
8551.00,1.43
8550.00,1.43
8549.00,1.43
8548.00,1.43
8547.00,1.42
8546.00,1.42
8545.00,1.42
8544.00,1.42
8543.00,1.42
8542.00,1.42
8541.00,1.42
8540.00,1.42
8539.00,1.42
8538.00,1.42
8537.00,1.42
8536.00,1.42
8535.00,1.42
8534.00,1.42
8533.00,1.42
8532.00,1.42
8531.00,1.42
8530.00,1.42
8529.00,1.42
8528.00,1.42
8527.00,1.42
8526.00,1.42
8525.00,1.42
8524.00,1.42
8523.00,1.41
8522.00,1.41
8521.00,1.41
8520.00,1.41
8519.00,1.41
8518.00,1.40
8517.00,1.40
8516.00,1.40
8515.00,1.40
8514.00,1.40
8513.00,1.39
8512.00,1.39
8511.00,1.39
8510.00,1.39
8509.00,1.39
8508.00,1.39
8507.00,1.39
8506.00,1.39
8505.00,1.39
8504.00,1.39
8503.00,1.39
8502.00,1.39
8501.00,1.39
8500.00,1.39
8499.00,1.39
8498.00,1.39
8497.00,1.39
8496.00,1.39
8495.00,1.39
8494.00,1.39
8493.00,1.39
8492.00,1.39
8491.00,1.39
8490.00,1.39
8489.00,1.39
8488.00,1.38
8487.00,1.38
8486.00,1.38
8485.00,1.38
8484.00,1.38
8483.00,1.38
8482.00,1.38
8481.00,1.38
8480.00,1.38
8479.00,1.38
8478.00,1.38
8477.00,1.38
8476.00,1.38
8475.00,1.38
8474.00,1.38
8473.00,1.38
8472.00,1.37
8471.00,1.37
8470.00,1.37
8469.00,1.37
8468.00,1.37
8467.00,1.37
8466.00,1.37
8465.00,1.37
8464.00,1.36
8463.00,1.36
8462.00,1.36
8461.00,1.36
8460.00,1.36
8459.00,1.36
8458.00,1.36
8457.00,1.36
8456.00,1.36
8455.00,1.36
8454.00,1.35
8453.00,1.35
8452.00,1.35
8451.00,1.35
8450.00,1.35
8449.00,1.35
8448.00,1.36
8447.00,1.36
8446.00,1.36
8445.00,1.36
8444.00,1.36
8443.00,1.36
8442.00,1.36
8441.00,1.36
8440.00,1.36
8439.00,1.36
8438.00,1.36
8437.00,1.36
8436.00,1.37
8435.00,1.37
8434.00,1.37
8433.00,1.37
8432.00,1.37
8431.00,1.37
8430.00,1.37
8429.00,1.37
8428.00,1.37
8427.00,1.37
8426.00,1.37
8425.00,1.37
8424.00,1.37
8423.00,1.37
8422.00,1.37
8421.00,1.36
8420.00,1.36
8419.00,1.36
8418.00,1.36
8417.00,1.36
8416.00,1.36
8415.00,1.36
8414.00,1.36
8413.00,1.36
8412.00,1.36
8411.00,1.36
8410.00,1.36
8409.00,1.36
8408.00,1.36
8407.00,1.36
8406.00,1.36
8405.00,1.36
8404.00,1.36
8403.00,1.36
8402.00,1.36
8401.00,1.36
8400.00,1.36
8399.00,1.37
8398.00,1.37
8397.00,1.37
8396.00,1.37
8395.00,1.37
8394.00,1.37
8393.00,1.38
8392.00,1.38
8391.00,1.38
8390.00,1.38
8389.00,1.38
8388.00,1.38
8387.00,1.38
8386.00,1.38
8385.00,1.38
8384.00,1.38
8383.00,1.39
8382.00,1.39
8381.00,1.39
8380.00,1.39
8379.00,1.39
8378.00,1.39
8377.00,1.39
8376.00,1.39
8375.00,1.39
8374.00,1.39
8373.00,1.39
8372.00,1.39
8371.00,1.39
8370.00,1.39
8369.00,1.40
8368.00,1.40
8367.00,1.40
8366.00,1.40
8365.00,1.40
8364.00,1.40
8363.00,1.40
8362.00,1.40
8361.00,1.40
8360.00,1.40
8359.00,1.40
8358.00,1.40
8357.00,1.40
8356.00,1.40
8355.00,1.40
8354.00,1.40
8353.00,1.40
8352.00,1.41
8351.00,1.41
8350.00,1.41
8349.00,1.41
8348.00,1.41
8347.00,1.41
8346.00,1.41
8345.00,1.41
8344.00,1.41
8343.00,1.41
8342.00,1.42
8341.00,1.42
8340.00,1.42
8339.00,1.42
8338.00,1.42
8337.00,1.41
8336.00,1.41
8335.00,1.41
8334.00,1.41
8333.00,1.41
8332.00,1.41
8331.00,1.41
8330.00,1.41
8329.00,1.40
8328.00,1.40
8327.00,1.40
8326.00,1.40
8325.00,1.40
8324.00,1.40
8323.00,1.40
8322.00,1.40
8321.00,1.40
8320.00,1.40
8319.00,1.40
8318.00,1.40
8317.00,1.40
8316.00,1.40
8315.00,1.40
8314.00,1.40
8313.00,1.41
8312.00,1.41
8311.00,1.41
8310.00,1.41
8309.00,1.41
8308.00,1.41
8307.00,1.41
8306.00,1.41
8305.00,1.41
8304.00,1.42
8303.00,1.42
8302.00,1.42
8301.00,1.42
8300.00,1.42
8299.00,1.42
8298.00,1.42
8297.00,1.42
8296.00,1.42
8295.00,1.42
8294.00,1.42
8293.00,1.42
8292.00,1.42
8291.00,1.42
8290.00,1.42
8289.00,1.42
8288.00,1.42
8287.00,1.42
8286.00,1.42
8285.00,1.42
8284.00,1.42
8283.00,1.42
8282.00,1.42
8281.00,1.42
8280.00,1.42
8279.00,1.42
8278.00,1.42
8277.00,1.42
8276.00,1.42
8275.00,1.42
8274.00,1.42
8273.00,1.42
8272.00,1.42
8271.00,1.42
8270.00,1.42
8269.00,1.42
8268.00,1.42
8267.00,1.42
8266.00,1.42
8265.00,1.42
8264.00,1.42
8263.00,1.42
8262.00,1.42
8261.00,1.42
8260.00,1.42
8259.00,1.42
8258.00,1.42
8257.00,1.42
8256.00,1.42
8255.00,1.42
8254.00,1.42
8253.00,1.43
8252.00,1.43
8251.00,1.43
8250.00,1.43
8249.00,1.43
8248.00,1.43
8247.00,1.43
8246.00,1.43
8245.00,1.43
8244.00,1.43
8243.00,1.44
8242.00,1.44
8241.00,1.44
8240.00,1.44
8239.00,1.44
8238.00,1.44
8237.00,1.44
8236.00,1.44
8235.00,1.44
8234.00,1.44
8233.00,1.43
8232.00,1.43
8231.00,1.43
8230.00,1.43
8229.00,1.43
8228.00,1.43
8227.00,1.43
8226.00,1.43
8225.00,1.43
8224.00,1.43
8223.00,1.43
8222.00,1.43
8221.00,1.43
8220.00,1.43
8219.00,1.43
8218.00,1.43
8217.00,1.44
8216.00,1.44
8215.00,1.44
8214.00,1.44
8213.00,1.44
8212.00,1.44
8211.00,1.44
8210.00,1.44
8209.00,1.44
8208.00,1.44
8207.00,1.44
8206.00,1.44
8205.00,1.44
8204.00,1.44
8203.00,1.44
8202.00,1.44
8201.00,1.44
8200.00,1.44
8199.00,1.44
8198.00,1.44
8197.00,1.44
8196.00,1.44
8195.00,1.44
8194.00,1.44
8193.00,1.44
8192.00,1.44
8191.00,1.44
8190.00,1.44
8189.00,1.44
8188.00,1.44
8187.00,1.44
8186.00,1.44
8185.00,1.44
8184.00,1.45
8183.00,1.45
8182.00,1.45
8181.00,1.45
8180.00,1.45
8179.00,1.45
8178.00,1.45
8177.00,1.45
8176.00,1.45
8175.00,1.45
8174.00,1.45
8173.00,1.45
8172.00,1.45
8171.00,1.45
8170.00,1.45
8169.00,1.45
8168.00,1.45
8167.00,1.45
8166.00,1.45
8165.00,1.45
8164.00,1.45
8163.00,1.45
8162.00,1.45
8161.00,1.45
8160.00,1.45
8159.00,1.45
8158.00,1.45
8157.00,1.45
8156.00,1.45
8155.00,1.46
8154.00,1.46
8153.00,1.46
8152.00,1.46
8151.00,1.46
8150.00,1.46
8149.00,1.47
8148.00,1.47
8147.00,1.47
8146.00,1.47
8145.00,1.47
8144.00,1.47
8143.00,1.47
8142.00,1.48
8141.00,1.48
8140.00,1.48
8139.00,1.48
8138.00,1.48
8137.00,1.48
8136.00,1.48
8135.00,1.48
8134.00,1.48
8133.00,1.48
8132.00,1.48
8131.00,1.48
8130.00,1.48
8129.00,1.48
8128.00,1.48
8127.00,1.48
8126.00,1.48
8125.00,1.48
8124.00,1.48
8123.00,1.48
8122.00,1.48
8121.00,1.48
8120.00,1.48
8119.00,1.48
8118.00,1.48
8117.00,1.48
8116.00,1.48
8115.00,1.48
8114.00,1.48
8113.00,1.48
8112.00,1.48
8111.00,1.48
8110.00,1.48
8109.00,1.48
8108.00,1.49
8107.00,1.49
8106.00,1.49
8105.00,1.49
8104.00,1.49
8103.00,1.49
8102.00,1.49
8101.00,1.49
8100.00,1.49
8099.00,1.49
8098.00,1.49
8097.00,1.49
8096.00,1.49
8095.00,1.49
8094.00,1.49
8093.00,1.49
8092.00,1.49
8091.00,1.49
8090.00,1.49
8089.00,1.49
8088.00,1.49
8087.00,1.49
8086.00,1.49
8085.00,1.49
8084.00,1.49
8083.00,1.49
8082.00,1.49
8081.00,1.49
8080.00,1.49
8079.00,1.49
8078.00,1.49
8077.00,1.49
8076.00,1.49
8075.00,1.49
8074.00,1.49
8073.00,1.49
8072.00,1.48
8071.00,1.48
8070.00,1.48
8069.00,1.48
8068.00,1.48
8067.00,1.48
8066.00,1.48
8065.00,1.48
8064.00,1.48
8063.00,1.48
8062.00,1.48
8061.00,1.48
8060.00,1.48
8059.00,1.48
8058.00,1.48
8057.00,1.48
8056.00,1.49
8055.00,1.49
8054.00,1.49
8053.00,1.49
8052.00,1.49
8051.00,1.49
8050.00,1.49
8049.00,1.49
8048.00,1.49
8047.00,1.49
8046.00,1.50
8045.00,1.50
8044.00,1.50
8043.00,1.50
8042.00,1.50
8041.00,1.50
8040.00,1.50
8039.00,1.50
8038.00,1.51
8037.00,1.51
8036.00,1.51
8035.00,1.51
8034.00,1.51
8033.00,1.51
8032.00,1.51
8031.00,1.51
8030.00,1.51
8029.00,1.51
8028.00,1.51
8027.00,1.51
8026.00,1.51
8025.00,1.51
8024.00,1.51
8023.00,1.50
8022.00,1.50
8021.00,1.50
8020.00,1.50
8019.00,1.50
8018.00,1.50
8017.00,1.50
8016.00,1.50
8015.00,1.50
8014.00,1.50
8013.00,1.50
8012.00,1.50
8011.00,1.51
8010.00,1.51
8009.00,1.51
8008.00,1.51
8007.00,1.51
8006.00,1.51
8005.00,1.51
8004.00,1.51
8003.00,1.51
8002.00,1.52
8001.00,1.52
8000.00,1.52
7999.00,1.52
7998.00,1.52
7997.00,1.52
7996.00,1.52
7995.00,1.52
7994.00,1.52
7993.00,1.52
7992.00,1.52
7991.00,1.52
7990.00,1.52
7989.00,1.52
7988.00,1.52
7987.00,1.52
7986.00,1.52
7985.00,1.52
7984.00,1.51
7983.00,1.51
7982.00,1.51
7981.00,1.51
7980.00,1.51
7979.00,1.51
7978.00,1.51
7977.00,1.51
7976.00,1.51
7975.00,1.51
7974.00,1.51
7973.00,1.51
7972.00,1.50
7971.00,1.50
7970.00,1.50
7969.00,1.50
7968.00,1.50
7967.00,1.50
7966.00,1.50
7965.00,1.50
7964.00,1.50
7963.00,1.50
7962.00,1.50
7961.00,1.50
7960.00,1.50
7959.00,1.50
7958.00,1.50
7957.00,1.50
7956.00,1.50
7955.00,1.51
7954.00,1.51
7953.00,1.51
7952.00,1.51
7951.00,1.51
7950.00,1.51
7949.00,1.51
7948.00,1.51
7947.00,1.51
7946.00,1.51
7945.00,1.51
7944.00,1.51
7943.00,1.52
7942.00,1.52
7941.00,1.52
7940.00,1.52
7939.00,1.52
7938.00,1.52
7937.00,1.52
7936.00,1.52
7935.00,1.52
7934.00,1.52
7933.00,1.52
7932.00,1.52
7931.00,1.52
7930.00,1.52
7929.00,1.52
7928.00,1.52
7927.00,1.52
7926.00,1.52
7925.00,1.52
7924.00,1.52
7923.00,1.52
7922.00,1.52
7921.00,1.53
7920.00,1.53
7919.00,1.53
7918.00,1.53
7917.00,1.53
7916.00,1.53
7915.00,1.53
7914.00,1.53
7913.00,1.53
7912.00,1.53
7911.00,1.53
7910.00,1.53
7909.00,1.53
7908.00,1.53
7907.00,1.53
7906.00,1.53
7905.00,1.53
7904.00,1.52
7903.00,1.52
7902.00,1.52
7901.00,1.52
7900.00,1.52
7899.00,1.52
7898.00,1.52
7897.00,1.52
7896.00,1.52
7895.00,1.52
7894.00,1.52
7893.00,1.52
7892.00,1.52
7891.00,1.52
7890.00,1.52
7889.00,1.52
7888.00,1.53
7887.00,1.53
7886.00,1.53
7885.00,1.53
7884.00,1.53
7883.00,1.53
7882.00,1.53
7881.00,1.53
7880.00,1.53
7879.00,1.53
7878.00,1.53
7877.00,1.53
7876.00,1.53
7875.00,1.53
7874.00,1.53
7873.00,1.53
7872.00,1.53
7871.00,1.54
7870.00,1.54
7869.00,1.54
7868.00,1.54
7867.00,1.54
7866.00,1.54
7865.00,1.54
7864.00,1.54
7863.00,1.54
7862.00,1.54
7861.00,1.54
7860.00,1.54
7859.00,1.54
7858.00,1.54
7857.00,1.54
7856.00,1.54
7855.00,1.54
7854.00,1.54
7853.00,1.54
7852.00,1.54
7851.00,1.54
7850.00,1.54
7849.00,1.54
7848.00,1.54
7847.00,1.54
7846.00,1.54
7845.00,1.54
7844.00,1.54
7843.00,1.54
7842.00,1.54
7841.00,1.54
7840.00,1.54
7839.00,1.54
7838.00,1.54
7837.00,1.54
7836.00,1.54
7835.00,1.54
7834.00,1.54
7833.00,1.54
7832.00,1.54
7831.00,1.54
7830.00,1.54
7829.00,1.54
7828.00,1.54
7827.00,1.54
7826.00,1.54
7825.00,1.54
7824.00,1.54
7823.00,1.54
7822.00,1.54
7821.00,1.54
7820.00,1.54
7819.00,1.54
7818.00,1.54
7817.00,1.54
7816.00,1.54
7815.00,1.54
7814.00,1.54
7813.00,1.54
7812.00,1.54
7811.00,1.54
7810.00,1.54
7809.00,1.54
7808.00,1.54
7807.00,1.54
7806.00,1.54
7805.00,1.55
7804.00,1.55
7803.00,1.55
7802.00,1.55
7801.00,1.55
7800.00,1.55
7799.00,1.55
7798.00,1.55
7797.00,1.55
7796.00,1.55
7795.00,1.55
7794.00,1.55
7793.00,1.55
7792.00,1.55
7791.00,1.55
7790.00,1.55
7789.00,1.55
7788.00,1.55
7787.00,1.55
7786.00,1.55
7785.00,1.55
7784.00,1.55
7783.00,1.55
7782.00,1.55
7781.00,1.55
7780.00,1.55
7779.00,1.55
7778.00,1.55
7777.00,1.55
7776.00,1.54
7775.00,1.54
7774.00,1.54
7773.00,1.54
7772.00,1.54
7771.00,1.54
7770.00,1.55
7769.00,1.55
7768.00,1.55
7767.00,1.55
7766.00,1.55
7765.00,1.55
7764.00,1.55
7763.00,1.55
7762.00,1.55
7761.00,1.55
7760.00,1.55
7759.00,1.56
7758.00,1.56
7757.00,1.56
7756.00,1.56
7755.00,1.56
7754.00,1.56
7753.00,1.56
7752.00,1.56
7751.00,1.56
7750.00,1.56
7749.00,1.56
7748.00,1.56
7747.00,1.56
7746.00,1.56
7745.00,1.56
7744.00,1.56
7743.00,1.56
7742.00,1.56
7741.00,1.56
7740.00,1.56
7739.00,1.56
7738.00,1.56
7737.00,1.56
7736.00,1.56
7735.00,1.56
7734.00,1.56
7733.00,1.56
7732.00,1.56
7731.00,1.56
7730.00,1.56
7729.00,1.56
7728.00,1.56
7727.00,1.56
7726.00,1.56
7725.00,1.56
7724.00,1.56
7723.00,1.56
7722.00,1.56
7721.00,1.56
7720.00,1.56
7719.00,1.56
7718.00,1.56
7717.00,1.56
7716.00,1.56
7715.00,1.56
7714.00,1.56
7713.00,1.56
7712.00,1.56
7711.00,1.56
7710.00,1.56
7709.00,1.56
7708.00,1.56
7707.00,1.56
7706.00,1.56
7705.00,1.56
7704.00,1.56
7703.00,1.56
7702.00,1.56
7701.00,1.56
7700.00,1.56
7699.00,1.56
7698.00,1.56
7697.00,1.56
7696.00,1.56
7695.00,1.56
7694.00,1.56
7693.00,1.56
7692.00,1.56
7691.00,1.56
7690.00,1.56
7689.00,1.56
7688.00,1.56
7687.00,1.55
7686.00,1.55
7685.00,1.55
7684.00,1.55
7683.00,1.55
7682.00,1.55
7681.00,1.55
7680.00,1.55
7679.00,1.55
7678.00,1.55
7677.00,1.55
7676.00,1.55
7675.00,1.55
7674.00,1.55
7673.00,1.55
7672.00,1.55
7671.00,1.55
7670.00,1.55
7669.00,1.55
7668.00,1.55
7667.00,1.55
7666.00,1.55
7665.00,1.55
7664.00,1.55
7663.00,1.55
7662.00,1.55
7661.00,1.55
7660.00,1.55
7659.00,1.55
7658.00,1.55
7657.00,1.55
7656.00,1.55
7655.00,1.55
7654.00,1.55
7653.00,1.55
7652.00,1.55
7651.00,1.55
7650.00,1.55
7649.00,1.55
7648.00,1.55
7647.00,1.55
7646.00,1.55
7645.00,1.55
7644.00,1.55
7643.00,1.55
7642.00,1.55
7641.00,1.55
7640.00,1.55
7639.00,1.55
7638.00,1.55
7637.00,1.55
7636.00,1.55
7635.00,1.55
7634.00,1.55
7633.00,1.55
7632.00,1.55
7631.00,1.55
7630.00,1.55
7629.00,1.55
7628.00,1.55
7627.00,1.55
7626.00,1.55
7625.00,1.56
7624.00,1.56
7623.00,1.56
7622.00,1.56
7621.00,1.56
7620.00,1.56
7619.00,1.56
7618.00,1.56
7617.00,1.56
7616.00,1.56
7615.00,1.56
7614.00,1.56
7613.00,1.56
7612.00,1.56
7611.00,1.56
7610.00,1.56
7609.00,1.56
7608.00,1.56
7607.00,1.56
7606.00,1.56
7605.00,1.56
7604.00,1.56
7603.00,1.56
7602.00,1.56
7601.00,1.56
7600.00,1.56
7599.00,1.56
7598.00,1.56
7597.00,1.56
7596.00,1.56
7595.00,1.56
7594.00,1.56
7593.00,1.56
7592.00,1.56
7591.00,1.56
7590.00,1.56
7589.00,1.56
7588.00,1.56
7587.00,1.56
7586.00,1.56
7585.00,1.56
7584.00,1.56
7583.00,1.56
7582.00,1.56
7581.00,1.56
7580.00,1.56
7579.00,1.56
7578.00,1.56
7577.00,1.56
7576.00,1.56
7575.00,1.56
7574.00,1.55
7573.00,1.55
7572.00,1.55
7571.00,1.55
7570.00,1.55
7569.00,1.55
7568.00,1.55
7567.00,1.55
7566.00,1.55
7565.00,1.55
7564.00,1.55
7563.00,1.55
7562.00,1.55
7561.00,1.55
7560.00,1.55
7559.00,1.55
7558.00,1.55
7557.00,1.55
7556.00,1.55
7555.00,1.55
7554.00,1.54
7553.00,1.54
7552.00,1.54
7551.00,1.54
7550.00,1.54
7549.00,1.54
7548.00,1.54
7547.00,1.54
7546.00,1.54
7545.00,1.54
7544.00,1.54
7543.00,1.54
7542.00,1.54
7541.00,1.54
7540.00,1.54
7539.00,1.55
7538.00,1.55
7537.00,1.55
7536.00,1.55
7535.00,1.55
7534.00,1.55
7533.00,1.55
7532.00,1.55
7531.00,1.55
7530.00,1.55
7529.00,1.55
7528.00,1.55
7527.00,1.55
7526.00,1.55
7525.00,1.55
7524.00,1.55
7523.00,1.54
7522.00,1.54
7521.00,1.54
7520.00,1.54
7519.00,1.54
7518.00,1.54
7517.00,1.54
7516.00,1.54
7515.00,1.54
7514.00,1.54
7513.00,1.54
7512.00,1.54
7511.00,1.54
7510.00,1.54
7509.00,1.54
7508.00,1.54
7507.00,1.54
7506.00,1.54
7505.00,1.54
7504.00,1.54
7503.00,1.54
7502.00,1.54
7501.00,1.54
7500.00,1.54
7499.00,1.54
7498.00,1.54
7497.00,1.54
7496.00,1.54
7495.00,1.53
7494.00,1.53
7493.00,1.53
7492.00,1.53
7491.00,1.53
7490.00,1.53
7489.00,1.53
7488.00,1.53
7487.00,1.53
7486.00,1.52
7485.00,1.52
7484.00,1.52
7483.00,1.52
7482.00,1.52
7481.00,1.52
7480.00,1.52
7479.00,1.52
7478.00,1.52
7477.00,1.52
7476.00,1.51
7475.00,1.51
7474.00,1.51
7473.00,1.51
7472.00,1.51
7471.00,1.51
7470.00,1.51
7469.00,1.51
7468.00,1.51
7467.00,1.51
7466.00,1.51
7465.00,1.51
7464.00,1.51
7463.00,1.51
7462.00,1.51
7461.00,1.51
7460.00,1.51
7459.00,1.51
7458.00,1.50
7457.00,1.50
7456.00,1.50
7455.00,1.50
7454.00,1.50
7453.00,1.50
7452.00,1.50
7451.00,1.50
7450.00,1.50
7449.00,1.50
7448.00,1.50
7447.00,1.49
7446.00,1.49
7445.00,1.49
7444.00,1.49
7443.00,1.49
7442.00,1.49
7441.00,1.49
7440.00,1.49
7439.00,1.49
7438.00,1.49
7437.00,1.49
7436.00,1.49
7435.00,1.49
7434.00,1.49
7433.00,1.49
7432.00,1.49
7431.00,1.49
7430.00,1.49
7429.00,1.49
7428.00,1.49
7427.00,1.48
7426.00,1.48
7425.00,1.48
7424.00,1.48
7423.00,1.48
7422.00,1.48
7421.00,1.48
7420.00,1.48
7419.00,1.48
7418.00,1.48
7417.00,1.48
7416.00,1.48
7415.00,1.48
7414.00,1.48
7413.00,1.48
7412.00,1.48
7411.00,1.48
7410.00,1.48
7409.00,1.48
7408.00,1.48
7407.00,1.47
7406.00,1.47
7405.00,1.47
7404.00,1.47
7403.00,1.47
7402.00,1.46
7401.00,1.46
7400.00,1.46
7399.00,1.46
7398.00,1.45
7397.00,1.45
7396.00,1.45
7395.00,1.45
7394.00,1.44
7393.00,1.44
7392.00,1.44
7391.00,1.44
7390.00,1.44
7389.00,1.43
7388.00,1.43
7387.00,1.43
7386.00,1.43
7385.00,1.43
7384.00,1.43
7383.00,1.42
7382.00,1.42
7381.00,1.42
7380.00,1.42
7379.00,1.42
7378.00,1.42
7377.00,1.42
7376.00,1.42
7375.00,1.42
7374.00,1.42
7373.00,1.42
7372.00,1.42
7371.00,1.42
7370.00,1.42
7369.00,1.42
7368.00,1.42
7367.00,1.42
7366.00,1.43
7365.00,1.43
7364.00,1.43
7363.00,1.43
7362.00,1.43
7361.00,1.43
7360.00,1.43
7359.00,1.43
7358.00,1.43
7357.00,1.42
7356.00,1.42
7355.00,1.42
7354.00,1.42
7353.00,1.42
7352.00,1.42
7351.00,1.42
7350.00,1.42
7349.00,1.41
7348.00,1.41
7347.00,1.41
7346.00,1.41
7345.00,1.41
7344.00,1.41
7343.00,1.41
7342.00,1.41
7341.00,1.41
7340.00,1.41
7339.00,1.41
7338.00,1.41
7337.00,1.41
7336.00,1.41
7335.00,1.41
7334.00,1.41
7333.00,1.41
7332.00,1.41
7331.00,1.41
7330.00,1.41
7329.00,1.41
7328.00,1.41
7327.00,1.41
7326.00,1.41
7325.00,1.40
7324.00,1.40
7323.00,1.40
7322.00,1.40
7321.00,1.40
7320.00,1.40
7319.00,1.40
7318.00,1.40
7317.00,1.40
7316.00,1.40
7315.00,1.40
7314.00,1.40
7313.00,1.40
7312.00,1.40
7311.00,1.40
7310.00,1.40
7309.00,1.40
7308.00,1.40
7307.00,1.40
7306.00,1.40
7305.00,1.39
7304.00,1.39
7303.00,1.39
7302.00,1.39
7301.00,1.39
7300.00,1.39
7299.00,1.39
7298.00,1.39
7297.00,1.39
7296.00,1.39
7295.00,1.39
7294.00,1.38
7293.00,1.38
7292.00,1.38
7291.00,1.38
7290.00,1.38
7289.00,1.38
7288.00,1.37
7287.00,1.37
7286.00,1.37
7285.00,1.37
7284.00,1.37
7283.00,1.36
7282.00,1.36
7281.00,1.36
7280.00,1.36
7279.00,1.36
7278.00,1.36
7277.00,1.36
7276.00,1.35
7275.00,1.35
7274.00,1.35
7273.00,1.35
7272.00,1.35
7271.00,1.35
7270.00,1.35
7269.00,1.35
7268.00,1.35
7267.00,1.35
7266.00,1.34
7265.00,1.34
7264.00,1.34
7263.00,1.34
7262.00,1.34
7261.00,1.34
7260.00,1.34
7259.00,1.33
7258.00,1.33
7257.00,1.33
7256.00,1.33
7255.00,1.33
7254.00,1.32
7253.00,1.32
7252.00,1.32
7251.00,1.32
7250.00,1.31
7249.00,1.31
7248.00,1.31
7247.00,1.30
7246.00,1.30
7245.00,1.30
7244.00,1.29
7243.00,1.29
7242.00,1.28
7241.00,1.28
7240.00,1.28
7239.00,1.27
7238.00,1.27
7237.00,1.27
7236.00,1.26
7235.00,1.26
7234.00,1.26
7233.00,1.25
7232.00,1.25
7231.00,1.25
7230.00,1.24
7229.00,1.24
7228.00,1.24
7227.00,1.24
7226.00,1.23
7225.00,1.23
7224.00,1.23
7223.00,1.23
7222.00,1.22
7221.00,1.22
7220.00,1.22
7219.00,1.22
7218.00,1.21
7217.00,1.21
7216.00,1.21
7215.00,1.20
7214.00,1.20
7213.00,1.20
7212.00,1.19
7211.00,1.19
7210.00,1.19
7209.00,1.18
7208.00,1.18
7207.00,1.17
7206.00,1.17
7205.00,1.17
7204.00,1.16
7203.00,1.16
7202.00,1.16
7201.00,1.15
7200.00,1.15
7199.00,1.15
7198.00,1.14
7197.00,1.14
7196.00,1.14
7195.00,1.13
7194.00,1.13
7193.00,1.13
7192.00,1.13
7191.00,1.12
7190.00,1.12
7189.00,1.12
7188.00,1.11
7187.00,1.11
7186.00,1.11
7185.00,1.10
7184.00,1.10
7183.00,1.10
7182.00,1.09
7181.00,1.09
7180.00,1.09
7179.00,1.09
7178.00,1.08
7177.00,1.08
7176.00,1.08
7175.00,1.07
7174.00,1.07
7173.00,1.07
7172.00,1.07
7171.00,1.06
7170.00,1.06
7169.00,1.06
7168.00,1.06
7167.00,1.05
7166.00,1.05
7165.00,1.05
7164.00,1.04
7163.00,1.04
7162.00,1.04
7161.00,1.04
7160.00,1.04
7159.00,1.03
7158.00,1.03
7157.00,1.03
7156.00,1.03
7155.00,1.03
7154.00,1.02
7153.00,1.02
7152.00,1.02
7151.00,1.02
7150.00,1.01
7149.00,1.01
7148.00,1.01
7147.00,1.01
7146.00,1.00
7145.00,1.00
7144.00,1.00
7143.00,1.00
7142.00,0.99
7141.00,0.99
7140.00,0.99
7139.00,0.98
7138.00,0.98
7137.00,0.98
7136.00,0.97
7135.00,0.97
7134.00,0.97
7133.00,0.97
7132.00,0.96
7131.00,0.96
7130.00,0.96
7129.00,0.96
7128.00,0.95
7127.00,0.95
7126.00,0.95
7125.00,0.95
7124.00,0.95
7123.00,0.94
7122.00,0.94
7121.00,0.94
7120.00,0.94
7119.00,0.93
7118.00,0.93
7117.00,0.93
7116.00,0.93
7115.00,0.93
7114.00,0.92
7113.00,0.92
7112.00,0.92
7111.00,0.92
7110.00,0.92
7109.00,0.91
7108.00,0.91
7107.00,0.91
7106.00,0.91
7105.00,0.90
7104.00,0.90
7103.00,0.90
7102.00,0.90
7101.00,0.90
7100.00,0.89
7099.00,0.89
7098.00,0.89
7097.00,0.89
7096.00,0.89
7095.00,0.88
7094.00,0.88
7093.00,0.88
7092.00,0.88
7091.00,0.88
7090.00,0.88
7089.00,0.87
7088.00,0.87
7087.00,0.87
7086.00,0.87
7085.00,0.87
7084.00,0.87
7083.00,0.87
7082.00,0.86
7081.00,0.86
7080.00,0.86
7079.00,0.86
7078.00,0.86
7077.00,0.86
7076.00,0.86
7075.00,0.86
7074.00,0.85
7073.00,0.85
7072.00,0.85
7071.00,0.85
7070.00,0.85
7069.00,0.85
7068.00,0.84
7067.00,0.84
7066.00,0.84
7065.00,0.84
7064.00,0.84
7063.00,0.84
7062.00,0.83
7061.00,0.83
7060.00,0.83
7059.00,0.83
7058.00,0.83
7057.00,0.83
7056.00,0.82
7055.00,0.82
7054.00,0.82
7053.00,0.82
7052.00,0.82
7051.00,0.82
7050.00,0.82
7049.00,0.81
7048.00,0.81
7047.00,0.81
7046.00,0.81
7045.00,0.81
7044.00,0.81
7043.00,0.81
7042.00,0.81
7041.00,0.81
7040.00,0.80
7039.00,0.80
7038.00,0.80
7037.00,0.80
7036.00,0.80
7035.00,0.80
7034.00,0.80
7033.00,0.80
7032.00,0.80
7031.00,0.80
7030.00,0.80
7029.00,0.80
7028.00,0.80
7027.00,0.80
7026.00,0.80
7025.00,0.80
7024.00,0.80
7023.00,0.79
7022.00,0.79
7021.00,0.79
7020.00,0.79
7019.00,0.79
7018.00,0.79
7017.00,0.79
7016.00,0.79
7015.00,0.79
7014.00,0.79
7013.00,0.79
7012.00,0.79
7011.00,0.79
7010.00,0.79
7009.00,0.79
7008.00,0.79
7007.00,0.79
7006.00,0.78
7005.00,0.78
7004.00,0.78
7003.00,0.78
7002.00,0.78
7001.00,0.78
7000.00,0.78
6999.00,0.78
6998.00,0.78
6997.00,0.78
6996.00,0.78
6995.00,0.78
6994.00,0.78
6993.00,0.77
6992.00,0.77
6991.00,0.77
6990.00,0.77
6989.00,0.77
6988.00,0.77
6987.00,0.77
6986.00,0.77
6985.00,0.77
6984.00,0.77
6983.00,0.77
6982.00,0.77
6981.00,0.77
6980.00,0.77
6979.00,0.77
6978.00,0.77
6977.00,0.77
6976.00,0.77
6975.00,0.77
6974.00,0.76
6973.00,0.76
6972.00,0.76
6971.00,0.77
6970.00,0.77
6969.00,0.77
6968.00,0.77
6967.00,0.77
6966.00,0.77
6965.00,0.77
6964.00,0.76
6963.00,0.76
6962.00,0.76
6961.00,0.76
6960.00,0.76
6959.00,0.76
6958.00,0.76
6957.00,0.76
6956.00,0.76
6955.00,0.76
6954.00,0.76
6953.00,0.76
6952.00,0.76
6951.00,0.76
6950.00,0.76
6949.00,0.75
6948.00,0.75
6947.00,0.75
6946.00,0.75
6945.00,0.75
6944.00,0.75
6943.00,0.75
6942.00,0.75
6941.00,0.75
6940.00,0.75
6939.00,0.75
6938.00,0.75
6937.00,0.75
6936.00,0.75
6935.00,0.75
6934.00,0.75
6933.00,0.75
6932.00,0.75
6931.00,0.75
6930.00,0.75
6929.00,0.75
6928.00,0.75
6927.00,0.75
6926.00,0.75
6925.00,0.75
6924.00,0.75
6923.00,0.75
6922.00,0.75
6921.00,0.75
6920.00,0.75
6919.00,0.75
6918.00,0.75
6917.00,0.75
6916.00,0.75
6915.00,0.74
6914.00,0.74
6913.00,0.74
6912.00,0.74
6911.00,0.74
6910.00,0.74
6909.00,0.74
6908.00,0.74
6907.00,0.74
6906.00,0.74
6905.00,0.74
6904.00,0.74
6903.00,0.74
6902.00,0.74
6901.00,0.74
6900.00,0.74
6899.00,0.74
6898.00,0.74
6897.00,0.74
6896.00,0.74
6895.00,0.74
6894.00,0.74
6893.00,0.74
6892.00,0.74
6891.00,0.74
6890.00,0.74
6889.00,0.74
6888.00,0.75
6887.00,0.75
6886.00,0.75
6885.00,0.75
6884.00,0.75
6883.00,0.75
6882.00,0.75
6881.00,0.74
6880.00,0.74
6879.00,0.74
6878.00,0.74
6877.00,0.74
6876.00,0.74
6875.00,0.74
6874.00,0.74
6873.00,0.74
6872.00,0.74
6871.00,0.74
6870.00,0.74
6869.00,0.74
6868.00,0.74
6867.00,0.74
6866.00,0.74
6865.00,0.74
6864.00,0.74
6863.00,0.74
6862.00,0.74
6861.00,0.75
6860.00,0.75
6859.00,0.75
6858.00,0.75
6857.00,0.75
6856.00,0.75
6855.00,0.75
6854.00,0.75
6853.00,0.75
6852.00,0.75
6851.00,0.75
6850.00,0.75
6849.00,0.75
6848.00,0.75
6847.00,0.76
6846.00,0.76
6845.00,0.76
6844.00,0.76
6843.00,0.76
6842.00,0.76
6841.00,0.76
6840.00,0.76
6839.00,0.76
6838.00,0.76
6837.00,0.76
6836.00,0.76
6835.00,0.76
6834.00,0.76
6833.00,0.76
6832.00,0.76
6831.00,0.76
6830.00,0.76
6829.00,0.76
6828.00,0.76
6827.00,0.76
6826.00,0.76
6825.00,0.76
6824.00,0.76
6823.00,0.76
6822.00,0.76
6821.00,0.76
6820.00,0.76
6819.00,0.76
6818.00,0.76
6817.00,0.76
6816.00,0.76
6815.00,0.76
6814.00,0.76
6813.00,0.76
6812.00,0.76
6811.00,0.76
6810.00,0.75
6809.00,0.75
6808.00,0.75
6807.00,0.75
6806.00,0.75
6805.00,0.75
6804.00,0.75
6803.00,0.75
6802.00,0.75
6801.00,0.75
6800.00,0.75
6799.00,0.75
6798.00,0.75
6797.00,0.75
6796.00,0.75
6795.00,0.75
6794.00,0.75
6793.00,0.75
6792.00,0.76
6791.00,0.76
6790.00,0.76
6789.00,0.76
6788.00,0.76
6787.00,0.76
6786.00,0.76
6785.00,0.76
6784.00,0.76
6783.00,0.77
6782.00,0.77
6781.00,0.77
6780.00,0.77
6779.00,0.77
6778.00,0.77
6777.00,0.78
6776.00,0.78
6775.00,0.78
6774.00,0.78
6773.00,0.78
6772.00,0.78
6771.00,0.78
6770.00,0.78
6769.00,0.78
6768.00,0.79
6767.00,0.79
6766.00,0.79
6765.00,0.79
6764.00,0.79
6763.00,0.79
6762.00,0.79
6761.00,0.79
6760.00,0.79
6759.00,0.79
6758.00,0.79
6757.00,0.79
6756.00,0.79
6755.00,0.79
6754.00,0.79
6753.00,0.79
6752.00,0.79
6751.00,0.79
6750.00,0.79
6749.00,0.79
6748.00,0.79
6747.00,0.79
6746.00,0.79
6745.00,0.79
6744.00,0.79
6743.00,0.79
6742.00,0.79
6741.00,0.79
6740.00,0.79
6739.00,0.79
6738.00,0.79
6737.00,0.79
6736.00,0.80
6735.00,0.80
6734.00,0.80
6733.00,0.80
6732.00,0.80
6731.00,0.80
6730.00,0.80
6729.00,0.80
6728.00,0.80
6727.00,0.80
6726.00,0.80
6725.00,0.80
6724.00,0.80
6723.00,0.80
6722.00,0.80
6721.00,0.80
6720.00,0.81
6719.00,0.81
6718.00,0.81
6717.00,0.81
6716.00,0.81
6715.00,0.81
6714.00,0.81
6713.00,0.81
6712.00,0.81
6711.00,0.81
6710.00,0.81
6709.00,0.81
6708.00,0.81
6707.00,0.81
6706.00,0.82
6705.00,0.82
6704.00,0.82
6703.00,0.82
6702.00,0.82
6701.00,0.82
6700.00,0.82
6699.00,0.82
6698.00,0.82
6697.00,0.82
6696.00,0.82
6695.00,0.83
6694.00,0.83
6693.00,0.83
6692.00,0.83
6691.00,0.83
6690.00,0.83
6689.00,0.83
6688.00,0.83
6687.00,0.83
6686.00,0.84
6685.00,0.84
6684.00,0.84
6683.00,0.84
6682.00,0.84
6681.00,0.84
6680.00,0.84
6679.00,0.84
6678.00,0.84
6677.00,0.84
6676.00,0.85
6675.00,0.85
6674.00,0.85
6673.00,0.85
6672.00,0.85
6671.00,0.85
6670.00,0.85
6669.00,0.85
6668.00,0.85
6667.00,0.85
6666.00,0.85
6665.00,0.85
6664.00,0.85
6663.00,0.85
6662.00,0.85
6661.00,0.85
6660.00,0.85
6659.00,0.85
6658.00,0.85
6657.00,0.85
6656.00,0.85
6655.00,0.85
6654.00,0.85
6653.00,0.85
6652.00,0.85
6651.00,0.85
6650.00,0.86
6649.00,0.86
6648.00,0.86
6647.00,0.86
6646.00,0.86
6645.00,0.86
6644.00,0.86
6643.00,0.86
6642.00,0.86
6641.00,0.86
6640.00,0.86
6639.00,0.86
6638.00,0.87
6637.00,0.87
6636.00,0.87
6635.00,0.87
6634.00,0.87
6633.00,0.87
6632.00,0.87
6631.00,0.87
6630.00,0.87
6629.00,0.87
6628.00,0.87
6627.00,0.87
6626.00,0.87
6625.00,0.88
6624.00,0.88
6623.00,0.88
6622.00,0.88
6621.00,0.88
6620.00,0.88
6619.00,0.88
6618.00,0.88
6617.00,0.88
6616.00,0.88
6615.00,0.88
6614.00,0.89
6613.00,0.89
6612.00,0.89
6611.00,0.89
6610.00,0.89
6609.00,0.89
6608.00,0.89
6607.00,0.89
6606.00,0.89
6605.00,0.90
6604.00,0.90
6603.00,0.90
6602.00,0.90
6601.00,0.90
6600.00,0.90
6599.00,0.90
6598.00,0.90
6597.00,0.91
6596.00,0.91
6595.00,0.91
6594.00,0.91
6593.00,0.91
6592.00,0.91
6591.00,0.91
6590.00,0.91
6589.00,0.91
6588.00,0.91
6587.00,0.91
6586.00,0.91
6585.00,0.91
6584.00,0.91
6583.00,0.91
6582.00,0.91
6581.00,0.91
6580.00,0.91
6579.00,0.91
6578.00,0.91
6577.00,0.92
6576.00,0.92
6575.00,0.92
6574.00,0.92
6573.00,0.92
6572.00,0.92
6571.00,0.92
6570.00,0.92
6569.00,0.92
6568.00,0.92
6567.00,0.92
6566.00,0.92
6565.00,0.93
6564.00,0.93
6563.00,0.93
6562.00,0.93
6561.00,0.93
6560.00,0.93
6559.00,0.94
6558.00,0.94
6557.00,0.94
6556.00,0.94
6555.00,0.94
6554.00,0.95
6553.00,0.95
6552.00,0.95
6551.00,0.95
6550.00,0.95
6549.00,0.95
6548.00,0.95
6547.00,0.95
6546.00,0.95
6545.00,0.95
6544.00,0.96
6543.00,0.96
6542.00,0.96
6541.00,0.96
6540.00,0.96
6539.00,0.96
6538.00,0.96
6537.00,0.96
6536.00,0.96
6535.00,0.96
6534.00,0.96
6533.00,0.96
6532.00,0.97
6531.00,0.97
6530.00,0.97
6529.00,0.97
6528.00,0.97
6527.00,0.97
6526.00,0.97
6525.00,0.97
6524.00,0.97
6523.00,0.97
6522.00,0.97
6521.00,0.97
6520.00,0.97
6519.00,0.97
6518.00,0.97
6517.00,0.97
6516.00,0.97
6515.00,0.97
6514.00,0.97
6513.00,0.97
6512.00,0.97
6511.00,0.97
6510.00,0.97
6509.00,0.97
6508.00,0.97
6507.00,0.98
6506.00,0.98
6505.00,0.98
6504.00,0.98
6503.00,0.98
6502.00,0.98
6501.00,0.98
6500.00,0.98
6499.00,0.98
6498.00,0.98
6497.00,0.98
6496.00,0.98
6495.00,0.98
6494.00,0.98
6493.00,0.98
6492.00,0.99
6491.00,0.99
6490.00,0.99
6489.00,0.99
6488.00,0.99
6487.00,0.99
6486.00,0.99
6485.00,0.99
6484.00,0.99
6483.00,1.00
6482.00,1.00
6481.00,1.00
6480.00,1.00
6479.00,1.00
6478.00,1.00
6477.00,1.00
6476.00,1.00
6475.00,1.00
6474.00,1.01
6473.00,1.01
6472.00,1.01
6471.00,1.01
6470.00,1.01
6469.00,1.01
6468.00,1.01
6467.00,1.01
6466.00,1.01
6465.00,1.01
6464.00,1.01
6463.00,1.01
6462.00,1.01
6461.00,1.01
6460.00,1.01
6459.00,1.01
6458.00,1.01
6457.00,1.01
6456.00,1.01
6455.00,1.01
6454.00,1.01
6453.00,1.01
6452.00,1.01
6451.00,1.01
6450.00,1.01
6449.00,1.01
6448.00,1.01
6447.00,1.01
6446.00,1.01
6445.00,1.01
6444.00,1.01
6443.00,1.01
6442.00,1.01
6441.00,1.01
6440.00,1.01
6439.00,1.02
6438.00,1.02
6437.00,1.02
6436.00,1.02
6435.00,1.02
6434.00,1.02
6433.00,1.02
6432.00,1.02
6431.00,1.02
6430.00,1.02
6429.00,1.02
6428.00,1.02
6427.00,1.02
6426.00,1.02
6425.00,1.02
6424.00,1.02
6423.00,1.02
6422.00,1.03
6421.00,1.03
6420.00,1.03
6419.00,1.03
6418.00,1.03
6417.00,1.03
6416.00,1.03
6415.00,1.03
6414.00,1.03
6413.00,1.03
6412.00,1.03
6411.00,1.03
6410.00,1.03
6409.00,1.03
6408.00,1.03
6407.00,1.03
6406.00,1.03
6405.00,1.03
6404.00,1.03
6403.00,1.03
6402.00,1.03
6401.00,1.03
6400.00,1.03
6399.00,1.03
6398.00,1.03
6397.00,1.03
6396.00,1.03
6395.00,1.03
6394.00,1.03
6393.00,1.04
6392.00,1.04
6391.00,1.04
6390.00,1.04
6389.00,1.04
6388.00,1.04
6387.00,1.04
6386.00,1.04
6385.00,1.04
6384.00,1.04
6383.00,1.04
6382.00,1.04
6381.00,1.04
6380.00,1.04
6379.00,1.04
6378.00,1.05
6377.00,1.05
6376.00,1.05
6375.00,1.05
6374.00,1.05
6373.00,1.05
6372.00,1.05
6371.00,1.05
6370.00,1.05
6369.00,1.05
6368.00,1.05
6367.00,1.05
6366.00,1.05
6365.00,1.05
6364.00,1.05
6363.00,1.05
6362.00,1.05
6361.00,1.05
6360.00,1.05
6359.00,1.06
6358.00,1.06
6357.00,1.06
6356.00,1.06
6355.00,1.06
6354.00,1.06
6353.00,1.06
6352.00,1.06
6351.00,1.07
6350.00,1.07
6349.00,1.07
6348.00,1.07
6347.00,1.07
6346.00,1.07
6345.00,1.07
6344.00,1.08
6343.00,1.08
6342.00,1.08
6341.00,1.08
6340.00,1.08
6339.00,1.08
6338.00,1.08
6337.00,1.08
6336.00,1.08
6335.00,1.08
6334.00,1.08
6333.00,1.08
6332.00,1.08
6331.00,1.08
6330.00,1.08
6329.00,1.09
6328.00,1.09
6327.00,1.09
6326.00,1.09
6325.00,1.09
6324.00,1.09
6323.00,1.09
6322.00,1.09
6321.00,1.09
6320.00,1.09
6319.00,1.09
6318.00,1.10
6317.00,1.10
6316.00,1.10
6315.00,1.10
6314.00,1.10
6313.00,1.10
6312.00,1.10
6311.00,1.10
6310.00,1.10
6309.00,1.11
6308.00,1.11
6307.00,1.11
6306.00,1.11
6305.00,1.11
6304.00,1.11
6303.00,1.11
6302.00,1.11
6301.00,1.11
6300.00,1.12
6299.00,1.12
6298.00,1.12
6297.00,1.12
6296.00,1.12
6295.00,1.12
6294.00,1.12
6293.00,1.12
6292.00,1.12
6291.00,1.12
6290.00,1.13
6289.00,1.13
6288.00,1.13
6287.00,1.13
6286.00,1.13
6285.00,1.13
6284.00,1.13
6283.00,1.13
6282.00,1.13
6281.00,1.13
6280.00,1.13
6279.00,1.14
6278.00,1.14
6277.00,1.14
6276.00,1.14
6275.00,1.14
6274.00,1.14
6273.00,1.14
6272.00,1.15
6271.00,1.15
6270.00,1.15
6269.00,1.15
6268.00,1.15
6267.00,1.15
6266.00,1.15
6265.00,1.15
6264.00,1.16
6263.00,1.16
6262.00,1.16
6261.00,1.16
6260.00,1.16
6259.00,1.16
6258.00,1.16
6257.00,1.16
6256.00,1.16
6255.00,1.17
6254.00,1.17
6253.00,1.17
6252.00,1.17
6251.00,1.17
6250.00,1.17
6249.00,1.17
6248.00,1.17
6247.00,1.17
6246.00,1.18
6245.00,1.18
6244.00,1.18
6243.00,1.18
6242.00,1.18
6241.00,1.18
6240.00,1.18
6239.00,1.18
6238.00,1.18
6237.00,1.19
6236.00,1.19
6235.00,1.19
6234.00,1.19
6233.00,1.19
6232.00,1.19
6231.00,1.19
6230.00,1.19
6229.00,1.20
6228.00,1.20
6227.00,1.20
6226.00,1.20
6225.00,1.20
6224.00,1.20
6223.00,1.20
6222.00,1.21
6221.00,1.21
6220.00,1.21
6219.00,1.21
6218.00,1.21
6217.00,1.21
6216.00,1.21
6215.00,1.22
6214.00,1.22
6213.00,1.22
6212.00,1.22
6211.00,1.22
6210.00,1.22
6209.00,1.23
6208.00,1.23
6207.00,1.23
6206.00,1.23
6205.00,1.23
6204.00,1.23
6203.00,1.24
6202.00,1.24
6201.00,1.24
6200.00,1.24
6199.00,1.24
6198.00,1.24
6197.00,1.25
6196.00,1.25
6195.00,1.25
6194.00,1.25
6193.00,1.25
6192.00,1.25
6191.00,1.25
6190.00,1.25
6189.00,1.25
6188.00,1.26
6187.00,1.26
6186.00,1.26
6185.00,1.26
6184.00,1.26
6183.00,1.26
6182.00,1.26
6181.00,1.26
6180.00,1.26
6179.00,1.26
6178.00,1.26
6177.00,1.26
6176.00,1.26
6175.00,1.26
6174.00,1.27
6173.00,1.27
6172.00,1.27
6171.00,1.27
6170.00,1.27
6169.00,1.27
6168.00,1.27
6167.00,1.27
6166.00,1.27
6165.00,1.28
6164.00,1.28
6163.00,1.28
6162.00,1.28
6161.00,1.28
6160.00,1.28
6159.00,1.28
6158.00,1.29
6157.00,1.29
6156.00,1.29
6155.00,1.29
6154.00,1.29
6153.00,1.30
6152.00,1.30
6151.00,1.30
6150.00,1.30
6149.00,1.30
6148.00,1.31
6147.00,1.31
6146.00,1.31
6145.00,1.31
6144.00,1.31
6143.00,1.32
6142.00,1.32
6141.00,1.32
6140.00,1.32
6139.00,1.32
6138.00,1.32
6137.00,1.33
6136.00,1.33
6135.00,1.33
6134.00,1.33
6133.00,1.33
6132.00,1.33
6131.00,1.34
6130.00,1.34
6129.00,1.34
6128.00,1.34
6127.00,1.34
6126.00,1.34
6125.00,1.34
6124.00,1.35
6123.00,1.35
6122.00,1.35
6121.00,1.35
6120.00,1.35
6119.00,1.35
6118.00,1.35
6117.00,1.35
6116.00,1.35
6115.00,1.36
6114.00,1.36
6113.00,1.36
6112.00,1.36
6111.00,1.36
6110.00,1.36
6109.00,1.36
6108.00,1.36
6107.00,1.37
6106.00,1.37
6105.00,1.37
6104.00,1.37
6103.00,1.37
6102.00,1.38
6101.00,1.38
6100.00,1.38
6099.00,1.38
6098.00,1.38
6097.00,1.39
6096.00,1.39
6095.00,1.39
6094.00,1.39
6093.00,1.39
6092.00,1.39
6091.00,1.40
6090.00,1.40
6089.00,1.40
6088.00,1.40
6087.00,1.40
6086.00,1.40
6085.00,1.40
6084.00,1.40
6083.00,1.40
6082.00,1.41
6081.00,1.41
6080.00,1.41
6079.00,1.41
6078.00,1.41
6077.00,1.41
6076.00,1.41
6075.00,1.41
6074.00,1.41
6073.00,1.42
6072.00,1.42
6071.00,1.42
6070.00,1.42
6069.00,1.42
6068.00,1.42
6067.00,1.42
6066.00,1.42
6065.00,1.42
6064.00,1.42
6063.00,1.42
6062.00,1.42
6061.00,1.42
6060.00,1.42
6059.00,1.42
6058.00,1.42
6057.00,1.42
6056.00,1.42
6055.00,1.42
6054.00,1.43
6053.00,1.43
6052.00,1.43
6051.00,1.43
6050.00,1.43
6049.00,1.43
6048.00,1.43
6047.00,1.43
6046.00,1.43
6045.00,1.43
6044.00,1.43
6043.00,1.43
6042.00,1.44
6041.00,1.44
6040.00,1.44
6039.00,1.44
6038.00,1.44
6037.00,1.44
6036.00,1.44
6035.00,1.44
6034.00,1.44
6033.00,1.44
6032.00,1.44
6031.00,1.44
6030.00,1.44
6029.00,1.44
6028.00,1.44
6027.00,1.44
6026.00,1.45
6025.00,1.45
6024.00,1.45
6023.00,1.45
6022.00,1.45
6021.00,1.45
6020.00,1.45
6019.00,1.45
6018.00,1.45
6017.00,1.45
6016.00,1.45
6015.00,1.45
6014.00,1.45
6013.00,1.45
6012.00,1.45
6011.00,1.45
6010.00,1.45
6009.00,1.45
6008.00,1.45
6007.00,1.45
6006.00,1.45
6005.00,1.45
6004.00,1.45
6003.00,1.45
6002.00,1.45
6001.00,1.45
6000.00,1.45
5999.00,1.45
5998.00,1.44
5997.00,1.44
5996.00,1.44
5995.00,1.44
5994.00,1.44
5993.00,1.44
5992.00,1.44
5991.00,1.44
5990.00,1.44
5989.00,1.43
5988.00,1.43
5987.00,1.43
5986.00,1.43
5985.00,1.42
5984.00,1.42
5983.00,1.42
5982.00,1.42
5981.00,1.41
5980.00,1.41
5979.00,1.40
5978.00,1.40
5977.00,1.40
5976.00,1.39
5975.00,1.39
5974.00,1.38
5973.00,1.38
5972.00,1.37
5971.00,1.37
5970.00,1.36
5969.00,1.35
5968.00,1.35
5967.00,1.34
5966.00,1.34
5965.00,1.33
5964.00,1.32
5963.00,1.32
5962.00,1.31
5961.00,1.30
5960.00,1.30
5959.00,1.29
5958.00,1.28
5957.00,1.28
5956.00,1.27
5955.00,1.26
5954.00,1.26
5953.00,1.25
5952.00,1.24
5951.00,1.24
5950.00,1.23
5949.00,1.22
5948.00,1.22
5947.00,1.21
5946.00,1.21
5945.00,1.20
5944.00,1.20
5943.00,1.20
5942.00,1.19
5941.00,1.19
5940.00,1.19
5939.00,1.19
5938.00,1.18
5937.00,1.18
5936.00,1.18
5935.00,1.18
5934.00,1.18
5933.00,1.18
5932.00,1.18
5931.00,1.18
5930.00,1.18
5929.00,1.18
5928.00,1.18
5927.00,1.17
5926.00,1.17
5925.00,1.17
5924.00,1.17
5923.00,1.17
5922.00,1.17
5921.00,1.17
5920.00,1.16
5919.00,1.16
5918.00,1.16
5917.00,1.16
5916.00,1.16
5915.00,1.15
5914.00,1.15
5913.00,1.15
5912.00,1.15
5911.00,1.15
5910.00,1.14
5909.00,1.14
5908.00,1.14
5907.00,1.14
5906.00,1.14
5905.00,1.14
5904.00,1.14
5903.00,1.14
5902.00,1.14
5901.00,1.14
5900.00,1.14
5899.00,1.14
5898.00,1.14
5897.00,1.14
5896.00,1.14
5895.00,1.14
5894.00,1.14
5893.00,1.14
5892.00,1.15
5891.00,1.15
5890.00,1.15
5889.00,1.15
5888.00,1.16
5887.00,1.16
5886.00,1.16
5885.00,1.17
5884.00,1.17
5883.00,1.17
5882.00,1.18
5881.00,1.18
5880.00,1.18
5879.00,1.18
5878.00,1.19
5877.00,1.19
5876.00,1.19
5875.00,1.19
5874.00,1.20
5873.00,1.20
5872.00,1.20
5871.00,1.20
5870.00,1.20
5869.00,1.21
5868.00,1.21
5867.00,1.21
5866.00,1.21
5865.00,1.21
5864.00,1.22
5863.00,1.22
5862.00,1.22
5861.00,1.22
5860.00,1.22
5859.00,1.22
5858.00,1.22
5857.00,1.22
5856.00,1.22
5855.00,1.22
5854.00,1.23
5853.00,1.23
5852.00,1.23
5851.00,1.23
5850.00,1.23
5849.00,1.23
5848.00,1.23
5847.00,1.23
5846.00,1.23
5845.00,1.23
5844.00,1.23
5843.00,1.23
5842.00,1.23
5841.00,1.23
5840.00,1.23
5839.00,1.23
5838.00,1.23
5837.00,1.23
5836.00,1.23
5835.00,1.23
5834.00,1.23
5833.00,1.23
5832.00,1.23
5831.00,1.23
5830.00,1.23
5829.00,1.23
5828.00,1.23
5827.00,1.23
5826.00,1.23
5825.00,1.23
5824.00,1.24
5823.00,1.24
5822.00,1.24
5821.00,1.24
5820.00,1.24
5819.00,1.24
5818.00,1.24
5817.00,1.24
5816.00,1.24
5815.00,1.24
5814.00,1.24
5813.00,1.24
5812.00,1.24
5811.00,1.24
5810.00,1.24
5809.00,1.24
5808.00,1.24
5807.00,1.24
5806.00,1.24
5805.00,1.24
5804.00,1.24
5803.00,1.24
5802.00,1.24
5801.00,1.24
5800.00,1.24
5799.00,1.23
5798.00,1.23
5797.00,1.23
5796.00,1.23
5795.00,1.23
5794.00,1.22
5793.00,1.22
5792.00,1.22
5791.00,1.22
5790.00,1.21
5789.00,1.21
5788.00,1.21
5787.00,1.20
5786.00,1.20
5785.00,1.20
5784.00,1.20
5783.00,1.19
5782.00,1.19
5781.00,1.19
5780.00,1.19
5779.00,1.19
5778.00,1.18
5777.00,1.18
5776.00,1.18
5775.00,1.18
5774.00,1.18
5773.00,1.18
5772.00,1.18
5771.00,1.18
5770.00,1.18
5769.00,1.18
5768.00,1.19
5767.00,1.19
5766.00,1.19
5765.00,1.19
5764.00,1.19
5763.00,1.20
5762.00,1.20
5761.00,1.20
5760.00,1.21
5759.00,1.21
5758.00,1.21
5757.00,1.22
5756.00,1.22
5755.00,1.22
5754.00,1.23
5753.00,1.23
5752.00,1.23
5751.00,1.24
5750.00,1.24
5749.00,1.24
5748.00,1.25
5747.00,1.25
5746.00,1.25
5745.00,1.26
5744.00,1.26
5743.00,1.26
5742.00,1.26
5741.00,1.27
5740.00,1.27
5739.00,1.27
5738.00,1.27
5737.00,1.28
5736.00,1.28
5735.00,1.28
5734.00,1.28
5733.00,1.28
5732.00,1.28
5731.00,1.28
5730.00,1.29
5729.00,1.29
5728.00,1.29
5727.00,1.29
5726.00,1.29
5725.00,1.29
5724.00,1.29
5723.00,1.29
5722.00,1.29
5721.00,1.29
5720.00,1.29
5719.00,1.29
5718.00,1.30
5717.00,1.30
5716.00,1.30
5715.00,1.30
5714.00,1.30
5713.00,1.30
5712.00,1.30
5711.00,1.30
5710.00,1.30
5709.00,1.30
5708.00,1.30
5707.00,1.30
5706.00,1.30
5705.00,1.30
5704.00,1.29
5703.00,1.29
5702.00,1.29
5701.00,1.29
5700.00,1.29
5699.00,1.29
5698.00,1.29
5697.00,1.28
5696.00,1.28
5695.00,1.28
5694.00,1.28
5693.00,1.28
5692.00,1.28
5691.00,1.27
5690.00,1.27
5689.00,1.27
5688.00,1.27
5687.00,1.27
5686.00,1.27
5685.00,1.27
5684.00,1.27
5683.00,1.26
5682.00,1.26
5681.00,1.26
5680.00,1.26
5679.00,1.26
5678.00,1.26
5677.00,1.26
5676.00,1.26
5675.00,1.26
5674.00,1.26
5673.00,1.26
5672.00,1.26
5671.00,1.26
5670.00,1.26
5669.00,1.26
5668.00,1.26
5667.00,1.26
5666.00,1.26
5665.00,1.26
5664.00,1.26
5663.00,1.27
5662.00,1.27
5661.00,1.27
5660.00,1.27
5659.00,1.27
5658.00,1.27
5657.00,1.28
5656.00,1.28
5655.00,1.28
5654.00,1.28
5653.00,1.29
5652.00,1.29
5651.00,1.29
5650.00,1.29
5649.00,1.29
5648.00,1.30
5647.00,1.30
5646.00,1.30
5645.00,1.30
5644.00,1.31
5643.00,1.31
5642.00,1.31
5641.00,1.31
5640.00,1.32
5639.00,1.32
5638.00,1.32
5637.00,1.32
5636.00,1.33
5635.00,1.33
5634.00,1.33
5633.00,1.33
5632.00,1.33
5631.00,1.34
5630.00,1.34
5629.00,1.34
5628.00,1.34
5627.00,1.34
5626.00,1.34
5625.00,1.34
5624.00,1.35
5623.00,1.35
5622.00,1.35
5621.00,1.35
5620.00,1.35
5619.00,1.35
5618.00,1.35
5617.00,1.36
5616.00,1.36
5615.00,1.36
5614.00,1.36
5613.00,1.36
5612.00,1.36
5611.00,1.36
5610.00,1.37
5609.00,1.37
5608.00,1.37
5607.00,1.37
5606.00,1.37
5605.00,1.37
5604.00,1.38
5603.00,1.38
5602.00,1.38
5601.00,1.38
5600.00,1.38
5599.00,1.39
5598.00,1.39
5597.00,1.39
5596.00,1.39
5595.00,1.39
5594.00,1.40
5593.00,1.40
5592.00,1.40
5591.00,1.40
5590.00,1.40
5589.00,1.40
5588.00,1.41
5587.00,1.41
5586.00,1.41
5585.00,1.41
5584.00,1.41
5583.00,1.41
5582.00,1.41
5581.00,1.42
5580.00,1.42
5579.00,1.42
5578.00,1.42
5577.00,1.42
5576.00,1.42
5575.00,1.42
5574.00,1.43
5573.00,1.43
5572.00,1.43
5571.00,1.43
5570.00,1.43
5569.00,1.43
5568.00,1.43
5567.00,1.44
5566.00,1.44
5565.00,1.44
5564.00,1.44
5563.00,1.44
5562.00,1.44
5561.00,1.44
5560.00,1.44
5559.00,1.44
5558.00,1.44
5557.00,1.45
5556.00,1.45
5555.00,1.45
5554.00,1.45
5553.00,1.45
5552.00,1.45
5551.00,1.45
5550.00,1.45
5549.00,1.46
5548.00,1.46
5547.00,1.46
5546.00,1.46
5545.00,1.46
5544.00,1.46
5543.00,1.47
5542.00,1.47
5541.00,1.47
5540.00,1.47
5539.00,1.47
5538.00,1.47
5537.00,1.47
5536.00,1.48
5535.00,1.48
5534.00,1.48
5533.00,1.48
5532.00,1.48
5531.00,1.48
5530.00,1.48
5529.00,1.48
5528.00,1.49
5527.00,1.49
5526.00,1.49
5525.00,1.49
5524.00,1.49
5523.00,1.49
5522.00,1.49
5521.00,1.49
5520.00,1.49
5519.00,1.49
5518.00,1.49
5517.00,1.49
5516.00,1.50
5515.00,1.50
5514.00,1.50
5513.00,1.50
5512.00,1.50
5511.00,1.50
5510.00,1.50
5509.00,1.50
5508.00,1.50
5507.00,1.50
5506.00,1.50
5505.00,1.50
5504.00,1.50
5503.00,1.50
5502.00,1.50
5501.00,1.50
5500.00,1.50
5499.00,1.50
5498.00,1.50
5497.00,1.50
5496.00,1.50
5495.00,1.50
5494.00,1.50
5493.00,1.50
5492.00,1.50
5491.00,1.50
5490.00,1.50
5489.00,1.50
5488.00,1.51
5487.00,1.51
5486.00,1.51
5485.00,1.51
5484.00,1.51
5483.00,1.51
5482.00,1.51
5481.00,1.51
5480.00,1.51
5479.00,1.51
5478.00,1.52
5477.00,1.52
5476.00,1.52
5475.00,1.52
5474.00,1.52
5473.00,1.52
5472.00,1.52
5471.00,1.52
5470.00,1.52
5469.00,1.52
5468.00,1.53
5467.00,1.53
5466.00,1.53
5465.00,1.53
5464.00,1.53
5463.00,1.53
5462.00,1.53
5461.00,1.54
5460.00,1.54
5459.00,1.54
5458.00,1.54
5457.00,1.54
5456.00,1.54
5455.00,1.55
5454.00,1.55
5453.00,1.55
5452.00,1.55
5451.00,1.55
5450.00,1.55
5449.00,1.55
5448.00,1.55
5447.00,1.55
5446.00,1.55
5445.00,1.55
5444.00,1.55
5443.00,1.55
5442.00,1.55
5441.00,1.55
5440.00,1.55
5439.00,1.55
5438.00,1.55
5437.00,1.55
5436.00,1.55
5435.00,1.55
5434.00,1.55
5433.00,1.55
5432.00,1.55
5431.00,1.55
5430.00,1.56
5429.00,1.56
5428.00,1.56
5427.00,1.56
5426.00,1.56
5425.00,1.56
5424.00,1.56
5423.00,1.56
5422.00,1.56
5421.00,1.56
5420.00,1.56
5419.00,1.56
5418.00,1.56
5417.00,1.56
5416.00,1.56
5415.00,1.56
5414.00,1.56
5413.00,1.56
5412.00,1.56
5411.00,1.56
5410.00,1.56
5409.00,1.56
5408.00,1.56
5407.00,1.56
5406.00,1.56
5405.00,1.56
5404.00,1.56
5403.00,1.56
5402.00,1.56
5401.00,1.56
5400.00,1.56
5399.00,1.56
5398.00,1.55
5397.00,1.55
5396.00,1.55
5395.00,1.55
5394.00,1.55
5393.00,1.55
5392.00,1.55
5391.00,1.55
5390.00,1.54
5389.00,1.54
5388.00,1.54
5387.00,1.54
5386.00,1.54
5385.00,1.53
5384.00,1.53
5383.00,1.53
5382.00,1.52
5381.00,1.52
5380.00,1.52
5379.00,1.51
5378.00,1.51
5377.00,1.51
5376.00,1.50
5375.00,1.50
5374.00,1.49
5373.00,1.49
5372.00,1.49
5371.00,1.48
5370.00,1.48
5369.00,1.47
5368.00,1.47
5367.00,1.46
5366.00,1.46
5365.00,1.45
5364.00,1.45
5363.00,1.44
5362.00,1.44
5361.00,1.43
5360.00,1.42
5359.00,1.42
5358.00,1.41
5357.00,1.40
5356.00,1.40
5355.00,1.39
5354.00,1.38
5353.00,1.37
5352.00,1.36
5351.00,1.35
5350.00,1.34
5349.00,1.33
5348.00,1.32
5347.00,1.31
5346.00,1.30
5345.00,1.29
5344.00,1.28
5343.00,1.27
5342.00,1.26
5341.00,1.26
5340.00,1.25
5339.00,1.24
5338.00,1.23
5337.00,1.22
5336.00,1.21
5335.00,1.20
5334.00,1.19
5333.00,1.18
5332.00,1.17
5331.00,1.17
5330.00,1.16
5329.00,1.15
5328.00,1.14
5327.00,1.13
5326.00,1.13
5325.00,1.12
5324.00,1.11
5323.00,1.10
5322.00,1.10
5321.00,1.09
5320.00,1.08
5319.00,1.07
5318.00,1.07
5317.00,1.06
5316.00,1.05
5315.00,1.04
5314.00,1.04
5313.00,1.03
5312.00,1.02
5311.00,1.01
5310.00,1.01
5309.00,1.00
5308.00,0.99
5307.00,0.99
5306.00,0.98
5305.00,0.98
5304.00,0.97
5303.00,0.97
5302.00,0.96
5301.00,0.96
5300.00,0.96
5299.00,0.95
5298.00,0.95
5297.00,0.95
5296.00,0.94
5295.00,0.94
5294.00,0.94
5293.00,0.94
5292.00,0.94
5291.00,0.94
5290.00,0.93
5289.00,0.93
5288.00,0.93
5287.00,0.93
5286.00,0.93
5285.00,0.93
5284.00,0.93
5283.00,0.93
5282.00,0.93
5281.00,0.93
5280.00,0.93
5279.00,0.93
5278.00,0.93
5277.00,0.93
5276.00,0.93
5275.00,0.93
5274.00,0.92
5273.00,0.92
5272.00,0.92
5271.00,0.92
5270.00,0.92
5269.00,0.92
5268.00,0.92
5267.00,0.92
5266.00,0.92
5265.00,0.92
5264.00,0.92
5263.00,0.92
5262.00,0.92
5261.00,0.92
5260.00,0.92
5259.00,0.92
5258.00,0.92
5257.00,0.92
5256.00,0.92
5255.00,0.92
5254.00,0.92
5253.00,0.92
5252.00,0.92
5251.00,0.92
5250.00,0.92
5249.00,0.92
5248.00,0.92
5247.00,0.92
5246.00,0.92
5245.00,0.92
5244.00,0.92
5243.00,0.92
5242.00,0.92
5241.00,0.92
5240.00,0.92
5239.00,0.92
5238.00,0.92
5237.00,0.92
5236.00,0.92
5235.00,0.92
5234.00,0.93
5233.00,0.93
5232.00,0.93
5231.00,0.93
5230.00,0.93
5229.00,0.93
5228.00,0.93
5227.00,0.93
5226.00,0.93
5225.00,0.93
5224.00,0.93
5223.00,0.92
5222.00,0.92
5221.00,0.92
5220.00,0.92
5219.00,0.92
5218.00,0.92
5217.00,0.92
5216.00,0.92
5215.00,0.93
5214.00,0.93
5213.00,0.93
5212.00,0.93
5211.00,0.93
5210.00,0.93
5209.00,0.93
5208.00,0.93
5207.00,0.93
5206.00,0.93
5205.00,0.93
5204.00,0.93
5203.00,0.93
5202.00,0.93
5201.00,0.93
5200.00,0.93
5199.00,0.93
5198.00,0.93
5197.00,0.93
5196.00,0.93
5195.00,0.93
5194.00,0.93
5193.00,0.94
5192.00,0.94
5191.00,0.94
5190.00,0.94
5189.00,0.94
5188.00,0.94
5187.00,0.94
5186.00,0.94
5185.00,0.94
5184.00,0.94
5183.00,0.94
5182.00,0.94
5181.00,0.94
5180.00,0.94
5179.00,0.94
5178.00,0.94
5177.00,0.94
5176.00,0.94
5175.00,0.94
5174.00,0.94
5173.00,0.94
5172.00,0.94
5171.00,0.94
5170.00,0.95
5169.00,0.95
5168.00,0.95
5167.00,0.95
5166.00,0.95
5165.00,0.95
5164.00,0.95
5163.00,0.95
5162.00,0.95
5161.00,0.95
5160.00,0.95
5159.00,0.95
5158.00,0.95
5157.00,0.95
5156.00,0.95
5155.00,0.95
5154.00,0.95
5153.00,0.95
5152.00,0.95
5151.00,0.95
5150.00,0.95
5149.00,0.95
5148.00,0.95
5147.00,0.95
5146.00,0.95
5145.00,0.96
5144.00,0.96
5143.00,0.96
5142.00,0.96
5141.00,0.96
5140.00,0.96
5139.00,0.96
5138.00,0.96
5137.00,0.96
5136.00,0.96
5135.00,0.96
5134.00,0.96
5133.00,0.96
5132.00,0.97
5131.00,0.97
5130.00,0.97
5129.00,0.97
5128.00,0.97
5127.00,0.97
5126.00,0.97
5125.00,0.97
5124.00,0.97
5123.00,0.98
5122.00,0.98
5121.00,0.98
5120.00,0.98
5119.00,0.98
5118.00,0.98
5117.00,0.98
5116.00,0.98
5115.00,0.98
5114.00,0.98
5113.00,0.98
5112.00,0.98
5111.00,0.98
5110.00,0.98
5109.00,0.98
5108.00,0.98
5107.00,0.98
5106.00,0.98
5105.00,0.98
5104.00,0.98
5103.00,0.98
5102.00,0.98
5101.00,0.98
5100.00,0.98
5099.00,0.98
5098.00,0.98
5097.00,0.98
5096.00,0.98
5095.00,0.98
5094.00,0.98
5093.00,0.98
5092.00,0.98
5091.00,0.98
5090.00,0.98
5089.00,0.98
5088.00,0.98
5087.00,0.98
5086.00,0.99
5085.00,0.99
5084.00,0.99
5083.00,0.99
5082.00,0.99
5081.00,0.99
5080.00,0.99
5079.00,0.99
5078.00,0.99
5077.00,0.99
5076.00,0.99
5075.00,0.99
5074.00,0.99
5073.00,0.99
5072.00,0.99
5071.00,0.99
5070.00,1.00
5069.00,1.00
5068.00,1.00
5067.00,1.00
5066.00,1.00
5065.00,1.00
5064.00,1.00
5063.00,1.00
5062.00,1.00
5061.00,1.00
5060.00,1.00
5059.00,1.00
5058.00,1.00
5057.00,1.00
5056.00,1.00
5055.00,1.00
5054.00,1.00
5053.00,1.00
5052.00,1.00
5051.00,1.00
5050.00,1.00
5049.00,1.00
5048.00,1.00
5047.00,1.00
5046.00,1.00
5045.00,1.00
5044.00,1.01
5043.00,1.01
5042.00,1.01
5041.00,1.01
5040.00,1.01
5039.00,1.01
5038.00,1.01
5037.00,1.02
5036.00,1.02
5035.00,1.02
5034.00,1.02
5033.00,1.02
5032.00,1.02
5031.00,1.02
5030.00,1.03
5029.00,1.03
5028.00,1.03
5027.00,1.03
5026.00,1.03
5025.00,1.03
5024.00,1.03
5023.00,1.03
5022.00,1.03
5021.00,1.03
5020.00,1.03
5019.00,1.03
5018.00,1.03
5017.00,1.03
5016.00,1.04
5015.00,1.04
5014.00,1.04
5013.00,1.04
5012.00,1.04
5011.00,1.04
5010.00,1.04
5009.00,1.04
5008.00,1.04
5007.00,1.04
5006.00,1.04
5005.00,1.04
5004.00,1.04
5003.00,1.04
5002.00,1.04
5001.00,1.04
5000.00,1.04
4999.00,1.04
4998.00,1.04
4997.00,1.04
4996.00,1.05
4995.00,1.05
4994.00,1.05
4993.00,1.05
4992.00,1.05
4991.00,1.05
4990.00,1.05
4989.00,1.05
4988.00,1.05
4987.00,1.05
4986.00,1.05
4985.00,1.06
4984.00,1.06
4983.00,1.06
4982.00,1.06
4981.00,1.06
4980.00,1.06
4979.00,1.06
4978.00,1.06
4977.00,1.06
4976.00,1.06
4975.00,1.06
4974.00,1.06
4973.00,1.06
4972.00,1.06
4971.00,1.06
4970.00,1.06
4969.00,1.06
4968.00,1.06
4967.00,1.06
4966.00,1.06
4965.00,1.06
4964.00,1.06
4963.00,1.06
4962.00,1.06
4961.00,1.07
4960.00,1.07
4959.00,1.07
4958.00,1.07
4957.00,1.07
4956.00,1.07
4955.00,1.07
4954.00,1.07
4953.00,1.07
4952.00,1.07
4951.00,1.07
4950.00,1.07
4949.00,1.07
4948.00,1.07
4947.00,1.07
4946.00,1.07
4945.00,1.07
4944.00,1.07
4943.00,1.07
4942.00,1.07
4941.00,1.08
4940.00,1.08
4939.00,1.08
4938.00,1.08
4937.00,1.08
4936.00,1.08
4935.00,1.08
4934.00,1.08
4933.00,1.08
4932.00,1.09
4931.00,1.09
4930.00,1.09
4929.00,1.09
4928.00,1.09
4927.00,1.09
4926.00,1.09
4925.00,1.09
4924.00,1.09
4923.00,1.09
4922.00,1.09
4921.00,1.09
4920.00,1.10
4919.00,1.10
4918.00,1.10
4917.00,1.10
4916.00,1.10
4915.00,1.10
4914.00,1.10
4913.00,1.10
4912.00,1.10
4911.00,1.10
4910.00,1.10
4909.00,1.11
4908.00,1.11
4907.00,1.11
4906.00,1.11
4905.00,1.11
4904.00,1.11
4903.00,1.11
4902.00,1.11
4901.00,1.11
4900.00,1.11
4899.00,1.11
4898.00,1.11
4897.00,1.11
4896.00,1.11
4895.00,1.11
4894.00,1.11
4893.00,1.11
4892.00,1.11
4891.00,1.12
4890.00,1.12
4889.00,1.12
4888.00,1.12
4887.00,1.12
4886.00,1.12
4885.00,1.12
4884.00,1.12
4883.00,1.12
4882.00,1.12
4881.00,1.12
4880.00,1.12
4879.00,1.12
4878.00,1.12
4877.00,1.12
4876.00,1.12
4875.00,1.12
4874.00,1.12
4873.00,1.13
4872.00,1.13
4871.00,1.13
4870.00,1.13
4869.00,1.13
4868.00,1.13
4867.00,1.13
4866.00,1.13
4865.00,1.13
4864.00,1.13
4863.00,1.13
4862.00,1.13
4861.00,1.13
4860.00,1.13
4859.00,1.13
4858.00,1.13
4857.00,1.13
4856.00,1.13
4855.00,1.13
4854.00,1.13
4853.00,1.13
4852.00,1.13
4851.00,1.13
4850.00,1.13
4849.00,1.13
4848.00,1.13
4847.00,1.13
4846.00,1.13
4845.00,1.13
4844.00,1.13
4843.00,1.13
4842.00,1.13
4841.00,1.13
4840.00,1.13
4839.00,1.13
4838.00,1.13
4837.00,1.13
4836.00,1.13
4835.00,1.14
4834.00,1.14
4833.00,1.14
4832.00,1.14
4831.00,1.14
4830.00,1.14
4829.00,1.14
4828.00,1.14
4827.00,1.14
4826.00,1.15
4825.00,1.15
4824.00,1.15
4823.00,1.15
4822.00,1.15
4821.00,1.15
4820.00,1.15
4819.00,1.15
4818.00,1.15
4817.00,1.15
4816.00,1.15
4815.00,1.15
4814.00,1.15
4813.00,1.15
4812.00,1.15
4811.00,1.15
4810.00,1.16
4809.00,1.16
4808.00,1.16
4807.00,1.16
4806.00,1.16
4805.00,1.16
4804.00,1.16
4803.00,1.16
4802.00,1.16
4801.00,1.16
4800.00,1.17
4799.00,1.17
4798.00,1.17
4797.00,1.17
4796.00,1.17
4795.00,1.17
4794.00,1.17
4793.00,1.17
4792.00,1.18
4791.00,1.18
4790.00,1.18
4789.00,1.18
4788.00,1.18
4787.00,1.18
4786.00,1.18
4785.00,1.18
4784.00,1.18
4783.00,1.18
4782.00,1.19
4781.00,1.19
4780.00,1.19
4779.00,1.19
4778.00,1.19
4777.00,1.19
4776.00,1.19
4775.00,1.19
4774.00,1.19
4773.00,1.19
4772.00,1.19
4771.00,1.19
4770.00,1.19
4769.00,1.19
4768.00,1.19
4767.00,1.19
4766.00,1.19
4765.00,1.19
4764.00,1.20
4763.00,1.20
4762.00,1.20
4761.00,1.20
4760.00,1.20
4759.00,1.20
4758.00,1.20
4757.00,1.20
4756.00,1.20
4755.00,1.21
4754.00,1.21
4753.00,1.21
4752.00,1.21
4751.00,1.21
4750.00,1.21
4749.00,1.22
4748.00,1.22
4747.00,1.22
4746.00,1.22
4745.00,1.23
4744.00,1.23
4743.00,1.23
4742.00,1.23
4741.00,1.23
4740.00,1.24
4739.00,1.24
4738.00,1.24
4737.00,1.24
4736.00,1.24
4735.00,1.24
4734.00,1.24
4733.00,1.24
4732.00,1.25
4731.00,1.25
4730.00,1.25
4729.00,1.25
4728.00,1.25
4727.00,1.25
4726.00,1.25
4725.00,1.25
4724.00,1.25
4723.00,1.25
4722.00,1.25
4721.00,1.25
4720.00,1.25
4719.00,1.26
4718.00,1.26
4717.00,1.26
4716.00,1.26
4715.00,1.26
4714.00,1.26
4713.00,1.26
4712.00,1.27
4711.00,1.27
4710.00,1.27
4709.00,1.27
4708.00,1.27
4707.00,1.27
4706.00,1.27
4705.00,1.27
4704.00,1.28
4703.00,1.28
4702.00,1.28
4701.00,1.28
4700.00,1.28
4699.00,1.28
4698.00,1.28
4697.00,1.28
4696.00,1.29
4695.00,1.29
4694.00,1.29
4693.00,1.29
4692.00,1.29
4691.00,1.29
4690.00,1.29
4689.00,1.29
4688.00,1.29
4687.00,1.29
4686.00,1.29
4685.00,1.29
4684.00,1.29
4683.00,1.30
4682.00,1.30
4681.00,1.30
4680.00,1.30
4679.00,1.30
4678.00,1.30
4677.00,1.30
4676.00,1.31
4675.00,1.31
4674.00,1.31
4673.00,1.31
4672.00,1.31
4671.00,1.31
4670.00,1.32
4669.00,1.32
4668.00,1.32
4667.00,1.32
4666.00,1.32
4665.00,1.32
4664.00,1.32
4663.00,1.32
4662.00,1.32
4661.00,1.32
4660.00,1.32
4659.00,1.32
4658.00,1.33
4657.00,1.33
4656.00,1.33
4655.00,1.33
4654.00,1.33
4653.00,1.33
4652.00,1.33
4651.00,1.33
4650.00,1.33
4649.00,1.33
4648.00,1.33
4647.00,1.33
4646.00,1.33
4645.00,1.34
4644.00,1.34
4643.00,1.34
4642.00,1.34
4641.00,1.34
4640.00,1.34
4639.00,1.34
4638.00,1.35
4637.00,1.35
4636.00,1.35
4635.00,1.35
4634.00,1.35
4633.00,1.35
4632.00,1.36
4631.00,1.36
4630.00,1.36
4629.00,1.36
4628.00,1.36
4627.00,1.36
4626.00,1.36
4625.00,1.36
4624.00,1.36
4623.00,1.36
4622.00,1.36
4621.00,1.37
4620.00,1.37
4619.00,1.37
4618.00,1.37
4617.00,1.37
4616.00,1.37
4615.00,1.37
4614.00,1.37
4613.00,1.37
4612.00,1.37
4611.00,1.37
4610.00,1.37
4609.00,1.37
4608.00,1.37
4607.00,1.37
4606.00,1.37
4605.00,1.37
4604.00,1.38
4603.00,1.38
4602.00,1.38
4601.00,1.38
4600.00,1.38
4599.00,1.38
4598.00,1.38
4597.00,1.38
4596.00,1.38
4595.00,1.38
4594.00,1.39
4593.00,1.39
4592.00,1.39
4591.00,1.39
4590.00,1.39
4589.00,1.39
4588.00,1.39
4587.00,1.39
4586.00,1.39
4585.00,1.39
4584.00,1.39
4583.00,1.39
4582.00,1.39
4581.00,1.39
4580.00,1.40
4579.00,1.40
4578.00,1.40
4577.00,1.40
4576.00,1.40
4575.00,1.40
4574.00,1.40
4573.00,1.40
4572.00,1.40
4571.00,1.40
4570.00,1.40
4569.00,1.40
4568.00,1.40
4567.00,1.41
4566.00,1.41
4565.00,1.41
4564.00,1.41
4563.00,1.41
4562.00,1.41
4561.00,1.41
4560.00,1.41
4559.00,1.42
4558.00,1.42
4557.00,1.42
4556.00,1.42
4555.00,1.42
4554.00,1.42
4553.00,1.42
4552.00,1.42
4551.00,1.42
4550.00,1.43
4549.00,1.43
4548.00,1.43
4547.00,1.43
4546.00,1.43
4545.00,1.43
4544.00,1.43
4543.00,1.43
4542.00,1.43
4541.00,1.43
4540.00,1.43
4539.00,1.43
4538.00,1.43
4537.00,1.43
4536.00,1.43
4535.00,1.43
4534.00,1.43
4533.00,1.43
4532.00,1.43
4531.00,1.43
4530.00,1.43
4529.00,1.43
4528.00,1.43
4527.00,1.43
4526.00,1.43
4525.00,1.43
4524.00,1.43
4523.00,1.43
4522.00,1.43
4521.00,1.43
4520.00,1.43
4519.00,1.43
4518.00,1.43
4517.00,1.43
4516.00,1.43
4515.00,1.43
4514.00,1.43
4513.00,1.43
4512.00,1.43
4511.00,1.43
4510.00,1.43
4509.00,1.43
4508.00,1.43
4507.00,1.43
4506.00,1.43
4505.00,1.43
4504.00,1.43
4503.00,1.43
4502.00,1.43
4501.00,1.43
4500.00,1.43
4499.00,1.43
4498.00,1.43
4497.00,1.43
4496.00,1.43
4495.00,1.43
4494.00,1.43
4493.00,1.43
4492.00,1.43
4491.00,1.43
4490.00,1.43
4489.00,1.43
4488.00,1.43
4487.00,1.43
4486.00,1.43
4485.00,1.42
4484.00,1.42
4483.00,1.42
4482.00,1.42
4481.00,1.42
4480.00,1.42
4479.00,1.42
4478.00,1.41
4477.00,1.41
4476.00,1.41
4475.00,1.41
4474.00,1.41
4473.00,1.41
4472.00,1.40
4471.00,1.40
4470.00,1.40
4469.00,1.40
4468.00,1.40
4467.00,1.40
4466.00,1.39
4465.00,1.39
4464.00,1.39
4463.00,1.39
4462.00,1.39
4461.00,1.39
4460.00,1.38
4459.00,1.38
4458.00,1.38
4457.00,1.38
4456.00,1.38
4455.00,1.38
4454.00,1.38
4453.00,1.37
4452.00,1.37
4451.00,1.37
4450.00,1.37
4449.00,1.36
4448.00,1.36
4447.00,1.36
4446.00,1.35
4445.00,1.35
4444.00,1.35
4443.00,1.34
4442.00,1.34
4441.00,1.34
4440.00,1.33
4439.00,1.33
4438.00,1.33
4437.00,1.33
4436.00,1.32
4435.00,1.32
4434.00,1.32
4433.00,1.32
4432.00,1.32
4431.00,1.32
4430.00,1.32
4429.00,1.32
4428.00,1.32
4427.00,1.32
4426.00,1.32
4425.00,1.32
4424.00,1.32
4423.00,1.32
4422.00,1.32
4421.00,1.32
4420.00,1.32
4419.00,1.32
4418.00,1.32
4417.00,1.32
4416.00,1.32
4415.00,1.32
4414.00,1.32
4413.00,1.32
4412.00,1.32
4411.00,1.32
4410.00,1.32
4409.00,1.32
4408.00,1.32
4407.00,1.32
4406.00,1.32
4405.00,1.32
4404.00,1.32
4403.00,1.32
4402.00,1.33
4401.00,1.33
4400.00,1.33
4399.00,1.33
4398.00,1.33
4397.00,1.33
4396.00,1.33
4395.00,1.33
4394.00,1.33
4393.00,1.33
4392.00,1.33
4391.00,1.33
4390.00,1.33
4389.00,1.33
4388.00,1.34
4387.00,1.34
4386.00,1.34
4385.00,1.34
4384.00,1.34
4383.00,1.34
4382.00,1.34
4381.00,1.34
4380.00,1.34
4379.00,1.34
4378.00,1.35
4377.00,1.35
4376.00,1.35
4375.00,1.35
4374.00,1.35
4373.00,1.35
4372.00,1.36
4371.00,1.36
4370.00,1.36
4369.00,1.36
4368.00,1.36
4367.00,1.36
4366.00,1.36
4365.00,1.37
4364.00,1.37
4363.00,1.37
4362.00,1.37
4361.00,1.37
4360.00,1.37
4359.00,1.37
4358.00,1.37
4357.00,1.37
4356.00,1.37
4355.00,1.37
4354.00,1.37
4353.00,1.37
4352.00,1.37
4351.00,1.37
4350.00,1.36
4349.00,1.36
4348.00,1.36
4347.00,1.36
4346.00,1.36
4345.00,1.36
4344.00,1.36
4343.00,1.36
4342.00,1.36
4341.00,1.36
4340.00,1.36
4339.00,1.36
4338.00,1.36
4337.00,1.36
4336.00,1.36
4335.00,1.36
4334.00,1.36
4333.00,1.36
4332.00,1.36
4331.00,1.36
4330.00,1.36
4329.00,1.36
4328.00,1.36
4327.00,1.36
4326.00,1.36
4325.00,1.36
4324.00,1.36
4323.00,1.36
4322.00,1.36
4321.00,1.36
4320.00,1.36
4319.00,1.36
4318.00,1.37
4317.00,1.37
4316.00,1.37
4315.00,1.37
4314.00,1.37
4313.00,1.37
4312.00,1.38
4311.00,1.38
4310.00,1.38
4309.00,1.38
4308.00,1.38
4307.00,1.39
4306.00,1.39
4305.00,1.39
4304.00,1.39
4303.00,1.39
4302.00,1.40
4301.00,1.40
4300.00,1.40
4299.00,1.40
4298.00,1.40
4297.00,1.40
4296.00,1.41
4295.00,1.41
4294.00,1.41
4293.00,1.41
4292.00,1.41
4291.00,1.41
4290.00,1.41
4289.00,1.41
4288.00,1.41
4287.00,1.41
4286.00,1.42
4285.00,1.42
4284.00,1.42
4283.00,1.42
4282.00,1.42
4281.00,1.42
4280.00,1.42
4279.00,1.42
4278.00,1.42
4277.00,1.42
4276.00,1.42
4275.00,1.42
4274.00,1.42
4273.00,1.42
4272.00,1.42
4271.00,1.42
4270.00,1.42
4269.00,1.42
4268.00,1.42
4267.00,1.42
4266.00,1.42
4265.00,1.42
4264.00,1.42
4263.00,1.42
4262.00,1.42
4261.00,1.43
4260.00,1.43
4259.00,1.43
4258.00,1.43
4257.00,1.43
4256.00,1.43
4255.00,1.43
4254.00,1.43
4253.00,1.43
4252.00,1.43
4251.00,1.43
4250.00,1.43
4249.00,1.43
4248.00,1.43
4247.00,1.44
4246.00,1.44
4245.00,1.44
4244.00,1.44
4243.00,1.44
4242.00,1.44
4241.00,1.44
4240.00,1.44
4239.00,1.44
4238.00,1.44
4237.00,1.44
4236.00,1.45
4235.00,1.45
4234.00,1.45
4233.00,1.45
4232.00,1.45
4231.00,1.45
4230.00,1.45
4229.00,1.45
4228.00,1.45
4227.00,1.45
4226.00,1.45
4225.00,1.45
4224.00,1.45
4223.00,1.46
4222.00,1.46
4221.00,1.46
4220.00,1.46
4219.00,1.46
4218.00,1.46
4217.00,1.46
4216.00,1.46
4215.00,1.46
4214.00,1.46
4213.00,1.47
4212.00,1.47
4211.00,1.47
4210.00,1.47
4209.00,1.47
4208.00,1.47
4207.00,1.47
4206.00,1.47
4205.00,1.47
4204.00,1.47
4203.00,1.47
4202.00,1.47
4201.00,1.47
4200.00,1.47
4199.00,1.47
4198.00,1.47
4197.00,1.47
4196.00,1.47
4195.00,1.47
4194.00,1.47
4193.00,1.47
4192.00,1.47
4191.00,1.47
4190.00,1.47
4189.00,1.47
4188.00,1.47
4187.00,1.47
4186.00,1.47
4185.00,1.47
4184.00,1.47
4183.00,1.47
4182.00,1.47
4181.00,1.47
4180.00,1.47
4179.00,1.47
4178.00,1.47
4177.00,1.47
4176.00,1.48
4175.00,1.48
4174.00,1.48
4173.00,1.48
4172.00,1.48
4171.00,1.48
4170.00,1.48
4169.00,1.48
4168.00,1.48
4167.00,1.48
4166.00,1.48
4165.00,1.48
4164.00,1.48
4163.00,1.48
4162.00,1.48
4161.00,1.48
4160.00,1.48
4159.00,1.48
4158.00,1.48
4157.00,1.48
4156.00,1.48
4155.00,1.48
4154.00,1.48
4153.00,1.49
4152.00,1.49
4151.00,1.49
4150.00,1.49
4149.00,1.49
4148.00,1.49
4147.00,1.50
4146.00,1.50
4145.00,1.50
4144.00,1.50
4143.00,1.51
4142.00,1.51
4141.00,1.51
4140.00,1.51
4139.00,1.51
4138.00,1.51
4137.00,1.51
4136.00,1.51
4135.00,1.51
4134.00,1.51
4133.00,1.51
4132.00,1.51
4131.00,1.51
4130.00,1.51
4129.00,1.51
4128.00,1.51
4127.00,1.51
4126.00,1.51
4125.00,1.51
4124.00,1.51
4123.00,1.51
4122.00,1.51
4121.00,1.51
4120.00,1.51
4119.00,1.51
4118.00,1.51
4117.00,1.51
4116.00,1.50
4115.00,1.50
4114.00,1.50
4113.00,1.50
4112.00,1.50
4111.00,1.50
4110.00,1.50
4109.00,1.50
4108.00,1.50
4107.00,1.50
4106.00,1.51
4105.00,1.51
4104.00,1.51
4103.00,1.51
4102.00,1.51
4101.00,1.51
4100.00,1.51
4099.00,1.51
4098.00,1.51
4097.00,1.51
4096.00,1.51
4095.00,1.51
4094.00,1.51
4093.00,1.51
4092.00,1.51
4091.00,1.52
4090.00,1.52
4089.00,1.52
4088.00,1.52
4087.00,1.52
4086.00,1.52
4085.00,1.52
4084.00,1.52
4083.00,1.52
4082.00,1.52
4081.00,1.52
4080.00,1.52
4079.00,1.52
4078.00,1.52
4077.00,1.52
4076.00,1.52
4075.00,1.52
4074.00,1.52
4073.00,1.52
4072.00,1.53
4071.00,1.53
4070.00,1.53
4069.00,1.53
4068.00,1.53
4067.00,1.53
4066.00,1.53
4065.00,1.53
4064.00,1.53
4063.00,1.53
4062.00,1.54
4061.00,1.54
4060.00,1.54
4059.00,1.54
4058.00,1.54
4057.00,1.54
4056.00,1.54
4055.00,1.54
4054.00,1.54
4053.00,1.55
4052.00,1.55
4051.00,1.55
4050.00,1.55
4049.00,1.55
4048.00,1.55
4047.00,1.55
4046.00,1.55
4045.00,1.56
4044.00,1.56
4043.00,1.56
4042.00,1.56
4041.00,1.56
4040.00,1.56
4039.00,1.56
4038.00,1.56
4037.00,1.56
4036.00,1.56
4035.00,1.56
4034.00,1.56
4033.00,1.56
4032.00,1.56
4031.00,1.56
4030.00,1.56
4029.00,1.56
4028.00,1.56
4027.00,1.56
4026.00,1.56
4025.00,1.56
4024.00,1.56
4023.00,1.56
4022.00,1.56
4021.00,1.56
4020.00,1.56
4019.00,1.56
4018.00,1.56
4017.00,1.56
4016.00,1.56
4015.00,1.56
4014.00,1.56
4013.00,1.56
4012.00,1.56
4011.00,1.56
4010.00,1.56
4009.00,1.56
4008.00,1.56
4007.00,1.56
4006.00,1.56
4005.00,1.56
4004.00,1.56
4003.00,1.56
4002.00,1.56
4001.00,1.56
4000.00,1.56
