创建为新数据集,样品 187 用户 Administrator 日期 星期六, 七月 21 2018
cm-1,%T
10000.00,1.67
9999.00,1.66
9998.00,1.66
9997.00,1.66
9996.00,1.66
9995.00,1.66
9994.00,1.66
9993.00,1.66
9992.00,1.66
9991.00,1.66
9990.00,1.66
9989.00,1.66
9988.00,1.66
9987.00,1.66
9986.00,1.66
9985.00,1.66
9984.00,1.66
9983.00,1.66
9982.00,1.66
9981.00,1.66
9980.00,1.66
9979.00,1.66
9978.00,1.66
9977.00,1.66
9976.00,1.66
9975.00,1.66
9974.00,1.66
9973.00,1.66
9972.00,1.66
9971.00,1.66
9970.00,1.66
9969.00,1.65
9968.00,1.65
9967.00,1.65
9966.00,1.65
9965.00,1.65
9964.00,1.65
9963.00,1.65
9962.00,1.65
9961.00,1.65
9960.00,1.65
9959.00,1.65
9958.00,1.65
9957.00,1.65
9956.00,1.65
9955.00,1.65
9954.00,1.66
9953.00,1.66
9952.00,1.66
9951.00,1.66
9950.00,1.66
9949.00,1.66
9948.00,1.66
9947.00,1.65
9946.00,1.65
9945.00,1.65
9944.00,1.65
9943.00,1.65
9942.00,1.64
9941.00,1.64
9940.00,1.64
9939.00,1.64
9938.00,1.63
9937.00,1.63
9936.00,1.63
9935.00,1.63
9934.00,1.63
9933.00,1.63
9932.00,1.63
9931.00,1.63
9930.00,1.63
9929.00,1.63
9928.00,1.63
9927.00,1.63
9926.00,1.63
9925.00,1.63
9924.00,1.63
9923.00,1.63
9922.00,1.63
9921.00,1.63
9920.00,1.64
9919.00,1.64
9918.00,1.64
9917.00,1.64
9916.00,1.64
9915.00,1.64
9914.00,1.64
9913.00,1.64
9912.00,1.64
9911.00,1.63
9910.00,1.63
9909.00,1.63
9908.00,1.63
9907.00,1.63
9906.00,1.63
9905.00,1.63
9904.00,1.63
9903.00,1.63
9902.00,1.63
9901.00,1.63
9900.00,1.63
9899.00,1.63
9898.00,1.63
9897.00,1.63
9896.00,1.64
9895.00,1.64
9894.00,1.64
9893.00,1.64
9892.00,1.64
9891.00,1.64
9890.00,1.64
9889.00,1.64
9888.00,1.64
9887.00,1.64
9886.00,1.64
9885.00,1.64
9884.00,1.64
9883.00,1.64
9882.00,1.64
9881.00,1.64
9880.00,1.64
9879.00,1.64
9878.00,1.64
9877.00,1.64
9876.00,1.64
9875.00,1.64
9874.00,1.64
9873.00,1.64
9872.00,1.64
9871.00,1.64
9870.00,1.64
9869.00,1.64
9868.00,1.64
9867.00,1.64
9866.00,1.64
9865.00,1.64
9864.00,1.64
9863.00,1.64
9862.00,1.64
9861.00,1.64
9860.00,1.64
9859.00,1.64
9858.00,1.64
9857.00,1.64
9856.00,1.64
9855.00,1.64
9854.00,1.64
9853.00,1.64
9852.00,1.63
9851.00,1.63
9850.00,1.63
9849.00,1.63
9848.00,1.63
9847.00,1.63
9846.00,1.63
9845.00,1.63
9844.00,1.63
9843.00,1.63
9842.00,1.63
9841.00,1.63
9840.00,1.63
9839.00,1.63
9838.00,1.63
9837.00,1.63
9836.00,1.63
9835.00,1.63
9834.00,1.63
9833.00,1.63
9832.00,1.63
9831.00,1.63
9830.00,1.63
9829.00,1.63
9828.00,1.63
9827.00,1.63
9826.00,1.63
9825.00,1.63
9824.00,1.63
9823.00,1.63
9822.00,1.64
9821.00,1.64
9820.00,1.64
9819.00,1.64
9818.00,1.64
9817.00,1.64
9816.00,1.64
9815.00,1.65
9814.00,1.65
9813.00,1.65
9812.00,1.65
9811.00,1.65
9810.00,1.65
9809.00,1.66
9808.00,1.66
9807.00,1.66
9806.00,1.66
9805.00,1.66
9804.00,1.66
9803.00,1.66
9802.00,1.66
9801.00,1.66
9800.00,1.66
9799.00,1.66
9798.00,1.66
9797.00,1.66
9796.00,1.66
9795.00,1.66
9794.00,1.66
9793.00,1.65
9792.00,1.65
9791.00,1.65
9790.00,1.64
9789.00,1.64
9788.00,1.64
9787.00,1.63
9786.00,1.63
9785.00,1.62
9784.00,1.62
9783.00,1.62
9782.00,1.62
9781.00,1.61
9780.00,1.61
9779.00,1.61
9778.00,1.61
9777.00,1.61
9776.00,1.61
9775.00,1.61
9774.00,1.61
9773.00,1.61
9772.00,1.61
9771.00,1.61
9770.00,1.61
9769.00,1.61
9768.00,1.61
9767.00,1.61
9766.00,1.61
9765.00,1.61
9764.00,1.61
9763.00,1.61
9762.00,1.61
9761.00,1.60
9760.00,1.60
9759.00,1.60
9758.00,1.60
9757.00,1.60
9756.00,1.60
9755.00,1.60
9754.00,1.60
9753.00,1.60
9752.00,1.60
9751.00,1.60
9750.00,1.60
9749.00,1.60
9748.00,1.60
9747.00,1.60
9746.00,1.61
9745.00,1.61
9744.00,1.61
9743.00,1.61
9742.00,1.61
9741.00,1.61
9740.00,1.62
9739.00,1.62
9738.00,1.62
9737.00,1.62
9736.00,1.62
9735.00,1.62
9734.00,1.62
9733.00,1.62
9732.00,1.62
9731.00,1.62
9730.00,1.62
9729.00,1.62
9728.00,1.62
9727.00,1.62
9726.00,1.62
9725.00,1.62
9724.00,1.62
9723.00,1.62
9722.00,1.62
9721.00,1.62
9720.00,1.63
9719.00,1.63
9718.00,1.63
9717.00,1.63
9716.00,1.63
9715.00,1.63
9714.00,1.63
9713.00,1.63
9712.00,1.63
9711.00,1.62
9710.00,1.62
9709.00,1.62
9708.00,1.62
9707.00,1.62
9706.00,1.62
9705.00,1.62
9704.00,1.62
9703.00,1.62
9702.00,1.62
9701.00,1.62
9700.00,1.62
9699.00,1.62
9698.00,1.62
9697.00,1.62
9696.00,1.62
9695.00,1.62
9694.00,1.62
9693.00,1.62
9692.00,1.63
9691.00,1.63
9690.00,1.63
9689.00,1.63
9688.00,1.63
9687.00,1.63
9686.00,1.63
9685.00,1.63
9684.00,1.63
9683.00,1.63
9682.00,1.62
9681.00,1.62
9680.00,1.62
9679.00,1.62
9678.00,1.62
9677.00,1.62
9676.00,1.62
9675.00,1.62
9674.00,1.62
9673.00,1.62
9672.00,1.61
9671.00,1.61
9670.00,1.61
9669.00,1.61
9668.00,1.62
9667.00,1.62
9666.00,1.62
9665.00,1.62
9664.00,1.62
9663.00,1.62
9662.00,1.62
9661.00,1.62
9660.00,1.62
9659.00,1.62
9658.00,1.63
9657.00,1.63
9656.00,1.63
9655.00,1.63
9654.00,1.63
9653.00,1.63
9652.00,1.63
9651.00,1.63
9650.00,1.63
9649.00,1.63
9648.00,1.63
9647.00,1.63
9646.00,1.63
9645.00,1.63
9644.00,1.63
9643.00,1.63
9642.00,1.63
9641.00,1.63
9640.00,1.64
9639.00,1.64
9638.00,1.64
9637.00,1.64
9636.00,1.64
9635.00,1.65
9634.00,1.65
9633.00,1.65
9632.00,1.65
9631.00,1.65
9630.00,1.66
9629.00,1.66
9628.00,1.66
9627.00,1.66
9626.00,1.66
9625.00,1.66
9624.00,1.66
9623.00,1.66
9622.00,1.66
9621.00,1.66
9620.00,1.66
9619.00,1.66
9618.00,1.66
9617.00,1.66
9616.00,1.66
9615.00,1.66
9614.00,1.66
9613.00,1.66
9612.00,1.66
9611.00,1.66
9610.00,1.66
9609.00,1.65
9608.00,1.65
9607.00,1.65
9606.00,1.65
9605.00,1.65
9604.00,1.64
9603.00,1.64
9602.00,1.64
9601.00,1.64
9600.00,1.64
9599.00,1.64
9598.00,1.63
9597.00,1.63
9596.00,1.63
9595.00,1.63
9594.00,1.63
9593.00,1.63
9592.00,1.63
9591.00,1.63
9590.00,1.63
9589.00,1.63
9588.00,1.63
9587.00,1.63
9586.00,1.63
9585.00,1.63
9584.00,1.63
9583.00,1.63
9582.00,1.63
9581.00,1.63
9580.00,1.63
9579.00,1.63
9578.00,1.63
9577.00,1.63
9576.00,1.63
9575.00,1.63
9574.00,1.62
9573.00,1.62
9572.00,1.62
9571.00,1.62
9570.00,1.62
9569.00,1.62
9568.00,1.62
9567.00,1.62
9566.00,1.61
9565.00,1.61
9564.00,1.61
9563.00,1.61
9562.00,1.61
9561.00,1.61
9560.00,1.61
9559.00,1.61
9558.00,1.61
9557.00,1.61
9556.00,1.61
9555.00,1.61
9554.00,1.61
9553.00,1.62
9552.00,1.62
9551.00,1.62
9550.00,1.62
9549.00,1.63
9548.00,1.63
9547.00,1.63
9546.00,1.63
9545.00,1.63
9544.00,1.64
9543.00,1.64
9542.00,1.64
9541.00,1.64
9540.00,1.64
9539.00,1.64
9538.00,1.64
9537.00,1.64
9536.00,1.64
9535.00,1.64
9534.00,1.63
9533.00,1.63
9532.00,1.63
9531.00,1.63
9530.00,1.63
9529.00,1.63
9528.00,1.62
9527.00,1.62
9526.00,1.62
9525.00,1.62
9524.00,1.62
9523.00,1.62
9522.00,1.62
9521.00,1.62
9520.00,1.62
9519.00,1.62
9518.00,1.62
9517.00,1.62
9516.00,1.62
9515.00,1.62
9514.00,1.62
9513.00,1.62
9512.00,1.62
9511.00,1.62
9510.00,1.62
9509.00,1.63
9508.00,1.63
9507.00,1.63
9506.00,1.63
9505.00,1.63
9504.00,1.63
9503.00,1.63
9502.00,1.63
9501.00,1.63
9500.00,1.64
9499.00,1.64
9498.00,1.64
9497.00,1.63
9496.00,1.63
9495.00,1.63
9494.00,1.63
9493.00,1.63
9492.00,1.63
9491.00,1.63
9490.00,1.63
9489.00,1.63
9488.00,1.63
9487.00,1.63
9486.00,1.63
9485.00,1.63
9484.00,1.63
9483.00,1.63
9482.00,1.63
9481.00,1.63
9480.00,1.63
9479.00,1.63
9478.00,1.63
9477.00,1.63
9476.00,1.63
9475.00,1.63
9474.00,1.63
9473.00,1.63
9472.00,1.63
9471.00,1.63
9470.00,1.62
9469.00,1.62
9468.00,1.62
9467.00,1.62
9466.00,1.62
9465.00,1.62
9464.00,1.63
9463.00,1.63
9462.00,1.63
9461.00,1.63
9460.00,1.63
9459.00,1.63
9458.00,1.63
9457.00,1.63
9456.00,1.63
9455.00,1.63
9454.00,1.63
9453.00,1.63
9452.00,1.63
9451.00,1.64
9450.00,1.64
9449.00,1.64
9448.00,1.64
9447.00,1.64
9446.00,1.64
9445.00,1.63
9444.00,1.63
9443.00,1.63
9442.00,1.63
9441.00,1.63
9440.00,1.63
9439.00,1.63
9438.00,1.63
9437.00,1.63
9436.00,1.63
9435.00,1.63
9434.00,1.63
9433.00,1.63
9432.00,1.63
9431.00,1.63
9430.00,1.63
9429.00,1.63
9428.00,1.63
9427.00,1.63
9426.00,1.63
9425.00,1.63
9424.00,1.63
9423.00,1.63
9422.00,1.63
9421.00,1.63
9420.00,1.63
9419.00,1.63
9418.00,1.63
9417.00,1.63
9416.00,1.63
9415.00,1.63
9414.00,1.63
9413.00,1.63
9412.00,1.62
9411.00,1.62
9410.00,1.62
9409.00,1.62
9408.00,1.62
9407.00,1.62
9406.00,1.62
9405.00,1.62
9404.00,1.62
9403.00,1.62
9402.00,1.62
9401.00,1.62
9400.00,1.62
9399.00,1.62
9398.00,1.62
9397.00,1.62
9396.00,1.62
9395.00,1.62
9394.00,1.62
9393.00,1.62
9392.00,1.62
9391.00,1.62
9390.00,1.62
9389.00,1.62
9388.00,1.62
9387.00,1.62
9386.00,1.62
9385.00,1.62
9384.00,1.62
9383.00,1.62
9382.00,1.62
9381.00,1.62
9380.00,1.62
9379.00,1.62
9378.00,1.62
9377.00,1.62
9376.00,1.62
9375.00,1.62
9374.00,1.62
9373.00,1.62
9372.00,1.62
9371.00,1.62
9370.00,1.62
9369.00,1.62
9368.00,1.62
9367.00,1.62
9366.00,1.62
9365.00,1.62
9364.00,1.62
9363.00,1.62
9362.00,1.62
9361.00,1.62
9360.00,1.62
9359.00,1.63
9358.00,1.63
9357.00,1.63
9356.00,1.63
9355.00,1.63
9354.00,1.63
9353.00,1.64
9352.00,1.64
9351.00,1.64
9350.00,1.64
9349.00,1.64
9348.00,1.64
9347.00,1.65
9346.00,1.65
9345.00,1.65
9344.00,1.65
9343.00,1.65
9342.00,1.65
9341.00,1.65
9340.00,1.64
9339.00,1.64
9338.00,1.64
9337.00,1.64
9336.00,1.64
9335.00,1.64
9334.00,1.63
9333.00,1.63
9332.00,1.63
9331.00,1.63
9330.00,1.63
9329.00,1.63
9328.00,1.62
9327.00,1.62
9326.00,1.62
9325.00,1.62
9324.00,1.62
9323.00,1.62
9322.00,1.63
9321.00,1.63
9320.00,1.63
9319.00,1.63
9318.00,1.63
9317.00,1.63
9316.00,1.64
9315.00,1.64
9314.00,1.64
9313.00,1.64
9312.00,1.64
9311.00,1.65
9310.00,1.65
9309.00,1.65
9308.00,1.65
9307.00,1.65
9306.00,1.65
9305.00,1.65
9304.00,1.65
9303.00,1.65
9302.00,1.65
9301.00,1.65
9300.00,1.65
9299.00,1.64
9298.00,1.64
9297.00,1.64
9296.00,1.64
9295.00,1.64
9294.00,1.64
9293.00,1.64
9292.00,1.64
9291.00,1.64
9290.00,1.64
9289.00,1.64
9288.00,1.64
9287.00,1.64
9286.00,1.64
9285.00,1.64
9284.00,1.64
9283.00,1.64
9282.00,1.64
9281.00,1.64
9280.00,1.64
9279.00,1.64
9278.00,1.64
9277.00,1.64
9276.00,1.64
9275.00,1.64
9274.00,1.64
9273.00,1.64
9272.00,1.64
9271.00,1.64
9270.00,1.64
9269.00,1.64
9268.00,1.64
9267.00,1.64
9266.00,1.64
9265.00,1.64
9264.00,1.64
9263.00,1.63
9262.00,1.63
9261.00,1.63
9260.00,1.63
9259.00,1.63
9258.00,1.63
9257.00,1.63
9256.00,1.63
9255.00,1.63
9254.00,1.63
9253.00,1.63
9252.00,1.63
9251.00,1.63
9250.00,1.63
9249.00,1.63
9248.00,1.63
9247.00,1.63
9246.00,1.63
9245.00,1.62
9244.00,1.62
9243.00,1.62
9242.00,1.62
9241.00,1.62
9240.00,1.62
9239.00,1.63
9238.00,1.63
9237.00,1.63
9236.00,1.63
9235.00,1.63
9234.00,1.63
9233.00,1.63
9232.00,1.63
9231.00,1.63
9230.00,1.63
9229.00,1.63
9228.00,1.63
9227.00,1.63
9226.00,1.62
9225.00,1.62
9224.00,1.62
9223.00,1.62
9222.00,1.62
9221.00,1.62
9220.00,1.63
9219.00,1.63
9218.00,1.63
9217.00,1.63
9216.00,1.63
9215.00,1.63
9214.00,1.64
9213.00,1.64
9212.00,1.64
9211.00,1.64
9210.00,1.64
9209.00,1.64
9208.00,1.64
9207.00,1.64
9206.00,1.64
9205.00,1.64
9204.00,1.64
9203.00,1.64
9202.00,1.64
9201.00,1.64
9200.00,1.64
9199.00,1.64
9198.00,1.64
9197.00,1.65
9196.00,1.65
9195.00,1.65
9194.00,1.65
9193.00,1.65
9192.00,1.65
9191.00,1.65
9190.00,1.65
9189.00,1.65
9188.00,1.66
9187.00,1.66
9186.00,1.66
9185.00,1.66
9184.00,1.66
9183.00,1.66
9182.00,1.66
9181.00,1.66
9180.00,1.66
9179.00,1.66
9178.00,1.66
9177.00,1.66
9176.00,1.66
9175.00,1.66
9174.00,1.66
9173.00,1.66
9172.00,1.66
9171.00,1.66
9170.00,1.66
9169.00,1.66
9168.00,1.66
9167.00,1.66
9166.00,1.66
9165.00,1.66
9164.00,1.65
9163.00,1.65
9162.00,1.65
9161.00,1.65
9160.00,1.65
9159.00,1.65
9158.00,1.65
9157.00,1.65
9156.00,1.64
9155.00,1.64
9154.00,1.64
9153.00,1.64
9152.00,1.64
9151.00,1.64
9150.00,1.63
9149.00,1.63
9148.00,1.63
9147.00,1.63
9146.00,1.63
9145.00,1.63
9144.00,1.63
9143.00,1.63
9142.00,1.63
9141.00,1.63
9140.00,1.63
9139.00,1.63
9138.00,1.64
9137.00,1.64
9136.00,1.64
9135.00,1.64
9134.00,1.64
9133.00,1.64
9132.00,1.64
9131.00,1.64
9130.00,1.64
9129.00,1.64
9128.00,1.64
9127.00,1.64
9126.00,1.64
9125.00,1.64
9124.00,1.64
9123.00,1.65
9122.00,1.65
9121.00,1.65
9120.00,1.65
9119.00,1.65
9118.00,1.65
9117.00,1.65
9116.00,1.65
9115.00,1.65
9114.00,1.65
9113.00,1.66
9112.00,1.66
9111.00,1.66
9110.00,1.66
9109.00,1.66
9108.00,1.66
9107.00,1.66
9106.00,1.66
9105.00,1.65
9104.00,1.65
9103.00,1.65
9102.00,1.65
9101.00,1.65
9100.00,1.65
9099.00,1.64
9098.00,1.64
9097.00,1.64
9096.00,1.64
9095.00,1.64
9094.00,1.64
9093.00,1.64
9092.00,1.64
9091.00,1.64
9090.00,1.64
9089.00,1.64
9088.00,1.64
9087.00,1.64
9086.00,1.64
9085.00,1.64
9084.00,1.64
9083.00,1.64
9082.00,1.64
9081.00,1.64
9080.00,1.63
9079.00,1.63
9078.00,1.63
9077.00,1.63
9076.00,1.63
9075.00,1.63
9074.00,1.63
9073.00,1.62
9072.00,1.62
9071.00,1.62
9070.00,1.62
9069.00,1.62
9068.00,1.62
9067.00,1.62
9066.00,1.62
9065.00,1.62
9064.00,1.62
9063.00,1.62
9062.00,1.62
9061.00,1.62
9060.00,1.63
9059.00,1.63
9058.00,1.63
9057.00,1.63
9056.00,1.63
9055.00,1.63
9054.00,1.63
9053.00,1.63
9052.00,1.63
9051.00,1.63
9050.00,1.63
9049.00,1.63
9048.00,1.63
9047.00,1.64
9046.00,1.64
9045.00,1.64
9044.00,1.64
9043.00,1.64
9042.00,1.64
9041.00,1.64
9040.00,1.64
9039.00,1.65
9038.00,1.65
9037.00,1.65
9036.00,1.65
9035.00,1.65
9034.00,1.65
9033.00,1.65
9032.00,1.65
9031.00,1.65
9030.00,1.65
9029.00,1.65
9028.00,1.65
9027.00,1.65
9026.00,1.65
9025.00,1.65
9024.00,1.65
9023.00,1.65
9022.00,1.65
9021.00,1.65
9020.00,1.65
9019.00,1.65
9018.00,1.65
9017.00,1.65
9016.00,1.65
9015.00,1.65
9014.00,1.65
9013.00,1.65
9012.00,1.65
9011.00,1.65
9010.00,1.65
9009.00,1.65
9008.00,1.65
9007.00,1.65
9006.00,1.65
9005.00,1.65
9004.00,1.65
9003.00,1.65
9002.00,1.65
9001.00,1.66
9000.00,1.66
8999.00,1.66
8998.00,1.66
8997.00,1.66
8996.00,1.66
8995.00,1.66
8994.00,1.66
8993.00,1.66
8992.00,1.66
8991.00,1.66
8990.00,1.66
8989.00,1.66
8988.00,1.66
8987.00,1.66
8986.00,1.66
8985.00,1.66
8984.00,1.66
8983.00,1.66
8982.00,1.65
8981.00,1.65
8980.00,1.65
8979.00,1.65
8978.00,1.65
8977.00,1.65
8976.00,1.64
8975.00,1.64
8974.00,1.64
8973.00,1.64
8972.00,1.64
8971.00,1.64
8970.00,1.64
8969.00,1.64
8968.00,1.64
8967.00,1.64
8966.00,1.64
8965.00,1.64
8964.00,1.64
8963.00,1.64
8962.00,1.64
8961.00,1.63
8960.00,1.63
8959.00,1.63
8958.00,1.63
8957.00,1.63
8956.00,1.63
8955.00,1.64
8954.00,1.64
8953.00,1.64
8952.00,1.64
8951.00,1.64
8950.00,1.64
8949.00,1.64
8948.00,1.65
8947.00,1.65
8946.00,1.65
8945.00,1.65
8944.00,1.65
8943.00,1.65
8942.00,1.65
8941.00,1.65
8940.00,1.65
8939.00,1.65
8938.00,1.65
8937.00,1.65
8936.00,1.65
8935.00,1.64
8934.00,1.64
8933.00,1.64
8932.00,1.64
8931.00,1.64
8930.00,1.64
8929.00,1.64
8928.00,1.64
8927.00,1.64
8926.00,1.64
8925.00,1.65
8924.00,1.65
8923.00,1.65
8922.00,1.65
8921.00,1.65
8920.00,1.65
8919.00,1.65
8918.00,1.65
8917.00,1.65
8916.00,1.65
8915.00,1.65
8914.00,1.64
8913.00,1.64
8912.00,1.64
8911.00,1.64
8910.00,1.64
8909.00,1.63
8908.00,1.63
8907.00,1.63
8906.00,1.63
8905.00,1.63
8904.00,1.63
8903.00,1.63
8902.00,1.62
8901.00,1.62
8900.00,1.63
8899.00,1.63
8898.00,1.63
8897.00,1.63
8896.00,1.63
8895.00,1.63
8894.00,1.63
8893.00,1.63
8892.00,1.64
8891.00,1.64
8890.00,1.64
8889.00,1.64
8888.00,1.64
8887.00,1.65
8886.00,1.65
8885.00,1.65
8884.00,1.65
8883.00,1.65
8882.00,1.65
8881.00,1.66
8880.00,1.66
8879.00,1.66
8878.00,1.66
8877.00,1.66
8876.00,1.66
8875.00,1.66
8874.00,1.66
8873.00,1.66
8872.00,1.66
8871.00,1.66
8870.00,1.66
8869.00,1.66
8868.00,1.65
8867.00,1.65
8866.00,1.65
8865.00,1.65
8864.00,1.65
8863.00,1.65
8862.00,1.65
8861.00,1.65
8860.00,1.65
8859.00,1.65
8858.00,1.64
8857.00,1.64
8856.00,1.64
8855.00,1.64
8854.00,1.64
8853.00,1.64
8852.00,1.64
8851.00,1.64
8850.00,1.64
8849.00,1.64
8848.00,1.64
8847.00,1.64
8846.00,1.64
8845.00,1.64
8844.00,1.64
8843.00,1.64
8842.00,1.64
8841.00,1.64
8840.00,1.64
8839.00,1.64
8838.00,1.64
8837.00,1.64
8836.00,1.65
8835.00,1.65
8834.00,1.65
8833.00,1.65
8832.00,1.65
8831.00,1.65
8830.00,1.64
8829.00,1.64
8828.00,1.64
8827.00,1.64
8826.00,1.64
8825.00,1.64
8824.00,1.64
8823.00,1.63
8822.00,1.63
8821.00,1.63
8820.00,1.63
8819.00,1.62
8818.00,1.62
8817.00,1.62
8816.00,1.62
8815.00,1.61
8814.00,1.61
8813.00,1.61
8812.00,1.61
8811.00,1.61
8810.00,1.61
8809.00,1.61
8808.00,1.61
8807.00,1.61
8806.00,1.61
8805.00,1.61
8804.00,1.61
8803.00,1.61
8802.00,1.61
8801.00,1.61
8800.00,1.61
8799.00,1.61
8798.00,1.61
8797.00,1.61
8796.00,1.61
8795.00,1.61
8794.00,1.61
8793.00,1.61
8792.00,1.60
8791.00,1.60
8790.00,1.60
8789.00,1.60
8788.00,1.60
8787.00,1.60
8786.00,1.60
8785.00,1.60
8784.00,1.60
8783.00,1.60
8782.00,1.60
8781.00,1.60
8780.00,1.60
8779.00,1.60
8778.00,1.60
8777.00,1.60
8776.00,1.60
8775.00,1.60
8774.00,1.60
8773.00,1.60
8772.00,1.60
8771.00,1.59
8770.00,1.59
8769.00,1.59
8768.00,1.59
8767.00,1.59
8766.00,1.59
8765.00,1.59
8764.00,1.59
8763.00,1.59
8762.00,1.58
8761.00,1.58
8760.00,1.58
8759.00,1.58
8758.00,1.58
8757.00,1.58
8756.00,1.58
8755.00,1.57
8754.00,1.57
8753.00,1.57
8752.00,1.57
8751.00,1.57
8750.00,1.57
8749.00,1.57
8748.00,1.57
8747.00,1.58
8746.00,1.58
8745.00,1.58
8744.00,1.58
8743.00,1.58
8742.00,1.58
8741.00,1.58
8740.00,1.58
8739.00,1.58
8738.00,1.58
8737.00,1.58
8736.00,1.58
8735.00,1.58
8734.00,1.58
8733.00,1.58
8732.00,1.58
8731.00,1.58
8730.00,1.58
8729.00,1.58
8728.00,1.58
8727.00,1.58
8726.00,1.58
8725.00,1.57
8724.00,1.57
8723.00,1.57
8722.00,1.57
8721.00,1.57
8720.00,1.57
8719.00,1.57
8718.00,1.56
8717.00,1.56
8716.00,1.56
8715.00,1.56
8714.00,1.56
8713.00,1.56
8712.00,1.56
8711.00,1.56
8710.00,1.56
8709.00,1.56
8708.00,1.56
8707.00,1.56
8706.00,1.56
8705.00,1.56
8704.00,1.56
8703.00,1.56
8702.00,1.56
8701.00,1.56
8700.00,1.55
8699.00,1.55
8698.00,1.55
8697.00,1.55
8696.00,1.55
8695.00,1.55
8694.00,1.55
8693.00,1.55
8692.00,1.55
8691.00,1.55
8690.00,1.56
8689.00,1.56
8688.00,1.56
8687.00,1.56
8686.00,1.56
8685.00,1.56
8684.00,1.56
8683.00,1.56
8682.00,1.56
8681.00,1.56
8680.00,1.56
8679.00,1.56
8678.00,1.56
8677.00,1.56
8676.00,1.56
8675.00,1.56
8674.00,1.56
8673.00,1.56
8672.00,1.56
8671.00,1.55
8670.00,1.55
8669.00,1.55
8668.00,1.55
8667.00,1.55
8666.00,1.55
8665.00,1.55
8664.00,1.55
8663.00,1.55
8662.00,1.55
8661.00,1.55
8660.00,1.55
8659.00,1.55
8658.00,1.54
8657.00,1.54
8656.00,1.54
8655.00,1.54
8654.00,1.54
8653.00,1.54
8652.00,1.54
8651.00,1.54
8650.00,1.54
8649.00,1.54
8648.00,1.54
8647.00,1.54
8646.00,1.54
8645.00,1.54
8644.00,1.54
8643.00,1.54
8642.00,1.54
8641.00,1.54
8640.00,1.54
8639.00,1.54
8638.00,1.54
8637.00,1.54
8636.00,1.54
8635.00,1.54
8634.00,1.54
8633.00,1.54
8632.00,1.54
8631.00,1.54
8630.00,1.54
8629.00,1.54
8628.00,1.54
8627.00,1.54
8626.00,1.54
8625.00,1.54
8624.00,1.54
8623.00,1.54
8622.00,1.54
8621.00,1.54
8620.00,1.54
8619.00,1.54
8618.00,1.54
8617.00,1.54
8616.00,1.54
8615.00,1.54
8614.00,1.54
8613.00,1.54
8612.00,1.54
8611.00,1.54
8610.00,1.54
8609.00,1.54
8608.00,1.54
8607.00,1.54
8606.00,1.54
8605.00,1.54
8604.00,1.53
8603.00,1.53
8602.00,1.53
8601.00,1.53
8600.00,1.53
8599.00,1.53
8598.00,1.53
8597.00,1.53
8596.00,1.52
8595.00,1.52
8594.00,1.52
8593.00,1.52
8592.00,1.51
8591.00,1.51
8590.00,1.51
8589.00,1.51
8588.00,1.51
8587.00,1.50
8586.00,1.50
8585.00,1.50
8584.00,1.50
8583.00,1.50
8582.00,1.50
8581.00,1.50
8580.00,1.50
8579.00,1.50
8578.00,1.50
8577.00,1.50
8576.00,1.50
8575.00,1.50
8574.00,1.50
8573.00,1.50
8572.00,1.50
8571.00,1.50
8570.00,1.50
8569.00,1.50
8568.00,1.50
8567.00,1.50
8566.00,1.50
8565.00,1.50
8564.00,1.50
8563.00,1.50
8562.00,1.50
8561.00,1.50
8560.00,1.50
8559.00,1.50
8558.00,1.50
8557.00,1.50
8556.00,1.50
8555.00,1.50
8554.00,1.50
8553.00,1.49
8552.00,1.49
8551.00,1.49
8550.00,1.49
8549.00,1.49
8548.00,1.49
8547.00,1.49
8546.00,1.49
8545.00,1.48
8544.00,1.48
8543.00,1.48
8542.00,1.48
8541.00,1.48
8540.00,1.48
8539.00,1.48
8538.00,1.48
8537.00,1.48
8536.00,1.49
8535.00,1.49
8534.00,1.49
8533.00,1.49
8532.00,1.49
8531.00,1.48
8530.00,1.48
8529.00,1.48
8528.00,1.48
8527.00,1.48
8526.00,1.48
8525.00,1.48
8524.00,1.47
8523.00,1.47
8522.00,1.47
8521.00,1.46
8520.00,1.46
8519.00,1.46
8518.00,1.46
8517.00,1.45
8516.00,1.45
8515.00,1.45
8514.00,1.45
8513.00,1.45
8512.00,1.45
8511.00,1.45
8510.00,1.45
8509.00,1.45
8508.00,1.45
8507.00,1.45
8506.00,1.45
8505.00,1.45
8504.00,1.45
8503.00,1.45
8502.00,1.45
8501.00,1.45
8500.00,1.45
8499.00,1.45
8498.00,1.45
8497.00,1.45
8496.00,1.45
8495.00,1.45
8494.00,1.44
8493.00,1.44
8492.00,1.44
8491.00,1.44
8490.00,1.44
8489.00,1.43
8488.00,1.43
8487.00,1.43
8486.00,1.43
8485.00,1.43
8484.00,1.42
8483.00,1.42
8482.00,1.42
8481.00,1.42
8480.00,1.42
8479.00,1.41
8478.00,1.41
8477.00,1.41
8476.00,1.41
8475.00,1.41
8474.00,1.41
8473.00,1.41
8472.00,1.41
8471.00,1.41
8470.00,1.41
8469.00,1.41
8468.00,1.41
8467.00,1.41
8466.00,1.41
8465.00,1.41
8464.00,1.41
8463.00,1.41
8462.00,1.40
8461.00,1.40
8460.00,1.40
8459.00,1.40
8458.00,1.40
8457.00,1.40
8456.00,1.40
8455.00,1.40
8454.00,1.40
8453.00,1.40
8452.00,1.40
8451.00,1.40
8450.00,1.40
8449.00,1.40
8448.00,1.40
8447.00,1.40
8446.00,1.40
8445.00,1.40
8444.00,1.40
8443.00,1.40
8442.00,1.40
8441.00,1.40
8440.00,1.39
8439.00,1.39
8438.00,1.39
8437.00,1.39
8436.00,1.39
8435.00,1.39
8434.00,1.39
8433.00,1.39
8432.00,1.39
8431.00,1.39
8430.00,1.39
8429.00,1.39
8428.00,1.39
8427.00,1.39
8426.00,1.39
8425.00,1.39
8424.00,1.39
8423.00,1.39
8422.00,1.39
8421.00,1.39
8420.00,1.39
8419.00,1.40
8418.00,1.40
8417.00,1.40
8416.00,1.40
8415.00,1.40
8414.00,1.40
8413.00,1.40
8412.00,1.40
8411.00,1.41
8410.00,1.41
8409.00,1.41
8408.00,1.41
8407.00,1.41
8406.00,1.41
8405.00,1.41
8404.00,1.42
8403.00,1.42
8402.00,1.42
8401.00,1.42
8400.00,1.42
8399.00,1.42
8398.00,1.43
8397.00,1.43
8396.00,1.43
8395.00,1.43
8394.00,1.43
8393.00,1.43
8392.00,1.43
8391.00,1.44
8390.00,1.44
8389.00,1.44
8388.00,1.44
8387.00,1.44
8386.00,1.44
8385.00,1.44
8384.00,1.44
8383.00,1.44
8382.00,1.45
8381.00,1.45
8380.00,1.45
8379.00,1.45
8378.00,1.45
8377.00,1.45
8376.00,1.45
8375.00,1.45
8374.00,1.45
8373.00,1.45
8372.00,1.45
8371.00,1.46
8370.00,1.46
8369.00,1.46
8368.00,1.46
8367.00,1.46
8366.00,1.46
8365.00,1.46
8364.00,1.46
8363.00,1.46
8362.00,1.46
8361.00,1.46
8360.00,1.46
8359.00,1.46
8358.00,1.46
8357.00,1.46
8356.00,1.46
8355.00,1.46
8354.00,1.46
8353.00,1.46
8352.00,1.46
8351.00,1.46
8350.00,1.46
8349.00,1.46
8348.00,1.46
8347.00,1.46
8346.00,1.46
8345.00,1.46
8344.00,1.46
8343.00,1.46
8342.00,1.46
8341.00,1.46
8340.00,1.46
8339.00,1.46
8338.00,1.46
8337.00,1.46
8336.00,1.46
8335.00,1.46
8334.00,1.46
8333.00,1.46
8332.00,1.46
8331.00,1.46
8330.00,1.46
8329.00,1.46
8328.00,1.45
8327.00,1.45
8326.00,1.45
8325.00,1.46
8324.00,1.46
8323.00,1.46
8322.00,1.46
8321.00,1.46
8320.00,1.46
8319.00,1.46
8318.00,1.46
8317.00,1.46
8316.00,1.46
8315.00,1.47
8314.00,1.47
8313.00,1.47
8312.00,1.47
8311.00,1.47
8310.00,1.47
8309.00,1.47
8308.00,1.47
8307.00,1.47
8306.00,1.47
8305.00,1.47
8304.00,1.47
8303.00,1.47
8302.00,1.47
8301.00,1.47
8300.00,1.47
8299.00,1.47
8298.00,1.47
8297.00,1.47
8296.00,1.47
8295.00,1.47
8294.00,1.47
8293.00,1.47
8292.00,1.47
8291.00,1.47
8290.00,1.47
8289.00,1.47
8288.00,1.47
8287.00,1.48
8286.00,1.48
8285.00,1.48
8284.00,1.48
8283.00,1.48
8282.00,1.48
8281.00,1.48
8280.00,1.48
8279.00,1.48
8278.00,1.48
8277.00,1.49
8276.00,1.49
8275.00,1.49
8274.00,1.49
8273.00,1.49
8272.00,1.49
8271.00,1.49
8270.00,1.49
8269.00,1.49
8268.00,1.49
8267.00,1.49
8266.00,1.49
8265.00,1.49
8264.00,1.49
8263.00,1.49
8262.00,1.49
8261.00,1.49
8260.00,1.49
8259.00,1.49
8258.00,1.49
8257.00,1.49
8256.00,1.49
8255.00,1.49
8254.00,1.49
8253.00,1.49
8252.00,1.49
8251.00,1.50
8250.00,1.50
8249.00,1.50
8248.00,1.50
8247.00,1.50
8246.00,1.50
8245.00,1.50
8244.00,1.50
8243.00,1.51
8242.00,1.51
8241.00,1.51
8240.00,1.51
8239.00,1.51
8238.00,1.51
8237.00,1.51
8236.00,1.51
8235.00,1.51
8234.00,1.51
8233.00,1.51
8232.00,1.51
8231.00,1.51
8230.00,1.51
8229.00,1.51
8228.00,1.51
8227.00,1.50
8226.00,1.50
8225.00,1.50
8224.00,1.50
8223.00,1.50
8222.00,1.50
8221.00,1.50
8220.00,1.50
8219.00,1.50
8218.00,1.50
8217.00,1.50
8216.00,1.50
8215.00,1.50
8214.00,1.50
8213.00,1.50
8212.00,1.50
8211.00,1.50
8210.00,1.50
8209.00,1.50
8208.00,1.50
8207.00,1.50
8206.00,1.50
8205.00,1.50
8204.00,1.50
8203.00,1.50
8202.00,1.51
8201.00,1.51
8200.00,1.51
8199.00,1.51
8198.00,1.51
8197.00,1.51
8196.00,1.51
8195.00,1.51
8194.00,1.51
8193.00,1.51
8192.00,1.51
8191.00,1.51
8190.00,1.51
8189.00,1.51
8188.00,1.51
8187.00,1.51
8186.00,1.52
8185.00,1.52
8184.00,1.52
8183.00,1.52
8182.00,1.52
8181.00,1.52
8180.00,1.52
8179.00,1.52
8178.00,1.52
8177.00,1.52
8176.00,1.53
8175.00,1.53
8174.00,1.53
8173.00,1.53
8172.00,1.53
8171.00,1.53
8170.00,1.53
8169.00,1.53
8168.00,1.53
8167.00,1.53
8166.00,1.54
8165.00,1.54
8164.00,1.54
8163.00,1.54
8162.00,1.54
8161.00,1.54
8160.00,1.54
8159.00,1.54
8158.00,1.54
8157.00,1.54
8156.00,1.54
8155.00,1.54
8154.00,1.54
8153.00,1.54
8152.00,1.54
8151.00,1.54
8150.00,1.54
8149.00,1.54
8148.00,1.54
8147.00,1.54
8146.00,1.54
8145.00,1.54
8144.00,1.54
8143.00,1.54
8142.00,1.54
8141.00,1.54
8140.00,1.54
8139.00,1.54
8138.00,1.54
8137.00,1.54
8136.00,1.54
8135.00,1.55
8134.00,1.55
8133.00,1.55
8132.00,1.55
8131.00,1.55
8130.00,1.55
8129.00,1.55
8128.00,1.55
8127.00,1.56
8126.00,1.56
8125.00,1.56
8124.00,1.56
8123.00,1.56
8122.00,1.56
8121.00,1.56
8120.00,1.56
8119.00,1.57
8118.00,1.57
8117.00,1.57
8116.00,1.57
8115.00,1.56
8114.00,1.56
8113.00,1.56
8112.00,1.56
8111.00,1.56
8110.00,1.56
8109.00,1.56
8108.00,1.56
8107.00,1.56
8106.00,1.56
8105.00,1.56
8104.00,1.56
8103.00,1.56
8102.00,1.56
8101.00,1.56
8100.00,1.56
8099.00,1.56
8098.00,1.56
8097.00,1.56
8096.00,1.56
8095.00,1.56
8094.00,1.56
8093.00,1.56
8092.00,1.57
8091.00,1.57
8090.00,1.57
8089.00,1.57
8088.00,1.57
8087.00,1.57
8086.00,1.57
8085.00,1.57
8084.00,1.57
8083.00,1.57
8082.00,1.57
8081.00,1.57
8080.00,1.57
8079.00,1.57
8078.00,1.57
8077.00,1.57
8076.00,1.57
8075.00,1.57
8074.00,1.58
8073.00,1.58
8072.00,1.58
8071.00,1.58
8070.00,1.58
8069.00,1.58
8068.00,1.58
8067.00,1.58
8066.00,1.58
8065.00,1.58
8064.00,1.58
8063.00,1.58
8062.00,1.58
8061.00,1.58
8060.00,1.59
8059.00,1.59
8058.00,1.59
8057.00,1.59
8056.00,1.59
8055.00,1.59
8054.00,1.59
8053.00,1.59
8052.00,1.59
8051.00,1.59
8050.00,1.59
8049.00,1.59
8048.00,1.59
8047.00,1.59
8046.00,1.59
8045.00,1.59
8044.00,1.59
8043.00,1.58
8042.00,1.58
8041.00,1.58
8040.00,1.58
8039.00,1.58
8038.00,1.58
8037.00,1.58
8036.00,1.58
8035.00,1.58
8034.00,1.58
8033.00,1.58
8032.00,1.58
8031.00,1.58
8030.00,1.58
8029.00,1.58
8028.00,1.58
8027.00,1.58
8026.00,1.59
8025.00,1.59
8024.00,1.59
8023.00,1.59
8022.00,1.59
8021.00,1.59
8020.00,1.59
8019.00,1.59
8018.00,1.59
8017.00,1.59
8016.00,1.59
8015.00,1.59
8014.00,1.59
8013.00,1.59
8012.00,1.59
8011.00,1.59
8010.00,1.59
8009.00,1.59
8008.00,1.59
8007.00,1.59
8006.00,1.59
8005.00,1.59
8004.00,1.59
8003.00,1.59
8002.00,1.59
8001.00,1.59
8000.00,1.59
7999.00,1.59
7998.00,1.59
7997.00,1.59
7996.00,1.60
7995.00,1.60
7994.00,1.60
7993.00,1.60
7992.00,1.60
7991.00,1.60
7990.00,1.60
7989.00,1.60
7988.00,1.60
7987.00,1.60
7986.00,1.60
7985.00,1.60
7984.00,1.60
7983.00,1.60
7982.00,1.60
7981.00,1.60
7980.00,1.60
7979.00,1.60
7978.00,1.60
7977.00,1.60
7976.00,1.60
7975.00,1.60
7974.00,1.60
7973.00,1.60
7972.00,1.60
7971.00,1.60
7970.00,1.60
7969.00,1.60
7968.00,1.60
7967.00,1.61
7966.00,1.61
7965.00,1.61
7964.00,1.61
7963.00,1.61
7962.00,1.61
7961.00,1.61
7960.00,1.61
7959.00,1.61
7958.00,1.61
7957.00,1.61
7956.00,1.61
7955.00,1.61
7954.00,1.61
7953.00,1.61
7952.00,1.61
7951.00,1.61
7950.00,1.61
7949.00,1.61
7948.00,1.61
7947.00,1.61
7946.00,1.61
7945.00,1.61
7944.00,1.61
7943.00,1.61
7942.00,1.61
7941.00,1.61
7940.00,1.61
7939.00,1.61
7938.00,1.61
7937.00,1.61
7936.00,1.61
7935.00,1.61
7934.00,1.61
7933.00,1.61
7932.00,1.61
7931.00,1.61
7930.00,1.61
7929.00,1.61
7928.00,1.61
7927.00,1.61
7926.00,1.61
7925.00,1.61
7924.00,1.61
7923.00,1.61
7922.00,1.61
7921.00,1.61
7920.00,1.61
7919.00,1.61
7918.00,1.61
7917.00,1.61
7916.00,1.62
7915.00,1.62
7914.00,1.62
7913.00,1.62
7912.00,1.62
7911.00,1.62
7910.00,1.62
7909.00,1.62
7908.00,1.62
7907.00,1.62
7906.00,1.62
7905.00,1.62
7904.00,1.62
7903.00,1.62
7902.00,1.62
7901.00,1.62
7900.00,1.62
7899.00,1.62
7898.00,1.62
7897.00,1.62
7896.00,1.62
7895.00,1.62
7894.00,1.62
7893.00,1.63
7892.00,1.63
7891.00,1.63
7890.00,1.63
7889.00,1.63
7888.00,1.63
7887.00,1.63
7886.00,1.63
7885.00,1.63
7884.00,1.63
7883.00,1.63
7882.00,1.63
7881.00,1.63
7880.00,1.63
7879.00,1.63
7878.00,1.63
7877.00,1.63
7876.00,1.63
7875.00,1.63
7874.00,1.63
7873.00,1.63
7872.00,1.63
7871.00,1.63
7870.00,1.63
7869.00,1.63
7868.00,1.63
7867.00,1.63
7866.00,1.63
7865.00,1.63
7864.00,1.63
7863.00,1.63
7862.00,1.63
7861.00,1.63
7860.00,1.63
7859.00,1.63
7858.00,1.63
7857.00,1.63
7856.00,1.63
7855.00,1.63
7854.00,1.63
7853.00,1.63
7852.00,1.63
7851.00,1.63
7850.00,1.63
7849.00,1.63
7848.00,1.63
7847.00,1.63
7846.00,1.63
7845.00,1.63
7844.00,1.63
7843.00,1.63
7842.00,1.63
7841.00,1.63
7840.00,1.63
7839.00,1.63
7838.00,1.63
7837.00,1.63
7836.00,1.63
7835.00,1.63
7834.00,1.63
7833.00,1.63
7832.00,1.63
7831.00,1.63
7830.00,1.63
7829.00,1.63
7828.00,1.63
7827.00,1.63
7826.00,1.63
7825.00,1.63
7824.00,1.63
7823.00,1.63
7822.00,1.63
7821.00,1.63
7820.00,1.63
7819.00,1.63
7818.00,1.64
7817.00,1.64
7816.00,1.64
7815.00,1.64
7814.00,1.64
7813.00,1.64
7812.00,1.64
7811.00,1.65
7810.00,1.65
7809.00,1.65
7808.00,1.65
7807.00,1.65
7806.00,1.65
7805.00,1.65
7804.00,1.65
7803.00,1.65
7802.00,1.65
7801.00,1.65
7800.00,1.65
7799.00,1.65
7798.00,1.65
7797.00,1.65
7796.00,1.65
7795.00,1.64
7794.00,1.64
7793.00,1.64
7792.00,1.64
7791.00,1.64
7790.00,1.64
7789.00,1.64
7788.00,1.64
7787.00,1.64
7786.00,1.64
7785.00,1.64
7784.00,1.64
7783.00,1.64
7782.00,1.64
7781.00,1.64
7780.00,1.64
7779.00,1.64
7778.00,1.64
7777.00,1.64
7776.00,1.64
7775.00,1.64
7774.00,1.64
7773.00,1.64
7772.00,1.64
7771.00,1.64
7770.00,1.64
7769.00,1.64
7768.00,1.64
7767.00,1.64
7766.00,1.64
7765.00,1.65
7764.00,1.65
7763.00,1.65
7762.00,1.65
7761.00,1.65
7760.00,1.65
7759.00,1.65
7758.00,1.65
7757.00,1.66
7756.00,1.66
7755.00,1.66
7754.00,1.66
7753.00,1.66
7752.00,1.66
7751.00,1.66
7750.00,1.66
7749.00,1.66
7748.00,1.66
7747.00,1.66
7746.00,1.66
7745.00,1.66
7744.00,1.66
7743.00,1.66
7742.00,1.66
7741.00,1.66
7740.00,1.66
7739.00,1.66
7738.00,1.66
7737.00,1.66
7736.00,1.66
7735.00,1.66
7734.00,1.66
7733.00,1.66
7732.00,1.66
7731.00,1.66
7730.00,1.66
7729.00,1.66
7728.00,1.66
7727.00,1.66
7726.00,1.66
7725.00,1.66
7724.00,1.66
7723.00,1.66
7722.00,1.66
7721.00,1.66
7720.00,1.66
7719.00,1.66
7718.00,1.66
7717.00,1.66
7716.00,1.66
7715.00,1.66
7714.00,1.66
7713.00,1.66
7712.00,1.66
7711.00,1.66
7710.00,1.66
7709.00,1.66
7708.00,1.66
7707.00,1.66
7706.00,1.66
7705.00,1.66
7704.00,1.66
7703.00,1.66
7702.00,1.66
7701.00,1.66
7700.00,1.66
7699.00,1.66
7698.00,1.66
7697.00,1.66
7696.00,1.66
7695.00,1.66
7694.00,1.66
7693.00,1.66
7692.00,1.66
7691.00,1.66
7690.00,1.66
7689.00,1.65
7688.00,1.65
7687.00,1.65
7686.00,1.65
7685.00,1.65
7684.00,1.65
7683.00,1.65
7682.00,1.65
7681.00,1.65
7680.00,1.65
7679.00,1.65
7678.00,1.65
7677.00,1.65
7676.00,1.65
7675.00,1.66
7674.00,1.66
7673.00,1.66
7672.00,1.66
7671.00,1.66
7670.00,1.66
7669.00,1.66
7668.00,1.66
7667.00,1.66
7666.00,1.66
7665.00,1.66
7664.00,1.66
7663.00,1.66
7662.00,1.66
7661.00,1.66
7660.00,1.66
7659.00,1.66
7658.00,1.66
7657.00,1.66
7656.00,1.66
7655.00,1.66
7654.00,1.66
7653.00,1.66
7652.00,1.66
7651.00,1.66
7650.00,1.65
7649.00,1.65
7648.00,1.65
7647.00,1.65
7646.00,1.65
7645.00,1.65
7644.00,1.65
7643.00,1.65
7642.00,1.65
7641.00,1.65
7640.00,1.66
7639.00,1.66
7638.00,1.66
7637.00,1.66
7636.00,1.66
7635.00,1.66
7634.00,1.66
7633.00,1.66
7632.00,1.66
7631.00,1.66
7630.00,1.66
7629.00,1.66
7628.00,1.66
7627.00,1.66
7626.00,1.66
7625.00,1.66
7624.00,1.66
7623.00,1.66
7622.00,1.66
7621.00,1.66
7620.00,1.66
7619.00,1.66
7618.00,1.66
7617.00,1.66
7616.00,1.66
7615.00,1.66
7614.00,1.66
7613.00,1.66
7612.00,1.66
7611.00,1.66
7610.00,1.66
7609.00,1.66
7608.00,1.66
7607.00,1.66
7606.00,1.66
7605.00,1.66
7604.00,1.66
7603.00,1.65
7602.00,1.65
7601.00,1.65
7600.00,1.65
7599.00,1.65
7598.00,1.65
7597.00,1.65
7596.00,1.65
7595.00,1.65
7594.00,1.65
7593.00,1.65
7592.00,1.65
7591.00,1.65
7590.00,1.65
7589.00,1.65
7588.00,1.65
7587.00,1.65
7586.00,1.66
7585.00,1.65
7584.00,1.65
7583.00,1.65
7582.00,1.65
7581.00,1.65
7580.00,1.65
7579.00,1.65
7578.00,1.65
7577.00,1.65
7576.00,1.65
7575.00,1.65
7574.00,1.66
7573.00,1.66
7572.00,1.66
7571.00,1.66
7570.00,1.66
7569.00,1.66
7568.00,1.66
7567.00,1.66
7566.00,1.66
7565.00,1.66
7564.00,1.66
7563.00,1.66
7562.00,1.66
7561.00,1.66
7560.00,1.66
7559.00,1.66
7558.00,1.66
7557.00,1.66
7556.00,1.66
7555.00,1.65
7554.00,1.65
7553.00,1.65
7552.00,1.65
7551.00,1.65
7550.00,1.65
7549.00,1.65
7548.00,1.64
7547.00,1.64
7546.00,1.64
7545.00,1.64
7544.00,1.64
7543.00,1.64
7542.00,1.64
7541.00,1.64
7540.00,1.64
7539.00,1.64
7538.00,1.64
7537.00,1.64
7536.00,1.64
7535.00,1.64
7534.00,1.64
7533.00,1.65
7532.00,1.65
7531.00,1.65
7530.00,1.65
7529.00,1.65
7528.00,1.65
7527.00,1.65
7526.00,1.64
7525.00,1.64
7524.00,1.64
7523.00,1.64
7522.00,1.64
7521.00,1.64
7520.00,1.64
7519.00,1.64
7518.00,1.64
7517.00,1.64
7516.00,1.64
7515.00,1.63
7514.00,1.63
7513.00,1.63
7512.00,1.63
7511.00,1.63
7510.00,1.63
7509.00,1.63
7508.00,1.63
7507.00,1.63
7506.00,1.63
7505.00,1.63
7504.00,1.63
7503.00,1.63
7502.00,1.62
7501.00,1.62
7500.00,1.62
7499.00,1.62
7498.00,1.62
7497.00,1.62
7496.00,1.62
7495.00,1.62
7494.00,1.62
7493.00,1.62
7492.00,1.62
7491.00,1.62
7490.00,1.62
7489.00,1.62
7488.00,1.62
7487.00,1.62
7486.00,1.62
7485.00,1.62
7484.00,1.62
7483.00,1.62
7482.00,1.61
7481.00,1.61
7480.00,1.61
7479.00,1.61
7478.00,1.61
7477.00,1.61
7476.00,1.61
7475.00,1.61
7474.00,1.61
7473.00,1.61
7472.00,1.60
7471.00,1.60
7470.00,1.60
7469.00,1.60
7468.00,1.60
7467.00,1.60
7466.00,1.60
7465.00,1.60
7464.00,1.60
7463.00,1.60
7462.00,1.60
7461.00,1.60
7460.00,1.60
7459.00,1.60
7458.00,1.60
7457.00,1.60
7456.00,1.60
7455.00,1.60
7454.00,1.60
7453.00,1.60
7452.00,1.60
7451.00,1.59
7450.00,1.59
7449.00,1.59
7448.00,1.59
7447.00,1.59
7446.00,1.59
7445.00,1.59
7444.00,1.59
7443.00,1.58
7442.00,1.58
7441.00,1.58
7440.00,1.58
7439.00,1.58
7438.00,1.58
7437.00,1.58
7436.00,1.58
7435.00,1.58
7434.00,1.58
7433.00,1.57
7432.00,1.57
7431.00,1.57
7430.00,1.57
7429.00,1.57
7428.00,1.57
7427.00,1.57
7426.00,1.57
7425.00,1.57
7424.00,1.57
7423.00,1.57
7422.00,1.57
7421.00,1.56
7420.00,1.56
7419.00,1.56
7418.00,1.56
7417.00,1.56
7416.00,1.56
7415.00,1.56
7414.00,1.56
7413.00,1.55
7412.00,1.55
7411.00,1.55
7410.00,1.55
7409.00,1.55
7408.00,1.55
7407.00,1.54
7406.00,1.54
7405.00,1.54
7404.00,1.54
7403.00,1.54
7402.00,1.54
7401.00,1.53
7400.00,1.53
7399.00,1.53
7398.00,1.53
7397.00,1.53
7396.00,1.52
7395.00,1.52
7394.00,1.52
7393.00,1.52
7392.00,1.51
7391.00,1.51
7390.00,1.51
7389.00,1.51
7388.00,1.50
7387.00,1.50
7386.00,1.50
7385.00,1.50
7384.00,1.49
7383.00,1.49
7382.00,1.49
7381.00,1.49
7380.00,1.49
7379.00,1.49
7378.00,1.48
7377.00,1.48
7376.00,1.48
7375.00,1.48
7374.00,1.48
7373.00,1.48
7372.00,1.48
7371.00,1.48
7370.00,1.48
7369.00,1.48
7368.00,1.48
7367.00,1.48
7366.00,1.48
7365.00,1.48
7364.00,1.48
7363.00,1.48
7362.00,1.48
7361.00,1.48
7360.00,1.48
7359.00,1.48
7358.00,1.48
7357.00,1.47
7356.00,1.47
7355.00,1.47
7354.00,1.47
7353.00,1.47
7352.00,1.47
7351.00,1.47
7350.00,1.47
7349.00,1.47
7348.00,1.47
7347.00,1.47
7346.00,1.47
7345.00,1.47
7344.00,1.47
7343.00,1.47
7342.00,1.47
7341.00,1.47
7340.00,1.47
7339.00,1.47
7338.00,1.47
7337.00,1.47
7336.00,1.47
7335.00,1.47
7334.00,1.47
7333.00,1.47
7332.00,1.47
7331.00,1.46
7330.00,1.46
7329.00,1.46
7328.00,1.46
7327.00,1.46
7326.00,1.46
7325.00,1.46
7324.00,1.46
7323.00,1.46
7322.00,1.46
7321.00,1.46
7320.00,1.46
7319.00,1.46
7318.00,1.46
7317.00,1.46
7316.00,1.46
7315.00,1.45
7314.00,1.45
7313.00,1.45
7312.00,1.45
7311.00,1.45
7310.00,1.45
7309.00,1.45
7308.00,1.45
7307.00,1.44
7306.00,1.44
7305.00,1.44
7304.00,1.44
7303.00,1.44
7302.00,1.44
7301.00,1.44
7300.00,1.43
7299.00,1.43
7298.00,1.43
7297.00,1.43
7296.00,1.43
7295.00,1.42
7294.00,1.42
7293.00,1.42
7292.00,1.42
7291.00,1.42
7290.00,1.42
7289.00,1.41
7288.00,1.41
7287.00,1.41
7286.00,1.41
7285.00,1.41
7284.00,1.41
7283.00,1.41
7282.00,1.41
7281.00,1.41
7280.00,1.41
7279.00,1.40
7278.00,1.40
7277.00,1.40
7276.00,1.40
7275.00,1.40
7274.00,1.40
7273.00,1.40
7272.00,1.40
7271.00,1.40
7270.00,1.40
7269.00,1.40
7268.00,1.39
7267.00,1.39
7266.00,1.39
7265.00,1.39
7264.00,1.39
7263.00,1.38
7262.00,1.38
7261.00,1.38
7260.00,1.38
7259.00,1.37
7258.00,1.37
7257.00,1.37
7256.00,1.36
7255.00,1.36
7254.00,1.36
7253.00,1.35
7252.00,1.35
7251.00,1.35
7250.00,1.34
7249.00,1.34
7248.00,1.34
7247.00,1.33
7246.00,1.33
7245.00,1.33
7244.00,1.32
7243.00,1.32
7242.00,1.31
7241.00,1.31
7240.00,1.30
7239.00,1.30
7238.00,1.29
7237.00,1.29
7236.00,1.29
7235.00,1.28
7234.00,1.28
7233.00,1.27
7232.00,1.27
7231.00,1.26
7230.00,1.26
7229.00,1.26
7228.00,1.25
7227.00,1.25
7226.00,1.24
7225.00,1.24
7224.00,1.24
7223.00,1.23
7222.00,1.23
7221.00,1.23
7220.00,1.22
7219.00,1.22
7218.00,1.22
7217.00,1.21
7216.00,1.21
7215.00,1.20
7214.00,1.20
7213.00,1.20
7212.00,1.19
7211.00,1.19
7210.00,1.18
7209.00,1.18
7208.00,1.17
7207.00,1.17
7206.00,1.16
7205.00,1.16
7204.00,1.15
7203.00,1.15
7202.00,1.15
7201.00,1.14
7200.00,1.14
7199.00,1.13
7198.00,1.13
7197.00,1.13
7196.00,1.12
7195.00,1.12
7194.00,1.12
7193.00,1.11
7192.00,1.11
7191.00,1.11
7190.00,1.10
7189.00,1.10
7188.00,1.10
7187.00,1.09
7186.00,1.09
7185.00,1.09
7184.00,1.08
7183.00,1.08
7182.00,1.08
7181.00,1.07
7180.00,1.07
7179.00,1.06
7178.00,1.06
7177.00,1.06
7176.00,1.05
7175.00,1.05
7174.00,1.05
7173.00,1.04
7172.00,1.04
7171.00,1.04
7170.00,1.03
7169.00,1.03
7168.00,1.03
7167.00,1.02
7166.00,1.02
7165.00,1.02
7164.00,1.01
7163.00,1.01
7162.00,1.01
7161.00,1.00
7160.00,1.00
7159.00,0.99
7158.00,0.99
7157.00,0.99
7156.00,0.98
7155.00,0.98
7154.00,0.98
7153.00,0.97
7152.00,0.97
7151.00,0.97
7150.00,0.96
7149.00,0.96
7148.00,0.96
7147.00,0.95
7146.00,0.95
7145.00,0.95
7144.00,0.94
7143.00,0.94
7142.00,0.94
7141.00,0.93
7140.00,0.93
7139.00,0.93
7138.00,0.93
7137.00,0.92
7136.00,0.92
7135.00,0.92
7134.00,0.92
7133.00,0.92
7132.00,0.91
7131.00,0.91
7130.00,0.91
7129.00,0.91
7128.00,0.90
7127.00,0.90
7126.00,0.90
7125.00,0.90
7124.00,0.89
7123.00,0.89
7122.00,0.89
7121.00,0.88
7120.00,0.88
7119.00,0.88
7118.00,0.87
7117.00,0.87
7116.00,0.87
7115.00,0.86
7114.00,0.86
7113.00,0.86
7112.00,0.85
7111.00,0.85
7110.00,0.85
7109.00,0.84
7108.00,0.84
7107.00,0.83
7106.00,0.83
7105.00,0.83
7104.00,0.83
7103.00,0.82
7102.00,0.82
7101.00,0.82
7100.00,0.81
7099.00,0.81
7098.00,0.81
7097.00,0.81
7096.00,0.81
7095.00,0.80
7094.00,0.80
7093.00,0.80
7092.00,0.80
7091.00,0.80
7090.00,0.80
7089.00,0.79
7088.00,0.79
7087.00,0.79
7086.00,0.79
7085.00,0.79
7084.00,0.79
7083.00,0.79
7082.00,0.78
7081.00,0.78
7080.00,0.78
7079.00,0.78
7078.00,0.78
7077.00,0.78
7076.00,0.78
7075.00,0.77
7074.00,0.77
7073.00,0.77
7072.00,0.77
7071.00,0.77
7070.00,0.77
7069.00,0.76
7068.00,0.76
7067.00,0.76
7066.00,0.76
7065.00,0.76
7064.00,0.76
7063.00,0.75
7062.00,0.75
7061.00,0.75
7060.00,0.75
7059.00,0.75
7058.00,0.75
7057.00,0.74
7056.00,0.74
7055.00,0.74
7054.00,0.74
7053.00,0.74
7052.00,0.74
7051.00,0.74
7050.00,0.74
7049.00,0.74
7048.00,0.74
7047.00,0.74
7046.00,0.74
7045.00,0.74
7044.00,0.74
7043.00,0.74
7042.00,0.74
7041.00,0.74
7040.00,0.74
7039.00,0.74
7038.00,0.74
7037.00,0.74
7036.00,0.74
7035.00,0.74
7034.00,0.74
7033.00,0.74
7032.00,0.73
7031.00,0.73
7030.00,0.73
7029.00,0.73
7028.00,0.73
7027.00,0.72
7026.00,0.72
7025.00,0.72
7024.00,0.72
7023.00,0.72
7022.00,0.72
7021.00,0.71
7020.00,0.71
7019.00,0.71
7018.00,0.71
7017.00,0.71
7016.00,0.71
7015.00,0.71
7014.00,0.71
7013.00,0.71
7012.00,0.71
7011.00,0.71
7010.00,0.71
7009.00,0.71
7008.00,0.71
7007.00,0.71
7006.00,0.70
7005.00,0.70
7004.00,0.70
7003.00,0.70
7002.00,0.70
7001.00,0.70
7000.00,0.70
6999.00,0.70
6998.00,0.70
6997.00,0.70
6996.00,0.70
6995.00,0.70
6994.00,0.70
6993.00,0.69
6992.00,0.69
6991.00,0.69
6990.00,0.69
6989.00,0.69
6988.00,0.69
6987.00,0.69
6986.00,0.69
6985.00,0.69
6984.00,0.69
6983.00,0.69
6982.00,0.69
6981.00,0.69
6980.00,0.69
6979.00,0.69
6978.00,0.69
6977.00,0.69
6976.00,0.69
6975.00,0.69
6974.00,0.69
6973.00,0.69
6972.00,0.69
6971.00,0.68
6970.00,0.68
6969.00,0.68
6968.00,0.68
6967.00,0.68
6966.00,0.68
6965.00,0.68
6964.00,0.68
6963.00,0.68
6962.00,0.68
6961.00,0.68
6960.00,0.68
6959.00,0.68
6958.00,0.68
6957.00,0.68
6956.00,0.68
6955.00,0.69
6954.00,0.69
6953.00,0.69
6952.00,0.69
6951.00,0.69
6950.00,0.69
6949.00,0.69
6948.00,0.69
6947.00,0.69
6946.00,0.68
6945.00,0.68
6944.00,0.68
6943.00,0.68
6942.00,0.68
6941.00,0.68
6940.00,0.68
6939.00,0.68
6938.00,0.68
6937.00,0.68
6936.00,0.68
6935.00,0.68
6934.00,0.68
6933.00,0.67
6932.00,0.67
6931.00,0.67
6930.00,0.67
6929.00,0.67
6928.00,0.67
6927.00,0.67
6926.00,0.67
6925.00,0.67
6924.00,0.67
6923.00,0.67
6922.00,0.67
6921.00,0.67
6920.00,0.67
6919.00,0.67
6918.00,0.67
6917.00,0.67
6916.00,0.67
6915.00,0.67
6914.00,0.67
6913.00,0.67
6912.00,0.67
6911.00,0.67
6910.00,0.67
6909.00,0.67
6908.00,0.67
6907.00,0.67
6906.00,0.67
6905.00,0.67
6904.00,0.67
6903.00,0.67
6902.00,0.67
6901.00,0.67
6900.00,0.67
6899.00,0.67
6898.00,0.67
6897.00,0.67
6896.00,0.67
6895.00,0.67
6894.00,0.67
6893.00,0.67
6892.00,0.67
6891.00,0.67
6890.00,0.67
6889.00,0.67
6888.00,0.67
6887.00,0.67
6886.00,0.67
6885.00,0.67
6884.00,0.67
6883.00,0.67
6882.00,0.67
6881.00,0.67
6880.00,0.67
6879.00,0.67
6878.00,0.67
6877.00,0.67
6876.00,0.67
6875.00,0.67
6874.00,0.67
6873.00,0.67
6872.00,0.67
6871.00,0.67
6870.00,0.67
6869.00,0.67
6868.00,0.67
6867.00,0.67
6866.00,0.67
6865.00,0.67
6864.00,0.67
6863.00,0.67
6862.00,0.67
6861.00,0.67
6860.00,0.67
6859.00,0.67
6858.00,0.67
6857.00,0.67
6856.00,0.67
6855.00,0.67
6854.00,0.67
6853.00,0.67
6852.00,0.67
6851.00,0.67
6850.00,0.67
6849.00,0.67
6848.00,0.67
6847.00,0.67
6846.00,0.67
6845.00,0.67
6844.00,0.67
6843.00,0.67
6842.00,0.67
6841.00,0.67
6840.00,0.67
6839.00,0.67
6838.00,0.67
6837.00,0.66
6836.00,0.66
6835.00,0.66
6834.00,0.66
6833.00,0.66
6832.00,0.66
6831.00,0.66
6830.00,0.66
6829.00,0.66
6828.00,0.67
6827.00,0.67
6826.00,0.67
6825.00,0.67
6824.00,0.67
6823.00,0.67
6822.00,0.67
6821.00,0.67
6820.00,0.68
6819.00,0.68
6818.00,0.68
6817.00,0.68
6816.00,0.68
6815.00,0.68
6814.00,0.68
6813.00,0.68
6812.00,0.68
6811.00,0.68
6810.00,0.68
6809.00,0.68
6808.00,0.68
6807.00,0.68
6806.00,0.68
6805.00,0.68
6804.00,0.68
6803.00,0.68
6802.00,0.68
6801.00,0.68
6800.00,0.68
6799.00,0.68
6798.00,0.68
6797.00,0.68
6796.00,0.68
6795.00,0.69
6794.00,0.69
6793.00,0.69
6792.00,0.69
6791.00,0.69
6790.00,0.69
6789.00,0.69
6788.00,0.69
6787.00,0.69
6786.00,0.69
6785.00,0.69
6784.00,0.69
6783.00,0.69
6782.00,0.69
6781.00,0.69
6780.00,0.69
6779.00,0.69
6778.00,0.69
6777.00,0.70
6776.00,0.70
6775.00,0.70
6774.00,0.70
6773.00,0.70
6772.00,0.70
6771.00,0.70
6770.00,0.70
6769.00,0.70
6768.00,0.70
6767.00,0.71
6766.00,0.71
6765.00,0.71
6764.00,0.71
6763.00,0.71
6762.00,0.71
6761.00,0.71
6760.00,0.71
6759.00,0.71
6758.00,0.72
6757.00,0.72
6756.00,0.72
6755.00,0.72
6754.00,0.72
6753.00,0.72
6752.00,0.72
6751.00,0.72
6750.00,0.72
6749.00,0.72
6748.00,0.72
6747.00,0.72
6746.00,0.72
6745.00,0.72
6744.00,0.72
6743.00,0.72
6742.00,0.72
6741.00,0.72
6740.00,0.72
6739.00,0.72
6738.00,0.72
6737.00,0.72
6736.00,0.73
6735.00,0.73
6734.00,0.73
6733.00,0.73
6732.00,0.73
6731.00,0.73
6730.00,0.73
6729.00,0.73
6728.00,0.73
6727.00,0.73
6726.00,0.73
6725.00,0.73
6724.00,0.73
6723.00,0.73
6722.00,0.73
6721.00,0.73
6720.00,0.73
6719.00,0.73
6718.00,0.74
6717.00,0.74
6716.00,0.74
6715.00,0.74
6714.00,0.74
6713.00,0.74
6712.00,0.74
6711.00,0.74
6710.00,0.74
6709.00,0.74
6708.00,0.75
6707.00,0.75
6706.00,0.75
6705.00,0.75
6704.00,0.75
6703.00,0.75
6702.00,0.75
6701.00,0.75
6700.00,0.75
6699.00,0.75
6698.00,0.75
6697.00,0.75
6696.00,0.75
6695.00,0.75
6694.00,0.75
6693.00,0.75
6692.00,0.75
6691.00,0.75
6690.00,0.76
6689.00,0.76
6688.00,0.76
6687.00,0.76
6686.00,0.76
6685.00,0.76
6684.00,0.76
6683.00,0.76
6682.00,0.77
6681.00,0.77
6680.00,0.77
6679.00,0.77
6678.00,0.77
6677.00,0.77
6676.00,0.77
6675.00,0.77
6674.00,0.78
6673.00,0.78
6672.00,0.78
6671.00,0.78
6670.00,0.78
6669.00,0.78
6668.00,0.78
6667.00,0.78
6666.00,0.78
6665.00,0.78
6664.00,0.78
6663.00,0.79
6662.00,0.79
6661.00,0.79
6660.00,0.79
6659.00,0.79
6658.00,0.79
6657.00,0.79
6656.00,0.80
6655.00,0.80
6654.00,0.80
6653.00,0.80
6652.00,0.80
6651.00,0.80
6650.00,0.80
6649.00,0.80
6648.00,0.81
6647.00,0.81
6646.00,0.81
6645.00,0.81
6644.00,0.81
6643.00,0.81
6642.00,0.81
6641.00,0.81
6640.00,0.81
6639.00,0.81
6638.00,0.81
6637.00,0.81
6636.00,0.81
6635.00,0.81
6634.00,0.82
6633.00,0.82
6632.00,0.82
6631.00,0.82
6630.00,0.82
6629.00,0.82
6628.00,0.82
6627.00,0.82
6626.00,0.82
6625.00,0.82
6624.00,0.82
6623.00,0.82
6622.00,0.82
6621.00,0.82
6620.00,0.82
6619.00,0.82
6618.00,0.82
6617.00,0.82
6616.00,0.82
6615.00,0.83
6614.00,0.83
6613.00,0.83
6612.00,0.83
6611.00,0.83
6610.00,0.83
6609.00,0.83
6608.00,0.84
6607.00,0.84
6606.00,0.84
6605.00,0.84
6604.00,0.84
6603.00,0.84
6602.00,0.84
6601.00,0.84
6600.00,0.84
6599.00,0.84
6598.00,0.85
6597.00,0.85
6596.00,0.85
6595.00,0.85
6594.00,0.85
6593.00,0.85
6592.00,0.85
6591.00,0.85
6590.00,0.86
6589.00,0.86
6588.00,0.86
6587.00,0.86
6586.00,0.86
6585.00,0.86
6584.00,0.86
6583.00,0.87
6582.00,0.87
6581.00,0.87
6580.00,0.87
6579.00,0.87
6578.00,0.87
6577.00,0.87
6576.00,0.87
6575.00,0.88
6574.00,0.88
6573.00,0.88
6572.00,0.88
6571.00,0.88
6570.00,0.88
6569.00,0.88
6568.00,0.88
6567.00,0.88
6566.00,0.88
6565.00,0.88
6564.00,0.88
6563.00,0.88
6562.00,0.89
6561.00,0.89
6560.00,0.89
6559.00,0.89
6558.00,0.89
6557.00,0.89
6556.00,0.89
6555.00,0.89
6554.00,0.89
6553.00,0.89
6552.00,0.89
6551.00,0.89
6550.00,0.89
6549.00,0.89
6548.00,0.89
6547.00,0.89
6546.00,0.89
6545.00,0.89
6544.00,0.89
6543.00,0.90
6542.00,0.90
6541.00,0.90
6540.00,0.90
6539.00,0.90
6538.00,0.90
6537.00,0.90
6536.00,0.90
6535.00,0.90
6534.00,0.90
6533.00,0.91
6532.00,0.91
6531.00,0.91
6530.00,0.91
6529.00,0.91
6528.00,0.91
6527.00,0.91
6526.00,0.92
6525.00,0.92
6524.00,0.92
6523.00,0.92
6522.00,0.92
6521.00,0.92
6520.00,0.92
6519.00,0.92
6518.00,0.92
6517.00,0.92
6516.00,0.93
6515.00,0.93
6514.00,0.93
6513.00,0.93
6512.00,0.93
6511.00,0.93
6510.00,0.93
6509.00,0.93
6508.00,0.93
6507.00,0.94
6506.00,0.94
6505.00,0.94
6504.00,0.94
6503.00,0.94
6502.00,0.94
6501.00,0.94
6500.00,0.94
6499.00,0.94
6498.00,0.94
6497.00,0.95
6496.00,0.95
6495.00,0.95
6494.00,0.95
6493.00,0.95
6492.00,0.95
6491.00,0.95
6490.00,0.95
6489.00,0.95
6488.00,0.95
6487.00,0.95
6486.00,0.96
6485.00,0.96
6484.00,0.96
6483.00,0.96
6482.00,0.96
6481.00,0.96
6480.00,0.96
6479.00,0.96
6478.00,0.96
6477.00,0.96
6476.00,0.96
6475.00,0.96
6474.00,0.97
6473.00,0.97
6472.00,0.97
6471.00,0.97
6470.00,0.97
6469.00,0.97
6468.00,0.97
6467.00,0.97
6466.00,0.97
6465.00,0.97
6464.00,0.97
6463.00,0.97
6462.00,0.97
6461.00,0.97
6460.00,0.97
6459.00,0.97
6458.00,0.97
6457.00,0.97
6456.00,0.97
6455.00,0.97
6454.00,0.97
6453.00,0.97
6452.00,0.98
6451.00,0.98
6450.00,0.98
6449.00,0.98
6448.00,0.98
6447.00,0.98
6446.00,0.98
6445.00,0.98
6444.00,0.98
6443.00,0.98
6442.00,0.98
6441.00,0.98
6440.00,0.98
6439.00,0.99
6438.00,0.99
6437.00,0.99
6436.00,0.99
6435.00,0.99
6434.00,0.99
6433.00,0.99
6432.00,0.99
6431.00,0.99
6430.00,0.99
6429.00,0.99
6428.00,0.99
6427.00,0.99
6426.00,0.99
6425.00,0.99
6424.00,0.99
6423.00,1.00
6422.00,1.00
6421.00,1.00
6420.00,1.00
6419.00,1.00
6418.00,1.00
6417.00,1.00
6416.00,1.00
6415.00,1.00
6414.00,1.00
6413.00,1.00
6412.00,1.00
6411.00,1.00
6410.00,1.00
6409.00,1.00
6408.00,1.00
6407.00,1.00
6406.00,1.00
6405.00,1.00
6404.00,1.00
6403.00,1.01
6402.00,1.01
6401.00,1.01
6400.00,1.01
6399.00,1.01
6398.00,1.01
6397.00,1.01
6396.00,1.01
6395.00,1.01
6394.00,1.01
6393.00,1.01
6392.00,1.01
6391.00,1.01
6390.00,1.01
6389.00,1.01
6388.00,1.01
6387.00,1.02
6386.00,1.02
6385.00,1.02
6384.00,1.02
6383.00,1.02
6382.00,1.02
6381.00,1.02
6380.00,1.02
6379.00,1.02
6378.00,1.03
6377.00,1.03
6376.00,1.03
6375.00,1.03
6374.00,1.03
6373.00,1.03
6372.00,1.03
6371.00,1.03
6370.00,1.03
6369.00,1.03
6368.00,1.03
6367.00,1.03
6366.00,1.04
6365.00,1.04
6364.00,1.04
6363.00,1.04
6362.00,1.04
6361.00,1.04
6360.00,1.04
6359.00,1.04
6358.00,1.04
6357.00,1.04
6356.00,1.04
6355.00,1.04
6354.00,1.04
6353.00,1.05
6352.00,1.05
6351.00,1.05
6350.00,1.05
6349.00,1.05
6348.00,1.05
6347.00,1.05
6346.00,1.05
6345.00,1.05
6344.00,1.05
6343.00,1.05
6342.00,1.06
6341.00,1.06
6340.00,1.06
6339.00,1.06
6338.00,1.06
6337.00,1.06
6336.00,1.06
6335.00,1.06
6334.00,1.07
6333.00,1.07
6332.00,1.07
6331.00,1.07
6330.00,1.07
6329.00,1.08
6328.00,1.08
6327.00,1.08
6326.00,1.08
6325.00,1.08
6324.00,1.09
6323.00,1.09
6322.00,1.09
6321.00,1.09
6320.00,1.09
6319.00,1.09
6318.00,1.09
6317.00,1.09
6316.00,1.09
6315.00,1.09
6314.00,1.09
6313.00,1.10
6312.00,1.10
6311.00,1.10
6310.00,1.10
6309.00,1.10
6308.00,1.10
6307.00,1.10
6306.00,1.10
6305.00,1.10
6304.00,1.10
6303.00,1.10
6302.00,1.10
6301.00,1.11
6300.00,1.11
6299.00,1.11
6298.00,1.11
6297.00,1.11
6296.00,1.11
6295.00,1.12
6294.00,1.12
6293.00,1.12
6292.00,1.12
6291.00,1.12
6290.00,1.12
6289.00,1.13
6288.00,1.13
6287.00,1.13
6286.00,1.13
6285.00,1.13
6284.00,1.13
6283.00,1.13
6282.00,1.13
6281.00,1.13
6280.00,1.14
6279.00,1.14
6278.00,1.14
6277.00,1.14
6276.00,1.14
6275.00,1.14
6274.00,1.14
6273.00,1.14
6272.00,1.15
6271.00,1.15
6270.00,1.15
6269.00,1.15
6268.00,1.15
6267.00,1.15
6266.00,1.15
6265.00,1.15
6264.00,1.16
6263.00,1.16
6262.00,1.16
6261.00,1.16
6260.00,1.16
6259.00,1.16
6258.00,1.16
6257.00,1.16
6256.00,1.17
6255.00,1.17
6254.00,1.17
6253.00,1.17
6252.00,1.17
6251.00,1.17
6250.00,1.17
6249.00,1.18
6248.00,1.18
6247.00,1.18
6246.00,1.18
6245.00,1.18
6244.00,1.18
6243.00,1.19
6242.00,1.19
6241.00,1.19
6240.00,1.19
6239.00,1.19
6238.00,1.19
6237.00,1.20
6236.00,1.20
6235.00,1.20
6234.00,1.20
6233.00,1.20
6232.00,1.20
6231.00,1.20
6230.00,1.20
6229.00,1.20
6228.00,1.21
6227.00,1.21
6226.00,1.21
6225.00,1.21
6224.00,1.21
6223.00,1.21
6222.00,1.21
6221.00,1.21
6220.00,1.22
6219.00,1.22
6218.00,1.22
6217.00,1.22
6216.00,1.22
6215.00,1.22
6214.00,1.23
6213.00,1.23
6212.00,1.23
6211.00,1.23
6210.00,1.23
6209.00,1.24
6208.00,1.24
6207.00,1.24
6206.00,1.24
6205.00,1.25
6204.00,1.25
6203.00,1.25
6202.00,1.25
6201.00,1.25
6200.00,1.26
6199.00,1.26
6198.00,1.26
6197.00,1.26
6196.00,1.26
6195.00,1.27
6194.00,1.27
6193.00,1.27
6192.00,1.27
6191.00,1.27
6190.00,1.27
6189.00,1.28
6188.00,1.28
6187.00,1.28
6186.00,1.28
6185.00,1.28
6184.00,1.28
6183.00,1.28
6182.00,1.28
6181.00,1.29
6180.00,1.29
6179.00,1.29
6178.00,1.29
6177.00,1.29
6176.00,1.29
6175.00,1.29
6174.00,1.30
6173.00,1.30
6172.00,1.30
6171.00,1.30
6170.00,1.30
6169.00,1.31
6168.00,1.31
6167.00,1.31
6166.00,1.31
6165.00,1.31
6164.00,1.32
6163.00,1.32
6162.00,1.32
6161.00,1.32
6160.00,1.33
6159.00,1.33
6158.00,1.33
6157.00,1.33
6156.00,1.34
6155.00,1.34
6154.00,1.34
6153.00,1.34
6152.00,1.34
6151.00,1.35
6150.00,1.35
6149.00,1.35
6148.00,1.35
6147.00,1.35
6146.00,1.35
6145.00,1.35
6144.00,1.36
6143.00,1.36
6142.00,1.36
6141.00,1.36
6140.00,1.36
6139.00,1.36
6138.00,1.36
6137.00,1.37
6136.00,1.37
6135.00,1.37
6134.00,1.37
6133.00,1.37
6132.00,1.37
6131.00,1.38
6130.00,1.38
6129.00,1.38
6128.00,1.38
6127.00,1.38
6126.00,1.39
6125.00,1.39
6124.00,1.39
6123.00,1.39
6122.00,1.39
6121.00,1.40
6120.00,1.40
6119.00,1.40
6118.00,1.40
6117.00,1.40
6116.00,1.41
6115.00,1.41
6114.00,1.41
6113.00,1.41
6112.00,1.41
6111.00,1.42
6110.00,1.42
6109.00,1.42
6108.00,1.42
6107.00,1.42
6106.00,1.42
6105.00,1.43
6104.00,1.43
6103.00,1.43
6102.00,1.43
6101.00,1.43
6100.00,1.44
6099.00,1.44
6098.00,1.44
6097.00,1.44
6096.00,1.44
6095.00,1.44
6094.00,1.45
6093.00,1.45
6092.00,1.45
6091.00,1.45
6090.00,1.45
6089.00,1.45
6088.00,1.45
6087.00,1.46
6086.00,1.46
6085.00,1.46
6084.00,1.46
6083.00,1.46
6082.00,1.46
6081.00,1.47
6080.00,1.47
6079.00,1.47
6078.00,1.47
6077.00,1.47
6076.00,1.48
6075.00,1.48
6074.00,1.48
6073.00,1.48
6072.00,1.48
6071.00,1.49
6070.00,1.49
6069.00,1.49
6068.00,1.49
6067.00,1.49
6066.00,1.49
6065.00,1.49
6064.00,1.50
6063.00,1.50
6062.00,1.50
6061.00,1.50
6060.00,1.50
6059.00,1.50
6058.00,1.50
6057.00,1.50
6056.00,1.51
6055.00,1.51
6054.00,1.51
6053.00,1.51
6052.00,1.51
6051.00,1.51
6050.00,1.51
6049.00,1.51
6048.00,1.51
6047.00,1.51
6046.00,1.52
6045.00,1.52
6044.00,1.52
6043.00,1.52
6042.00,1.52
6041.00,1.52
6040.00,1.52
6039.00,1.52
6038.00,1.52
6037.00,1.52
6036.00,1.52
6035.00,1.52
6034.00,1.52
6033.00,1.52
6032.00,1.52
6031.00,1.52
6030.00,1.52
6029.00,1.52
6028.00,1.52
6027.00,1.53
6026.00,1.53
6025.00,1.53
6024.00,1.53
6023.00,1.53
6022.00,1.53
6021.00,1.53
6020.00,1.53
6019.00,1.53
6018.00,1.53
6017.00,1.53
6016.00,1.53
6015.00,1.54
6014.00,1.54
6013.00,1.54
6012.00,1.54
6011.00,1.54
6010.00,1.54
6009.00,1.54
6008.00,1.54
6007.00,1.54
6006.00,1.54
6005.00,1.54
6004.00,1.54
6003.00,1.53
6002.00,1.53
6001.00,1.53
6000.00,1.53
5999.00,1.53
5998.00,1.53
5997.00,1.53
5996.00,1.53
5995.00,1.53
5994.00,1.53
5993.00,1.52
5992.00,1.52
5991.00,1.52
5990.00,1.52
5989.00,1.51
5988.00,1.51
5987.00,1.51
5986.00,1.50
5985.00,1.50
5984.00,1.50
5983.00,1.49
5982.00,1.49
5981.00,1.48
5980.00,1.48
5979.00,1.47
5978.00,1.47
5977.00,1.46
5976.00,1.46
5975.00,1.45
5974.00,1.45
5973.00,1.44
5972.00,1.43
5971.00,1.43
5970.00,1.42
5969.00,1.41
5968.00,1.40
5967.00,1.40
5966.00,1.39
5965.00,1.38
5964.00,1.37
5963.00,1.36
5962.00,1.35
5961.00,1.34
5960.00,1.33
5959.00,1.32
5958.00,1.32
5957.00,1.31
5956.00,1.30
5955.00,1.29
5954.00,1.28
5953.00,1.27
5952.00,1.26
5951.00,1.25
5950.00,1.24
5949.00,1.24
5948.00,1.23
5947.00,1.22
5946.00,1.22
5945.00,1.21
5944.00,1.21
5943.00,1.21
5942.00,1.20
5941.00,1.20
5940.00,1.20
5939.00,1.20
5938.00,1.19
5937.00,1.19
5936.00,1.19
5935.00,1.19
5934.00,1.19
5933.00,1.19
5932.00,1.19
5931.00,1.18
5930.00,1.18
5929.00,1.18
5928.00,1.18
5927.00,1.18
5926.00,1.17
5925.00,1.17
5924.00,1.17
5923.00,1.17
5922.00,1.17
5921.00,1.16
5920.00,1.16
5919.00,1.16
5918.00,1.15
5917.00,1.15
5916.00,1.15
5915.00,1.14
5914.00,1.14
5913.00,1.14
5912.00,1.13
5911.00,1.13
5910.00,1.13
5909.00,1.13
5908.00,1.12
5907.00,1.12
5906.00,1.12
5905.00,1.12
5904.00,1.12
5903.00,1.12
5902.00,1.12
5901.00,1.12
5900.00,1.12
5899.00,1.12
5898.00,1.12
5897.00,1.12
5896.00,1.12
5895.00,1.12
5894.00,1.13
5893.00,1.13
5892.00,1.13
5891.00,1.13
5890.00,1.14
5889.00,1.14
5888.00,1.14
5887.00,1.14
5886.00,1.15
5885.00,1.15
5884.00,1.15
5883.00,1.16
5882.00,1.16
5881.00,1.16
5880.00,1.17
5879.00,1.17
5878.00,1.17
5877.00,1.18
5876.00,1.18
5875.00,1.18
5874.00,1.19
5873.00,1.19
5872.00,1.19
5871.00,1.20
5870.00,1.20
5869.00,1.20
5868.00,1.21
5867.00,1.21
5866.00,1.21
5865.00,1.21
5864.00,1.21
5863.00,1.22
5862.00,1.22
5861.00,1.22
5860.00,1.22
5859.00,1.22
5858.00,1.23
5857.00,1.23
5856.00,1.23
5855.00,1.23
5854.00,1.23
5853.00,1.23
5852.00,1.23
5851.00,1.23
5850.00,1.23
5849.00,1.23
5848.00,1.24
5847.00,1.24
5846.00,1.24
5845.00,1.24
5844.00,1.24
5843.00,1.24
5842.00,1.24
5841.00,1.24
5840.00,1.24
5839.00,1.24
5838.00,1.24
5837.00,1.24
5836.00,1.24
5835.00,1.23
5834.00,1.23
5833.00,1.23
5832.00,1.23
5831.00,1.23
5830.00,1.23
5829.00,1.23
5828.00,1.23
5827.00,1.23
5826.00,1.23
5825.00,1.23
5824.00,1.23
5823.00,1.24
5822.00,1.24
5821.00,1.24
5820.00,1.24
5819.00,1.24
5818.00,1.24
5817.00,1.24
5816.00,1.24
5815.00,1.24
5814.00,1.24
5813.00,1.24
5812.00,1.24
5811.00,1.24
5810.00,1.24
5809.00,1.24
5808.00,1.24
5807.00,1.24
5806.00,1.24
5805.00,1.24
5804.00,1.24
5803.00,1.24
5802.00,1.24
5801.00,1.24
5800.00,1.23
5799.00,1.23
5798.00,1.23
5797.00,1.23
5796.00,1.23
5795.00,1.22
5794.00,1.22
5793.00,1.22
5792.00,1.22
5791.00,1.21
5790.00,1.21
5789.00,1.21
5788.00,1.21
5787.00,1.20
5786.00,1.20
5785.00,1.20
5784.00,1.20
5783.00,1.19
5782.00,1.19
5781.00,1.19
5780.00,1.19
5779.00,1.19
5778.00,1.19
5777.00,1.18
5776.00,1.18
5775.00,1.18
5774.00,1.18
5773.00,1.18
5772.00,1.18
5771.00,1.18
5770.00,1.18
5769.00,1.18
5768.00,1.19
5767.00,1.19
5766.00,1.19
5765.00,1.19
5764.00,1.19
5763.00,1.19
5762.00,1.20
5761.00,1.20
5760.00,1.20
5759.00,1.21
5758.00,1.21
5757.00,1.22
5756.00,1.22
5755.00,1.23
5754.00,1.23
5753.00,1.23
5752.00,1.24
5751.00,1.24
5750.00,1.25
5749.00,1.25
5748.00,1.26
5747.00,1.26
5746.00,1.26
5745.00,1.27
5744.00,1.27
5743.00,1.28
5742.00,1.28
5741.00,1.28
5740.00,1.29
5739.00,1.29
5738.00,1.29
5737.00,1.30
5736.00,1.30
5735.00,1.30
5734.00,1.30
5733.00,1.31
5732.00,1.31
5731.00,1.31
5730.00,1.31
5729.00,1.31
5728.00,1.32
5727.00,1.32
5726.00,1.32
5725.00,1.32
5724.00,1.32
5723.00,1.32
5722.00,1.32
5721.00,1.32
5720.00,1.32
5719.00,1.33
5718.00,1.33
5717.00,1.33
5716.00,1.33
5715.00,1.33
5714.00,1.33
5713.00,1.33
5712.00,1.33
5711.00,1.33
5710.00,1.33
5709.00,1.33
5708.00,1.32
5707.00,1.32
5706.00,1.32
5705.00,1.32
5704.00,1.32
5703.00,1.32
5702.00,1.32
5701.00,1.32
5700.00,1.31
5699.00,1.31
5698.00,1.31
5697.00,1.31
5696.00,1.31
5695.00,1.31
5694.00,1.30
5693.00,1.30
5692.00,1.30
5691.00,1.30
5690.00,1.30
5689.00,1.29
5688.00,1.29
5687.00,1.29
5686.00,1.29
5685.00,1.29
5684.00,1.29
5683.00,1.29
5682.00,1.28
5681.00,1.28
5680.00,1.28
5679.00,1.28
5678.00,1.28
5677.00,1.28
5676.00,1.28
5675.00,1.28
5674.00,1.28
5673.00,1.28
5672.00,1.28
5671.00,1.28
5670.00,1.28
5669.00,1.28
5668.00,1.28
5667.00,1.29
5666.00,1.29
5665.00,1.29
5664.00,1.29
5663.00,1.29
5662.00,1.29
5661.00,1.30
5660.00,1.30
5659.00,1.30
5658.00,1.30
5657.00,1.30
5656.00,1.31
5655.00,1.31
5654.00,1.31
5653.00,1.31
5652.00,1.32
5651.00,1.32
5650.00,1.32
5649.00,1.32
5648.00,1.33
5647.00,1.33
5646.00,1.33
5645.00,1.34
5644.00,1.34
5643.00,1.34
5642.00,1.34
5641.00,1.35
5640.00,1.35
5639.00,1.35
5638.00,1.36
5637.00,1.36
5636.00,1.36
5635.00,1.36
5634.00,1.37
5633.00,1.37
5632.00,1.37
5631.00,1.37
5630.00,1.38
5629.00,1.38
5628.00,1.38
5627.00,1.38
5626.00,1.38
5625.00,1.39
5624.00,1.39
5623.00,1.39
5622.00,1.39
5621.00,1.39
5620.00,1.39
5619.00,1.40
5618.00,1.40
5617.00,1.40
5616.00,1.40
5615.00,1.40
5614.00,1.40
5613.00,1.40
5612.00,1.41
5611.00,1.41
5610.00,1.41
5609.00,1.41
5608.00,1.41
5607.00,1.41
5606.00,1.42
5605.00,1.42
5604.00,1.42
5603.00,1.42
5602.00,1.42
5601.00,1.43
5600.00,1.43
5599.00,1.43
5598.00,1.43
5597.00,1.44
5596.00,1.44
5595.00,1.44
5594.00,1.44
5593.00,1.45
5592.00,1.45
5591.00,1.45
5590.00,1.45
5589.00,1.46
5588.00,1.46
5587.00,1.46
5586.00,1.46
5585.00,1.47
5584.00,1.47
5583.00,1.47
5582.00,1.47
5581.00,1.48
5580.00,1.48
5579.00,1.48
5578.00,1.48
5577.00,1.49
5576.00,1.49
5575.00,1.49
5574.00,1.49
5573.00,1.50
5572.00,1.50
5571.00,1.50
5570.00,1.50
5569.00,1.50
5568.00,1.50
5567.00,1.51
5566.00,1.51
5565.00,1.51
5564.00,1.51
5563.00,1.51
5562.00,1.51
5561.00,1.52
5560.00,1.52
5559.00,1.52
5558.00,1.52
5557.00,1.52
5556.00,1.53
5555.00,1.53
5554.00,1.53
5553.00,1.53
5552.00,1.53
5551.00,1.53
5550.00,1.53
5549.00,1.54
5548.00,1.54
5547.00,1.54
5546.00,1.54
5545.00,1.54
5544.00,1.54
5543.00,1.54
5542.00,1.55
5541.00,1.55
5540.00,1.55
5539.00,1.55
5538.00,1.55
5537.00,1.55
5536.00,1.56
5535.00,1.56
5534.00,1.56
5533.00,1.56
5532.00,1.56
5531.00,1.56
5530.00,1.56
5529.00,1.56
5528.00,1.56
5527.00,1.57
5526.00,1.57
5525.00,1.57
5524.00,1.57
5523.00,1.57
5522.00,1.57
5521.00,1.57
5520.00,1.57
5519.00,1.57
5518.00,1.57
5517.00,1.57
5516.00,1.57
5515.00,1.57
5514.00,1.58
5513.00,1.58
5512.00,1.58
5511.00,1.58
5510.00,1.58
5509.00,1.58
5508.00,1.58
5507.00,1.58
5506.00,1.58
5505.00,1.58
5504.00,1.58
5503.00,1.58
5502.00,1.59
5501.00,1.59
5500.00,1.59
5499.00,1.59
5498.00,1.59
5497.00,1.59
5496.00,1.59
5495.00,1.59
5494.00,1.59
5493.00,1.59
5492.00,1.59
5491.00,1.59
5490.00,1.59
5489.00,1.60
5488.00,1.60
5487.00,1.60
5486.00,1.60
5485.00,1.60
5484.00,1.60
5483.00,1.60
5482.00,1.61
5481.00,1.61
5480.00,1.61
5479.00,1.61
5478.00,1.61
5477.00,1.61
5476.00,1.61
5475.00,1.62
5474.00,1.62
5473.00,1.62
5472.00,1.62
5471.00,1.62
5470.00,1.62
5469.00,1.62
5468.00,1.63
5467.00,1.63
5466.00,1.63
5465.00,1.63
5464.00,1.63
5463.00,1.63
5462.00,1.64
5461.00,1.64
5460.00,1.64
5459.00,1.64
5458.00,1.64
5457.00,1.64
5456.00,1.64
5455.00,1.65
5454.00,1.65
5453.00,1.65
5452.00,1.65
5451.00,1.65
5450.00,1.65
5449.00,1.65
5448.00,1.65
5447.00,1.65
5446.00,1.65
5445.00,1.65
5444.00,1.66
5443.00,1.66
5442.00,1.66
5441.00,1.66
5440.00,1.66
5439.00,1.66
5438.00,1.66
5437.00,1.66
5436.00,1.66
5435.00,1.66
5434.00,1.66
5433.00,1.66
5432.00,1.66
5431.00,1.66
5430.00,1.66
5429.00,1.66
5428.00,1.66
5427.00,1.66
5426.00,1.66
5425.00,1.66
5424.00,1.66
5423.00,1.66
5422.00,1.66
5421.00,1.66
5420.00,1.66
5419.00,1.66
5418.00,1.66
5417.00,1.66
5416.00,1.66
5415.00,1.66
5414.00,1.66
5413.00,1.66
5412.00,1.66
5411.00,1.66
5410.00,1.66
5409.00,1.66
5408.00,1.66
5407.00,1.66
5406.00,1.66
5405.00,1.66
5404.00,1.66
5403.00,1.66
5402.00,1.66
5401.00,1.66
5400.00,1.66
5399.00,1.66
5398.00,1.66
5397.00,1.66
5396.00,1.66
5395.00,1.66
5394.00,1.65
5393.00,1.65
5392.00,1.65
5391.00,1.65
5390.00,1.64
5389.00,1.64
5388.00,1.64
5387.00,1.64
5386.00,1.63
5385.00,1.63
5384.00,1.62
5383.00,1.62
5382.00,1.62
5381.00,1.61
5380.00,1.61
5379.00,1.60
5378.00,1.60
5377.00,1.60
5376.00,1.59
5375.00,1.59
5374.00,1.58
5373.00,1.58
5372.00,1.57
5371.00,1.57
5370.00,1.56
5369.00,1.55
5368.00,1.55
5367.00,1.54
5366.00,1.53
5365.00,1.53
5364.00,1.52
5363.00,1.51
5362.00,1.50
5361.00,1.49
5360.00,1.49
5359.00,1.48
5358.00,1.47
5357.00,1.46
5356.00,1.45
5355.00,1.44
5354.00,1.43
5353.00,1.41
5352.00,1.40
5351.00,1.39
5350.00,1.38
5349.00,1.37
5348.00,1.36
5347.00,1.35
5346.00,1.34
5345.00,1.32
5344.00,1.31
5343.00,1.30
5342.00,1.29
5341.00,1.28
5340.00,1.27
5339.00,1.26
5338.00,1.25
5337.00,1.24
5336.00,1.22
5335.00,1.21
5334.00,1.20
5333.00,1.19
5332.00,1.18
5331.00,1.17
5330.00,1.16
5329.00,1.15
5328.00,1.14
5327.00,1.13
5326.00,1.12
5325.00,1.11
5324.00,1.10
5323.00,1.09
5322.00,1.08
5321.00,1.07
5320.00,1.06
5319.00,1.05
5318.00,1.04
5317.00,1.03
5316.00,1.02
5315.00,1.01
5314.00,1.01
5313.00,1.00
5312.00,0.99
5311.00,0.98
5310.00,0.97
5309.00,0.97
5308.00,0.96
5307.00,0.95
5306.00,0.94
5305.00,0.94
5304.00,0.93
5303.00,0.92
5302.00,0.92
5301.00,0.91
5300.00,0.91
5299.00,0.90
5298.00,0.90
5297.00,0.90
5296.00,0.89
5295.00,0.89
5294.00,0.89
5293.00,0.88
5292.00,0.88
5291.00,0.88
5290.00,0.88
5289.00,0.88
5288.00,0.88
5287.00,0.87
5286.00,0.87
5285.00,0.87
5284.00,0.87
5283.00,0.87
5282.00,0.87
5281.00,0.87
5280.00,0.87
5279.00,0.87
5278.00,0.86
5277.00,0.86
5276.00,0.86
5275.00,0.86
5274.00,0.86
5273.00,0.86
5272.00,0.86
5271.00,0.86
5270.00,0.86
5269.00,0.85
5268.00,0.85
5267.00,0.85
5266.00,0.85
5265.00,0.85
5264.00,0.85
5263.00,0.85
5262.00,0.85
5261.00,0.85
5260.00,0.85
5259.00,0.85
5258.00,0.85
5257.00,0.85
5256.00,0.85
5255.00,0.85
5254.00,0.85
5253.00,0.85
5252.00,0.85
5251.00,0.85
5250.00,0.85
5249.00,0.85
5248.00,0.85
5247.00,0.85
5246.00,0.85
5245.00,0.85
5244.00,0.85
5243.00,0.85
5242.00,0.85
5241.00,0.85
5240.00,0.85
5239.00,0.85
5238.00,0.85
5237.00,0.85
5236.00,0.85
5235.00,0.85
5234.00,0.86
5233.00,0.86
5232.00,0.86
5231.00,0.86
5230.00,0.86
5229.00,0.86
5228.00,0.86
5227.00,0.86
5226.00,0.86
5225.00,0.86
5224.00,0.86
5223.00,0.86
5222.00,0.86
5221.00,0.86
5220.00,0.86
5219.00,0.87
5218.00,0.87
5217.00,0.87
5216.00,0.86
5215.00,0.86
5214.00,0.86
5213.00,0.86
5212.00,0.86
5211.00,0.86
5210.00,0.86
5209.00,0.86
5208.00,0.86
5207.00,0.86
5206.00,0.86
5205.00,0.86
5204.00,0.86
5203.00,0.86
5202.00,0.86
5201.00,0.86
5200.00,0.86
5199.00,0.86
5198.00,0.86
5197.00,0.87
5196.00,0.87
5195.00,0.87
5194.00,0.87
5193.00,0.87
5192.00,0.87
5191.00,0.87
5190.00,0.87
5189.00,0.87
5188.00,0.87
5187.00,0.87
5186.00,0.88
5185.00,0.88
5184.00,0.88
5183.00,0.88
5182.00,0.88
5181.00,0.88
5180.00,0.88
5179.00,0.88
5178.00,0.88
5177.00,0.88
5176.00,0.88
5175.00,0.89
5174.00,0.89
5173.00,0.89
5172.00,0.89
5171.00,0.89
5170.00,0.89
5169.00,0.89
5168.00,0.89
5167.00,0.89
5166.00,0.89
5165.00,0.89
5164.00,0.89
5163.00,0.89
5162.00,0.89
5161.00,0.89
5160.00,0.89
5159.00,0.89
5158.00,0.89
5157.00,0.90
5156.00,0.90
5155.00,0.90
5154.00,0.90
5153.00,0.90
5152.00,0.90
5151.00,0.90
5150.00,0.90
5149.00,0.90
5148.00,0.90
5147.00,0.90
5146.00,0.90
5145.00,0.90
5144.00,0.90
5143.00,0.90
5142.00,0.90
5141.00,0.90
5140.00,0.90
5139.00,0.90
5138.00,0.90
5137.00,0.90
5136.00,0.90
5135.00,0.90
5134.00,0.90
5133.00,0.90
5132.00,0.90
5131.00,0.91
5130.00,0.91
5129.00,0.91
5128.00,0.91
5127.00,0.91
5126.00,0.91
5125.00,0.91
5124.00,0.91
5123.00,0.91
5122.00,0.91
5121.00,0.91
5120.00,0.91
5119.00,0.91
5118.00,0.92
5117.00,0.92
5116.00,0.92
5115.00,0.92
5114.00,0.92
5113.00,0.92
5112.00,0.93
5111.00,0.93
5110.00,0.93
5109.00,0.93
5108.00,0.93
5107.00,0.93
5106.00,0.93
5105.00,0.94
5104.00,0.94
5103.00,0.94
5102.00,0.94
5101.00,0.94
5100.00,0.94
5099.00,0.94
5098.00,0.94
5097.00,0.94
5096.00,0.94
5095.00,0.94
5094.00,0.94
5093.00,0.94
5092.00,0.94
5091.00,0.94
5090.00,0.94
5089.00,0.94
5088.00,0.94
5087.00,0.94
5086.00,0.94
5085.00,0.94
5084.00,0.94
5083.00,0.94
5082.00,0.94
5081.00,0.94
5080.00,0.94
5079.00,0.94
5078.00,0.94
5077.00,0.94
5076.00,0.94
5075.00,0.94
5074.00,0.94
5073.00,0.94
5072.00,0.94
5071.00,0.94
5070.00,0.94
5069.00,0.94
5068.00,0.94
5067.00,0.94
5066.00,0.94
5065.00,0.94
5064.00,0.94
5063.00,0.94
5062.00,0.94
5061.00,0.95
5060.00,0.95
5059.00,0.95
5058.00,0.95
5057.00,0.95
5056.00,0.95
5055.00,0.95
5054.00,0.95
5053.00,0.95
5052.00,0.95
5051.00,0.96
5050.00,0.96
5049.00,0.96
5048.00,0.96
5047.00,0.96
5046.00,0.96
5045.00,0.96
5044.00,0.96
5043.00,0.96
5042.00,0.96
5041.00,0.96
5040.00,0.96
5039.00,0.96
5038.00,0.97
5037.00,0.97
5036.00,0.97
5035.00,0.97
5034.00,0.97
5033.00,0.97
5032.00,0.97
5031.00,0.97
5030.00,0.97
5029.00,0.97
5028.00,0.97
5027.00,0.98
5026.00,0.98
5025.00,0.98
5024.00,0.98
5023.00,0.98
5022.00,0.98
5021.00,0.98
5020.00,0.98
5019.00,0.98
5018.00,0.99
5017.00,0.99
5016.00,0.99
5015.00,0.99
5014.00,0.99
5013.00,0.99
5012.00,0.99
5011.00,0.99
5010.00,0.99
5009.00,0.99
5008.00,0.99
5007.00,0.99
5006.00,1.00
5005.00,1.00
5004.00,1.00
5003.00,1.00
5002.00,1.00
5001.00,1.00
5000.00,1.00
4999.00,1.00
4998.00,1.00
4997.00,1.00
4996.00,1.00
4995.00,1.00
4994.00,1.00
4993.00,1.00
4992.00,1.00
4991.00,1.00
4990.00,1.00
4989.00,1.00
4988.00,1.00
4987.00,1.01
4986.00,1.01
4985.00,1.01
4984.00,1.01
4983.00,1.01
4982.00,1.01
4981.00,1.01
4980.00,1.01
4979.00,1.01
4978.00,1.01
4977.00,1.02
4976.00,1.02
4975.00,1.02
4974.00,1.02
4973.00,1.02
4972.00,1.02
4971.00,1.02
4970.00,1.02
4969.00,1.03
4968.00,1.03
4967.00,1.03
4966.00,1.03
4965.00,1.03
4964.00,1.03
4963.00,1.03
4962.00,1.03
4961.00,1.03
4960.00,1.04
4959.00,1.04
4958.00,1.04
4957.00,1.04
4956.00,1.04
4955.00,1.04
4954.00,1.04
4953.00,1.04
4952.00,1.04
4951.00,1.04
4950.00,1.04
4949.00,1.04
4948.00,1.04
4947.00,1.05
4946.00,1.05
4945.00,1.05
4944.00,1.05
4943.00,1.05
4942.00,1.05
4941.00,1.05
4940.00,1.05
4939.00,1.05
4938.00,1.05
4937.00,1.05
4936.00,1.05
4935.00,1.05
4934.00,1.05
4933.00,1.05
4932.00,1.05
4931.00,1.05
4930.00,1.05
4929.00,1.05
4928.00,1.05
4927.00,1.05
4926.00,1.05
4925.00,1.05
4924.00,1.05
4923.00,1.05
4922.00,1.06
4921.00,1.06
4920.00,1.06
4919.00,1.06
4918.00,1.06
4917.00,1.06
4916.00,1.06
4915.00,1.06
4914.00,1.06
4913.00,1.07
4912.00,1.07
4911.00,1.07
4910.00,1.07
4909.00,1.07
4908.00,1.07
4907.00,1.07
4906.00,1.08
4905.00,1.08
4904.00,1.08
4903.00,1.08
4902.00,1.08
4901.00,1.08
4900.00,1.08
4899.00,1.08
4898.00,1.08
4897.00,1.08
4896.00,1.08
4895.00,1.07
4894.00,1.07
4893.00,1.07
4892.00,1.07
4891.00,1.07
4890.00,1.07
4889.00,1.07
4888.00,1.08
4887.00,1.08
4886.00,1.08
4885.00,1.08
4884.00,1.08
4883.00,1.08
4882.00,1.08
4881.00,1.08
4880.00,1.09
4879.00,1.09
4878.00,1.09
4877.00,1.09
4876.00,1.09
4875.00,1.09
4874.00,1.10
4873.00,1.10
4872.00,1.10
4871.00,1.10
4870.00,1.10
4869.00,1.10
4868.00,1.10
4867.00,1.10
4866.00,1.10
4865.00,1.10
4864.00,1.10
4863.00,1.10
4862.00,1.10
4861.00,1.10
4860.00,1.10
4859.00,1.10
4858.00,1.10
4857.00,1.10
4856.00,1.10
4855.00,1.10
4854.00,1.10
4853.00,1.10
4852.00,1.10
4851.00,1.10
4850.00,1.10
4849.00,1.10
4848.00,1.10
4847.00,1.10
4846.00,1.10
4845.00,1.11
4844.00,1.11
4843.00,1.11
4842.00,1.11
4841.00,1.11
4840.00,1.11
4839.00,1.11
4838.00,1.12
4837.00,1.12
4836.00,1.12
4835.00,1.12
4834.00,1.12
4833.00,1.12
4832.00,1.12
4831.00,1.13
4830.00,1.13
4829.00,1.13
4828.00,1.13
4827.00,1.13
4826.00,1.13
4825.00,1.13
4824.00,1.13
4823.00,1.13
4822.00,1.13
4821.00,1.13
4820.00,1.13
4819.00,1.14
4818.00,1.14
4817.00,1.14
4816.00,1.14
4815.00,1.14
4814.00,1.14
4813.00,1.14
4812.00,1.14
4811.00,1.14
4810.00,1.15
4809.00,1.15
4808.00,1.15
4807.00,1.15
4806.00,1.15
4805.00,1.15
4804.00,1.15
4803.00,1.15
4802.00,1.15
4801.00,1.15
4800.00,1.15
4799.00,1.16
4798.00,1.16
4797.00,1.16
4796.00,1.16
4795.00,1.16
4794.00,1.16
4793.00,1.16
4792.00,1.16
4791.00,1.16
4790.00,1.16
4789.00,1.16
4788.00,1.16
4787.00,1.17
4786.00,1.17
4785.00,1.17
4784.00,1.17
4783.00,1.17
4782.00,1.17
4781.00,1.17
4780.00,1.17
4779.00,1.17
4778.00,1.17
4777.00,1.18
4776.00,1.18
4775.00,1.18
4774.00,1.18
4773.00,1.18
4772.00,1.18
4771.00,1.18
4770.00,1.19
4769.00,1.19
4768.00,1.19
4767.00,1.19
4766.00,1.19
4765.00,1.19
4764.00,1.20
4763.00,1.20
4762.00,1.20
4761.00,1.20
4760.00,1.20
4759.00,1.20
4758.00,1.20
4757.00,1.21
4756.00,1.21
4755.00,1.21
4754.00,1.21
4753.00,1.21
4752.00,1.21
4751.00,1.21
4750.00,1.21
4749.00,1.21
4748.00,1.21
4747.00,1.21
4746.00,1.21
4745.00,1.21
4744.00,1.22
4743.00,1.22
4742.00,1.22
4741.00,1.22
4740.00,1.22
4739.00,1.22
4738.00,1.22
4737.00,1.22
4736.00,1.22
4735.00,1.23
4734.00,1.23
4733.00,1.23
4732.00,1.23
4731.00,1.23
4730.00,1.23
4729.00,1.24
4728.00,1.24
4727.00,1.24
4726.00,1.24
4725.00,1.24
4724.00,1.24
4723.00,1.25
4722.00,1.25
4721.00,1.25
4720.00,1.25
4719.00,1.25
4718.00,1.25
4717.00,1.25
4716.00,1.26
4715.00,1.26
4714.00,1.26
4713.00,1.26
4712.00,1.26
4711.00,1.26
4710.00,1.26
4709.00,1.26
4708.00,1.26
4707.00,1.27
4706.00,1.27
4705.00,1.27
4704.00,1.27
4703.00,1.27
4702.00,1.27
4701.00,1.27
4700.00,1.27
4699.00,1.27
4698.00,1.27
4697.00,1.27
4696.00,1.28
4695.00,1.28
4694.00,1.28
4693.00,1.28
4692.00,1.28
4691.00,1.28
4690.00,1.28
4689.00,1.29
4688.00,1.29
4687.00,1.29
4686.00,1.29
4685.00,1.29
4684.00,1.29
4683.00,1.30
4682.00,1.30
4681.00,1.30
4680.00,1.30
4679.00,1.30
4678.00,1.30
4677.00,1.31
4676.00,1.31
4675.00,1.31
4674.00,1.31
4673.00,1.31
4672.00,1.31
4671.00,1.31
4670.00,1.32
4669.00,1.32
4668.00,1.32
4667.00,1.32
4666.00,1.32
4665.00,1.32
4664.00,1.33
4663.00,1.33
4662.00,1.33
4661.00,1.33
4660.00,1.33
4659.00,1.33
4658.00,1.33
4657.00,1.34
4656.00,1.34
4655.00,1.34
4654.00,1.34
4653.00,1.34
4652.00,1.34
4651.00,1.35
4650.00,1.35
4649.00,1.35
4648.00,1.35
4647.00,1.35
4646.00,1.35
4645.00,1.35
4644.00,1.36
4643.00,1.36
4642.00,1.36
4641.00,1.36
4640.00,1.36
4639.00,1.36
4638.00,1.36
4637.00,1.37
4636.00,1.37
4635.00,1.37
4634.00,1.37
4633.00,1.37
4632.00,1.37
4631.00,1.37
4630.00,1.37
4629.00,1.37
4628.00,1.37
4627.00,1.38
4626.00,1.38
4625.00,1.38
4624.00,1.38
4623.00,1.38
4622.00,1.38
4621.00,1.38
4620.00,1.38
4619.00,1.38
4618.00,1.38
4617.00,1.38
4616.00,1.38
4615.00,1.38
4614.00,1.38
4613.00,1.38
4612.00,1.38
4611.00,1.38
4610.00,1.38
4609.00,1.39
4608.00,1.39
4607.00,1.39
4606.00,1.39
4605.00,1.39
4604.00,1.39
4603.00,1.39
4602.00,1.40
4601.00,1.40
4600.00,1.40
4599.00,1.40
4598.00,1.40
4597.00,1.40
4596.00,1.40
4595.00,1.40
4594.00,1.40
4593.00,1.40
4592.00,1.40
4591.00,1.40
4590.00,1.40
4589.00,1.40
4588.00,1.41
4587.00,1.41
4586.00,1.41
4585.00,1.41
4584.00,1.41
4583.00,1.41
4582.00,1.41
4581.00,1.41
4580.00,1.41
4579.00,1.42
4578.00,1.42
4577.00,1.42
4576.00,1.42
4575.00,1.42
4574.00,1.42
4573.00,1.42
4572.00,1.42
4571.00,1.42
4570.00,1.42
4569.00,1.42
4568.00,1.43
4567.00,1.43
4566.00,1.43
4565.00,1.43
4564.00,1.43
4563.00,1.43
4562.00,1.43
4561.00,1.43
4560.00,1.43
4559.00,1.44
4558.00,1.44
4557.00,1.44
4556.00,1.44
4555.00,1.44
4554.00,1.44
4553.00,1.44
4552.00,1.44
4551.00,1.44
4550.00,1.44
4549.00,1.44
4548.00,1.44
4547.00,1.45
4546.00,1.45
4545.00,1.45
4544.00,1.45
4543.00,1.45
4542.00,1.45
4541.00,1.45
4540.00,1.45
4539.00,1.45
4538.00,1.45
4537.00,1.45
4536.00,1.45
4535.00,1.46
4534.00,1.46
4533.00,1.46
4532.00,1.46
4531.00,1.46
4530.00,1.46
4529.00,1.46
4528.00,1.46
4527.00,1.46
4526.00,1.46
4525.00,1.46
4524.00,1.46
4523.00,1.46
4522.00,1.46
4521.00,1.46
4520.00,1.46
4519.00,1.46
4518.00,1.46
4517.00,1.46
4516.00,1.46
4515.00,1.46
4514.00,1.46
4513.00,1.46
4512.00,1.46
4511.00,1.46
4510.00,1.46
4509.00,1.46
4508.00,1.46
4507.00,1.46
4506.00,1.46
4505.00,1.46
4504.00,1.46
4503.00,1.46
4502.00,1.46
4501.00,1.46
4500.00,1.46
4499.00,1.46
4498.00,1.46
4497.00,1.46
4496.00,1.46
4495.00,1.46
4494.00,1.46
4493.00,1.46
4492.00,1.46
4491.00,1.46
4490.00,1.46
4489.00,1.46
4488.00,1.45
4487.00,1.45
4486.00,1.45
4485.00,1.45
4484.00,1.45
4483.00,1.45
4482.00,1.45
4481.00,1.45
4480.00,1.44
4479.00,1.44
4478.00,1.44
4477.00,1.44
4476.00,1.44
4475.00,1.43
4474.00,1.43
4473.00,1.43
4472.00,1.43
4471.00,1.43
4470.00,1.43
4469.00,1.42
4468.00,1.42
4467.00,1.42
4466.00,1.42
4465.00,1.42
4464.00,1.42
4463.00,1.42
4462.00,1.41
4461.00,1.41
4460.00,1.41
4459.00,1.41
4458.00,1.41
4457.00,1.41
4456.00,1.40
4455.00,1.40
4454.00,1.40
4453.00,1.40
4452.00,1.39
4451.00,1.39
4450.00,1.39
4449.00,1.38
4448.00,1.38
4447.00,1.38
4446.00,1.37
4445.00,1.37
4444.00,1.37
4443.00,1.36
4442.00,1.36
4441.00,1.36
4440.00,1.35
4439.00,1.35
4438.00,1.35
4437.00,1.35
4436.00,1.35
4435.00,1.34
4434.00,1.34
4433.00,1.34
4432.00,1.34
4431.00,1.34
4430.00,1.34
4429.00,1.34
4428.00,1.34
4427.00,1.34
4426.00,1.34
4425.00,1.34
4424.00,1.34
4423.00,1.34
4422.00,1.34
4421.00,1.34
4420.00,1.34
4419.00,1.34
4418.00,1.34
4417.00,1.34
4416.00,1.34
4415.00,1.34
4414.00,1.34
4413.00,1.34
4412.00,1.34
4411.00,1.34
4410.00,1.34
4409.00,1.35
4408.00,1.35
4407.00,1.35
4406.00,1.35
4405.00,1.35
4404.00,1.35
4403.00,1.35
4402.00,1.35
4401.00,1.35
4400.00,1.35
4399.00,1.35
4398.00,1.35
4397.00,1.35
4396.00,1.35
4395.00,1.35
4394.00,1.36
4393.00,1.36
4392.00,1.36
4391.00,1.36
4390.00,1.36
4389.00,1.36
4388.00,1.36
4387.00,1.36
4386.00,1.36
4385.00,1.36
4384.00,1.36
4383.00,1.36
4382.00,1.36
4381.00,1.37
4380.00,1.37
4379.00,1.37
4378.00,1.37
4377.00,1.37
4376.00,1.37
4375.00,1.37
4374.00,1.37
4373.00,1.38
4372.00,1.38
4371.00,1.38
4370.00,1.38
4369.00,1.38
4368.00,1.38
4367.00,1.38
4366.00,1.38
4365.00,1.38
4364.00,1.38
4363.00,1.38
4362.00,1.38
4361.00,1.38
4360.00,1.38
4359.00,1.38
4358.00,1.38
4357.00,1.38
4356.00,1.38
4355.00,1.38
4354.00,1.38
4353.00,1.38
4352.00,1.38
4351.00,1.38
4350.00,1.38
4349.00,1.38
4348.00,1.38
4347.00,1.38
4346.00,1.38
4345.00,1.38
4344.00,1.38
4343.00,1.39
4342.00,1.39
4341.00,1.39
4340.00,1.39
4339.00,1.39
4338.00,1.39
4337.00,1.39
4336.00,1.39
4335.00,1.39
4334.00,1.39
4333.00,1.39
4332.00,1.39
4331.00,1.39
4330.00,1.39
4329.00,1.39
4328.00,1.39
4327.00,1.39
4326.00,1.39
4325.00,1.39
4324.00,1.39
4323.00,1.40
4322.00,1.40
4321.00,1.40
4320.00,1.40
4319.00,1.40
4318.00,1.41
4317.00,1.41
4316.00,1.41
4315.00,1.41
4314.00,1.41
4313.00,1.42
4312.00,1.42
4311.00,1.42
4310.00,1.42
4309.00,1.43
4308.00,1.43
4307.00,1.43
4306.00,1.43
4305.00,1.43
4304.00,1.44
4303.00,1.44
4302.00,1.44
4301.00,1.44
4300.00,1.44
4299.00,1.44
4298.00,1.45
4297.00,1.45
4296.00,1.45
4295.00,1.45
4294.00,1.45
4293.00,1.45
4292.00,1.45
4291.00,1.45
4290.00,1.45
4289.00,1.45
4288.00,1.45
4287.00,1.45
4286.00,1.45
4285.00,1.45
4284.00,1.45
4283.00,1.45
4282.00,1.45
4281.00,1.45
4280.00,1.45
4279.00,1.45
4278.00,1.45
4277.00,1.45
4276.00,1.45
4275.00,1.45
4274.00,1.45
4273.00,1.46
4272.00,1.46
4271.00,1.46
4270.00,1.46
4269.00,1.46
4268.00,1.46
4267.00,1.46
4266.00,1.46
4265.00,1.47
4264.00,1.47
4263.00,1.47
4262.00,1.47
4261.00,1.47
4260.00,1.47
4259.00,1.47
4258.00,1.47
4257.00,1.47
4256.00,1.47
4255.00,1.47
4254.00,1.47
4253.00,1.47
4252.00,1.47
4251.00,1.47
4250.00,1.47
4249.00,1.47
4248.00,1.47
4247.00,1.47
4246.00,1.47
4245.00,1.47
4244.00,1.47
4243.00,1.47
4242.00,1.47
4241.00,1.47
4240.00,1.48
4239.00,1.48
4238.00,1.48
4237.00,1.48
4236.00,1.48
4235.00,1.49
4234.00,1.49
4233.00,1.49
4232.00,1.49
4231.00,1.50
4230.00,1.50
4229.00,1.50
4228.00,1.50
4227.00,1.50
4226.00,1.51
4225.00,1.51
4224.00,1.51
4223.00,1.51
4222.00,1.51
4221.00,1.51
4220.00,1.51
4219.00,1.51
4218.00,1.51
4217.00,1.51
4216.00,1.51
4215.00,1.51
4214.00,1.51
4213.00,1.51
4212.00,1.51
4211.00,1.51
4210.00,1.51
4209.00,1.51
4208.00,1.51
4207.00,1.51
4206.00,1.51
4205.00,1.51
4204.00,1.51
4203.00,1.51
4202.00,1.51
4201.00,1.51
4200.00,1.51
4199.00,1.52
4198.00,1.52
4197.00,1.52
4196.00,1.52
4195.00,1.52
4194.00,1.52
4193.00,1.52
4192.00,1.52
4191.00,1.52
4190.00,1.52
4189.00,1.52
4188.00,1.52
4187.00,1.52
4186.00,1.52
4185.00,1.52
4184.00,1.52
4183.00,1.52
4182.00,1.52
4181.00,1.52
4180.00,1.52
4179.00,1.52
4178.00,1.52
4177.00,1.52
4176.00,1.53
4175.00,1.53
4174.00,1.53
4173.00,1.53
4172.00,1.53
4171.00,1.53
4170.00,1.53
4169.00,1.53
4168.00,1.53
4167.00,1.53
4166.00,1.53
4165.00,1.53
4164.00,1.53
4163.00,1.54
4162.00,1.54
4161.00,1.54
4160.00,1.54
4159.00,1.54
4158.00,1.54
4157.00,1.54
4156.00,1.54
4155.00,1.55
4154.00,1.55
4153.00,1.55
4152.00,1.55
4151.00,1.55
4150.00,1.55
4149.00,1.56
4148.00,1.56
4147.00,1.56
4146.00,1.56
4145.00,1.56
4144.00,1.57
4143.00,1.57
4142.00,1.57
4141.00,1.57
4140.00,1.57
4139.00,1.58
4138.00,1.58
4137.00,1.58
4136.00,1.58
4135.00,1.58
4134.00,1.58
4133.00,1.58
4132.00,1.58
4131.00,1.58
4130.00,1.58
4129.00,1.58
4128.00,1.58
4127.00,1.58
4126.00,1.58
4125.00,1.58
4124.00,1.58
4123.00,1.58
4122.00,1.58
4121.00,1.58
4120.00,1.58
4119.00,1.58
4118.00,1.58
4117.00,1.58
4116.00,1.58
4115.00,1.58
4114.00,1.58
4113.00,1.58
4112.00,1.58
4111.00,1.58
4110.00,1.58
4109.00,1.58
4108.00,1.59
4107.00,1.59
4106.00,1.59
4105.00,1.59
4104.00,1.59
4103.00,1.59
4102.00,1.59
4101.00,1.59
4100.00,1.59
4099.00,1.59
4098.00,1.59
4097.00,1.59
4096.00,1.59
4095.00,1.59
4094.00,1.59
4093.00,1.60
4092.00,1.60
4091.00,1.60
4090.00,1.60
4089.00,1.60
4088.00,1.60
4087.00,1.60
4086.00,1.61
4085.00,1.61
4084.00,1.61
4083.00,1.61
4082.00,1.61
4081.00,1.61
4080.00,1.61
4079.00,1.61
4078.00,1.61
4077.00,1.61
4076.00,1.62
4075.00,1.62
4074.00,1.62
4073.00,1.62
4072.00,1.62
4071.00,1.62
4070.00,1.62
4069.00,1.62
4068.00,1.63
4067.00,1.63
4066.00,1.63
4065.00,1.63
4064.00,1.63
4063.00,1.63
4062.00,1.64
4061.00,1.64
4060.00,1.64
4059.00,1.64
4058.00,1.64
4057.00,1.64
4056.00,1.64
4055.00,1.64
4054.00,1.65
4053.00,1.65
4052.00,1.65
4051.00,1.65
4050.00,1.65
4049.00,1.65
4048.00,1.65
4047.00,1.65
4046.00,1.65
4045.00,1.65
4044.00,1.65
4043.00,1.65
4042.00,1.65
4041.00,1.65
4040.00,1.65
4039.00,1.65
4038.00,1.65
4037.00,1.65
4036.00,1.65
4035.00,1.65
4034.00,1.65
4033.00,1.65
4032.00,1.65
4031.00,1.65
4030.00,1.65
4029.00,1.64
4028.00,1.64
4027.00,1.64
4026.00,1.64
4025.00,1.64
4024.00,1.64
4023.00,1.64
4022.00,1.64
4021.00,1.64
4020.00,1.64
4019.00,1.64
4018.00,1.64
4017.00,1.64
4016.00,1.64
4015.00,1.64
4014.00,1.64
4013.00,1.65
4012.00,1.65
4011.00,1.65
4010.00,1.65
4009.00,1.65
4008.00,1.66
4007.00,1.66
4006.00,1.66
4005.00,1.66
4004.00,1.66
4003.00,1.66
4002.00,1.66
4001.00,1.66
4000.00,1.66
