创建为新数据集,样品 198 用户 Administrator 日期 星期六, 七月 21 2018
cm-1,%T
10000.00,1.50
9999.00,1.50
9998.00,1.50
9997.00,1.50
9996.00,1.50
9995.00,1.50
9994.00,1.49
9993.00,1.49
9992.00,1.49
9991.00,1.49
9990.00,1.48
9989.00,1.48
9988.00,1.48
9987.00,1.47
9986.00,1.47
9985.00,1.47
9984.00,1.46
9983.00,1.46
9982.00,1.46
9981.00,1.46
9980.00,1.45
9979.00,1.45
9978.00,1.45
9977.00,1.45
9976.00,1.45
9975.00,1.45
9974.00,1.45
9973.00,1.44
9972.00,1.44
9971.00,1.44
9970.00,1.44
9969.00,1.44
9968.00,1.44
9967.00,1.44
9966.00,1.44
9965.00,1.44
9964.00,1.44
9963.00,1.45
9962.00,1.45
9961.00,1.45
9960.00,1.45
9959.00,1.45
9958.00,1.45
9957.00,1.45
9956.00,1.45
9955.00,1.45
9954.00,1.46
9953.00,1.46
9952.00,1.46
9951.00,1.46
9950.00,1.46
9949.00,1.46
9948.00,1.47
9947.00,1.47
9946.00,1.47
9945.00,1.47
9944.00,1.48
9943.00,1.48
9942.00,1.48
9941.00,1.48
9940.00,1.48
9939.00,1.49
9938.00,1.49
9937.00,1.49
9936.00,1.49
9935.00,1.50
9934.00,1.50
9933.00,1.50
9932.00,1.50
9931.00,1.50
9930.00,1.50
9929.00,1.50
9928.00,1.50
9927.00,1.50
9926.00,1.50
9925.00,1.50
9924.00,1.49
9923.00,1.49
9922.00,1.49
9921.00,1.49
9920.00,1.48
9919.00,1.48
9918.00,1.48
9917.00,1.48
9916.00,1.47
9915.00,1.47
9914.00,1.47
9913.00,1.47
9912.00,1.47
9911.00,1.47
9910.00,1.47
9909.00,1.47
9908.00,1.47
9907.00,1.47
9906.00,1.47
9905.00,1.47
9904.00,1.47
9903.00,1.47
9902.00,1.47
9901.00,1.47
9900.00,1.47
9899.00,1.47
9898.00,1.47
9897.00,1.47
9896.00,1.48
9895.00,1.48
9894.00,1.48
9893.00,1.48
9892.00,1.48
9891.00,1.48
9890.00,1.48
9889.00,1.48
9888.00,1.48
9887.00,1.48
9886.00,1.48
9885.00,1.48
9884.00,1.47
9883.00,1.47
9882.00,1.47
9881.00,1.47
9880.00,1.46
9879.00,1.46
9878.00,1.46
9877.00,1.45
9876.00,1.45
9875.00,1.45
9874.00,1.45
9873.00,1.45
9872.00,1.45
9871.00,1.45
9870.00,1.45
9869.00,1.45
9868.00,1.45
9867.00,1.45
9866.00,1.46
9865.00,1.46
9864.00,1.46
9863.00,1.46
9862.00,1.46
9861.00,1.46
9860.00,1.46
9859.00,1.46
9858.00,1.46
9857.00,1.46
9856.00,1.46
9855.00,1.46
9854.00,1.46
9853.00,1.46
9852.00,1.46
9851.00,1.45
9850.00,1.45
9849.00,1.45
9848.00,1.45
9847.00,1.45
9846.00,1.46
9845.00,1.46
9844.00,1.46
9843.00,1.46
9842.00,1.46
9841.00,1.46
9840.00,1.47
9839.00,1.47
9838.00,1.47
9837.00,1.47
9836.00,1.47
9835.00,1.48
9834.00,1.48
9833.00,1.48
9832.00,1.48
9831.00,1.48
9830.00,1.48
9829.00,1.48
9828.00,1.48
9827.00,1.48
9826.00,1.48
9825.00,1.48
9824.00,1.48
9823.00,1.48
9822.00,1.48
9821.00,1.48
9820.00,1.48
9819.00,1.48
9818.00,1.48
9817.00,1.49
9816.00,1.49
9815.00,1.49
9814.00,1.49
9813.00,1.49
9812.00,1.49
9811.00,1.49
9810.00,1.49
9809.00,1.49
9808.00,1.49
9807.00,1.49
9806.00,1.49
9805.00,1.49
9804.00,1.49
9803.00,1.49
9802.00,1.49
9801.00,1.49
9800.00,1.49
9799.00,1.49
9798.00,1.49
9797.00,1.49
9796.00,1.49
9795.00,1.49
9794.00,1.48
9793.00,1.48
9792.00,1.48
9791.00,1.48
9790.00,1.48
9789.00,1.47
9788.00,1.47
9787.00,1.47
9786.00,1.47
9785.00,1.46
9784.00,1.46
9783.00,1.46
9782.00,1.45
9781.00,1.45
9780.00,1.45
9779.00,1.44
9778.00,1.44
9777.00,1.44
9776.00,1.44
9775.00,1.44
9774.00,1.44
9773.00,1.44
9772.00,1.44
9771.00,1.44
9770.00,1.44
9769.00,1.44
9768.00,1.44
9767.00,1.45
9766.00,1.45
9765.00,1.45
9764.00,1.46
9763.00,1.46
9762.00,1.46
9761.00,1.47
9760.00,1.47
9759.00,1.47
9758.00,1.48
9757.00,1.48
9756.00,1.48
9755.00,1.48
9754.00,1.48
9753.00,1.48
9752.00,1.49
9751.00,1.49
9750.00,1.49
9749.00,1.49
9748.00,1.49
9747.00,1.49
9746.00,1.49
9745.00,1.49
9744.00,1.49
9743.00,1.49
9742.00,1.49
9741.00,1.48
9740.00,1.48
9739.00,1.48
9738.00,1.48
9737.00,1.48
9736.00,1.48
9735.00,1.48
9734.00,1.47
9733.00,1.47
9732.00,1.47
9731.00,1.47
9730.00,1.47
9729.00,1.47
9728.00,1.47
9727.00,1.47
9726.00,1.47
9725.00,1.47
9724.00,1.47
9723.00,1.47
9722.00,1.47
9721.00,1.47
9720.00,1.47
9719.00,1.47
9718.00,1.47
9717.00,1.47
9716.00,1.47
9715.00,1.47
9714.00,1.46
9713.00,1.46
9712.00,1.46
9711.00,1.46
9710.00,1.46
9709.00,1.46
9708.00,1.46
9707.00,1.46
9706.00,1.46
9705.00,1.46
9704.00,1.46
9703.00,1.46
9702.00,1.46
9701.00,1.46
9700.00,1.46
9699.00,1.46
9698.00,1.46
9697.00,1.46
9696.00,1.46
9695.00,1.46
9694.00,1.46
9693.00,1.46
9692.00,1.46
9691.00,1.46
9690.00,1.46
9689.00,1.46
9688.00,1.46
9687.00,1.46
9686.00,1.47
9685.00,1.47
9684.00,1.47
9683.00,1.47
9682.00,1.47
9681.00,1.47
9680.00,1.47
9679.00,1.47
9678.00,1.47
9677.00,1.47
9676.00,1.47
9675.00,1.47
9674.00,1.47
9673.00,1.47
9672.00,1.48
9671.00,1.48
9670.00,1.48
9669.00,1.48
9668.00,1.48
9667.00,1.49
9666.00,1.49
9665.00,1.49
9664.00,1.49
9663.00,1.50
9662.00,1.50
9661.00,1.50
9660.00,1.50
9659.00,1.50
9658.00,1.50
9657.00,1.50
9656.00,1.50
9655.00,1.50
9654.00,1.50
9653.00,1.49
9652.00,1.49
9651.00,1.49
9650.00,1.49
9649.00,1.49
9648.00,1.48
9647.00,1.48
9646.00,1.48
9645.00,1.48
9644.00,1.48
9643.00,1.48
9642.00,1.48
9641.00,1.47
9640.00,1.47
9639.00,1.47
9638.00,1.47
9637.00,1.47
9636.00,1.47
9635.00,1.47
9634.00,1.47
9633.00,1.47
9632.00,1.47
9631.00,1.47
9630.00,1.47
9629.00,1.47
9628.00,1.47
9627.00,1.47
9626.00,1.47
9625.00,1.47
9624.00,1.47
9623.00,1.47
9622.00,1.47
9621.00,1.47
9620.00,1.47
9619.00,1.47
9618.00,1.47
9617.00,1.47
9616.00,1.46
9615.00,1.46
9614.00,1.46
9613.00,1.46
9612.00,1.46
9611.00,1.46
9610.00,1.46
9609.00,1.46
9608.00,1.46
9607.00,1.45
9606.00,1.45
9605.00,1.45
9604.00,1.45
9603.00,1.45
9602.00,1.45
9601.00,1.45
9600.00,1.45
9599.00,1.45
9598.00,1.45
9597.00,1.45
9596.00,1.44
9595.00,1.44
9594.00,1.44
9593.00,1.44
9592.00,1.44
9591.00,1.44
9590.00,1.44
9589.00,1.44
9588.00,1.44
9587.00,1.44
9586.00,1.44
9585.00,1.44
9584.00,1.44
9583.00,1.44
9582.00,1.44
9581.00,1.44
9580.00,1.44
9579.00,1.44
9578.00,1.44
9577.00,1.44
9576.00,1.44
9575.00,1.44
9574.00,1.44
9573.00,1.44
9572.00,1.44
9571.00,1.44
9570.00,1.44
9569.00,1.45
9568.00,1.45
9567.00,1.45
9566.00,1.45
9565.00,1.45
9564.00,1.46
9563.00,1.46
9562.00,1.46
9561.00,1.46
9560.00,1.46
9559.00,1.47
9558.00,1.47
9557.00,1.47
9556.00,1.47
9555.00,1.47
9554.00,1.47
9553.00,1.47
9552.00,1.47
9551.00,1.48
9550.00,1.47
9549.00,1.47
9548.00,1.47
9547.00,1.47
9546.00,1.47
9545.00,1.47
9544.00,1.47
9543.00,1.47
9542.00,1.47
9541.00,1.46
9540.00,1.46
9539.00,1.46
9538.00,1.46
9537.00,1.46
9536.00,1.46
9535.00,1.46
9534.00,1.46
9533.00,1.46
9532.00,1.46
9531.00,1.46
9530.00,1.46
9529.00,1.46
9528.00,1.47
9527.00,1.47
9526.00,1.47
9525.00,1.48
9524.00,1.48
9523.00,1.48
9522.00,1.48
9521.00,1.49
9520.00,1.49
9519.00,1.49
9518.00,1.49
9517.00,1.49
9516.00,1.49
9515.00,1.49
9514.00,1.49
9513.00,1.49
9512.00,1.49
9511.00,1.49
9510.00,1.48
9509.00,1.48
9508.00,1.48
9507.00,1.48
9506.00,1.48
9505.00,1.48
9504.00,1.48
9503.00,1.48
9502.00,1.48
9501.00,1.48
9500.00,1.48
9499.00,1.48
9498.00,1.47
9497.00,1.47
9496.00,1.47
9495.00,1.47
9494.00,1.47
9493.00,1.47
9492.00,1.47
9491.00,1.47
9490.00,1.47
9489.00,1.47
9488.00,1.46
9487.00,1.46
9486.00,1.46
9485.00,1.46
9484.00,1.46
9483.00,1.46
9482.00,1.46
9481.00,1.46
9480.00,1.46
9479.00,1.46
9478.00,1.45
9477.00,1.45
9476.00,1.45
9475.00,1.45
9474.00,1.45
9473.00,1.45
9472.00,1.45
9471.00,1.45
9470.00,1.45
9469.00,1.45
9468.00,1.45
9467.00,1.45
9466.00,1.45
9465.00,1.45
9464.00,1.45
9463.00,1.45
9462.00,1.45
9461.00,1.45
9460.00,1.45
9459.00,1.46
9458.00,1.46
9457.00,1.46
9456.00,1.46
9455.00,1.46
9454.00,1.46
9453.00,1.46
9452.00,1.46
9451.00,1.47
9450.00,1.47
9449.00,1.47
9448.00,1.47
9447.00,1.47
9446.00,1.47
9445.00,1.47
9444.00,1.47
9443.00,1.48
9442.00,1.48
9441.00,1.48
9440.00,1.48
9439.00,1.48
9438.00,1.48
9437.00,1.48
9436.00,1.48
9435.00,1.48
9434.00,1.48
9433.00,1.48
9432.00,1.48
9431.00,1.48
9430.00,1.48
9429.00,1.48
9428.00,1.48
9427.00,1.48
9426.00,1.48
9425.00,1.48
9424.00,1.48
9423.00,1.48
9422.00,1.47
9421.00,1.47
9420.00,1.47
9419.00,1.47
9418.00,1.46
9417.00,1.46
9416.00,1.46
9415.00,1.46
9414.00,1.45
9413.00,1.45
9412.00,1.45
9411.00,1.45
9410.00,1.45
9409.00,1.45
9408.00,1.45
9407.00,1.45
9406.00,1.45
9405.00,1.44
9404.00,1.44
9403.00,1.44
9402.00,1.45
9401.00,1.45
9400.00,1.45
9399.00,1.45
9398.00,1.45
9397.00,1.45
9396.00,1.45
9395.00,1.45
9394.00,1.46
9393.00,1.46
9392.00,1.46
9391.00,1.47
9390.00,1.47
9389.00,1.47
9388.00,1.47
9387.00,1.47
9386.00,1.48
9385.00,1.48
9384.00,1.48
9383.00,1.48
9382.00,1.48
9381.00,1.48
9380.00,1.48
9379.00,1.48
9378.00,1.48
9377.00,1.48
9376.00,1.48
9375.00,1.48
9374.00,1.48
9373.00,1.48
9372.00,1.48
9371.00,1.48
9370.00,1.47
9369.00,1.47
9368.00,1.47
9367.00,1.47
9366.00,1.47
9365.00,1.47
9364.00,1.47
9363.00,1.47
9362.00,1.47
9361.00,1.47
9360.00,1.47
9359.00,1.47
9358.00,1.47
9357.00,1.47
9356.00,1.47
9355.00,1.47
9354.00,1.46
9353.00,1.46
9352.00,1.46
9351.00,1.46
9350.00,1.46
9349.00,1.46
9348.00,1.46
9347.00,1.46
9346.00,1.46
9345.00,1.46
9344.00,1.47
9343.00,1.47
9342.00,1.47
9341.00,1.47
9340.00,1.47
9339.00,1.47
9338.00,1.47
9337.00,1.48
9336.00,1.48
9335.00,1.48
9334.00,1.48
9333.00,1.48
9332.00,1.48
9331.00,1.48
9330.00,1.48
9329.00,1.47
9328.00,1.47
9327.00,1.47
9326.00,1.47
9325.00,1.47
9324.00,1.46
9323.00,1.46
9322.00,1.46
9321.00,1.46
9320.00,1.46
9319.00,1.46
9318.00,1.46
9317.00,1.46
9316.00,1.46
9315.00,1.46
9314.00,1.46
9313.00,1.46
9312.00,1.46
9311.00,1.46
9310.00,1.46
9309.00,1.47
9308.00,1.47
9307.00,1.47
9306.00,1.47
9305.00,1.47
9304.00,1.47
9303.00,1.47
9302.00,1.47
9301.00,1.47
9300.00,1.47
9299.00,1.47
9298.00,1.47
9297.00,1.47
9296.00,1.47
9295.00,1.47
9294.00,1.47
9293.00,1.47
9292.00,1.47
9291.00,1.47
9290.00,1.47
9289.00,1.47
9288.00,1.47
9287.00,1.47
9286.00,1.47
9285.00,1.47
9284.00,1.47
9283.00,1.47
9282.00,1.46
9281.00,1.46
9280.00,1.46
9279.00,1.46
9278.00,1.46
9277.00,1.47
9276.00,1.47
9275.00,1.47
9274.00,1.47
9273.00,1.47
9272.00,1.47
9271.00,1.48
9270.00,1.48
9269.00,1.48
9268.00,1.49
9267.00,1.49
9266.00,1.49
9265.00,1.49
9264.00,1.50
9263.00,1.50
9262.00,1.50
9261.00,1.50
9260.00,1.50
9259.00,1.50
9258.00,1.50
9257.00,1.50
9256.00,1.50
9255.00,1.50
9254.00,1.50
9253.00,1.49
9252.00,1.49
9251.00,1.49
9250.00,1.49
9249.00,1.48
9248.00,1.48
9247.00,1.48
9246.00,1.48
9245.00,1.47
9244.00,1.47
9243.00,1.47
9242.00,1.47
9241.00,1.47
9240.00,1.46
9239.00,1.46
9238.00,1.46
9237.00,1.46
9236.00,1.46
9235.00,1.46
9234.00,1.46
9233.00,1.45
9232.00,1.45
9231.00,1.45
9230.00,1.45
9229.00,1.45
9228.00,1.45
9227.00,1.45
9226.00,1.45
9225.00,1.45
9224.00,1.44
9223.00,1.44
9222.00,1.44
9221.00,1.44
9220.00,1.44
9219.00,1.44
9218.00,1.44
9217.00,1.44
9216.00,1.44
9215.00,1.44
9214.00,1.44
9213.00,1.44
9212.00,1.44
9211.00,1.44
9210.00,1.44
9209.00,1.45
9208.00,1.45
9207.00,1.45
9206.00,1.45
9205.00,1.45
9204.00,1.46
9203.00,1.46
9202.00,1.46
9201.00,1.46
9200.00,1.47
9199.00,1.47
9198.00,1.47
9197.00,1.47
9196.00,1.47
9195.00,1.47
9194.00,1.47
9193.00,1.47
9192.00,1.47
9191.00,1.47
9190.00,1.47
9189.00,1.47
9188.00,1.47
9187.00,1.47
9186.00,1.47
9185.00,1.47
9184.00,1.46
9183.00,1.46
9182.00,1.46
9181.00,1.46
9180.00,1.46
9179.00,1.46
9178.00,1.46
9177.00,1.46
9176.00,1.46
9175.00,1.46
9174.00,1.46
9173.00,1.46
9172.00,1.47
9171.00,1.47
9170.00,1.47
9169.00,1.47
9168.00,1.47
9167.00,1.47
9166.00,1.47
9165.00,1.47
9164.00,1.47
9163.00,1.47
9162.00,1.47
9161.00,1.47
9160.00,1.47
9159.00,1.47
9158.00,1.47
9157.00,1.47
9156.00,1.48
9155.00,1.48
9154.00,1.48
9153.00,1.48
9152.00,1.48
9151.00,1.48
9150.00,1.48
9149.00,1.48
9148.00,1.49
9147.00,1.49
9146.00,1.49
9145.00,1.49
9144.00,1.49
9143.00,1.49
9142.00,1.49
9141.00,1.49
9140.00,1.49
9139.00,1.49
9138.00,1.49
9137.00,1.49
9136.00,1.49
9135.00,1.49
9134.00,1.49
9133.00,1.49
9132.00,1.49
9131.00,1.48
9130.00,1.48
9129.00,1.48
9128.00,1.48
9127.00,1.48
9126.00,1.48
9125.00,1.48
9124.00,1.48
9123.00,1.48
9122.00,1.48
9121.00,1.48
9120.00,1.48
9119.00,1.48
9118.00,1.48
9117.00,1.48
9116.00,1.48
9115.00,1.48
9114.00,1.49
9113.00,1.49
9112.00,1.49
9111.00,1.49
9110.00,1.49
9109.00,1.49
9108.00,1.49
9107.00,1.50
9106.00,1.50
9105.00,1.50
9104.00,1.50
9103.00,1.50
9102.00,1.50
9101.00,1.50
9100.00,1.50
9099.00,1.50
9098.00,1.50
9097.00,1.50
9096.00,1.50
9095.00,1.50
9094.00,1.50
9093.00,1.50
9092.00,1.50
9091.00,1.50
9090.00,1.50
9089.00,1.50
9088.00,1.50
9087.00,1.50
9086.00,1.50
9085.00,1.50
9084.00,1.50
9083.00,1.50
9082.00,1.50
9081.00,1.50
9080.00,1.50
9079.00,1.50
9078.00,1.50
9077.00,1.49
9076.00,1.49
9075.00,1.49
9074.00,1.49
9073.00,1.49
9072.00,1.49
9071.00,1.49
9070.00,1.49
9069.00,1.49
9068.00,1.49
9067.00,1.49
9066.00,1.49
9065.00,1.49
9064.00,1.49
9063.00,1.49
9062.00,1.49
9061.00,1.49
9060.00,1.49
9059.00,1.49
9058.00,1.49
9057.00,1.49
9056.00,1.49
9055.00,1.49
9054.00,1.49
9053.00,1.49
9052.00,1.49
9051.00,1.49
9050.00,1.49
9049.00,1.49
9048.00,1.49
9047.00,1.49
9046.00,1.49
9045.00,1.49
9044.00,1.49
9043.00,1.49
9042.00,1.49
9041.00,1.49
9040.00,1.48
9039.00,1.48
9038.00,1.48
9037.00,1.48
9036.00,1.48
9035.00,1.47
9034.00,1.47
9033.00,1.47
9032.00,1.47
9031.00,1.47
9030.00,1.47
9029.00,1.46
9028.00,1.46
9027.00,1.46
9026.00,1.46
9025.00,1.46
9024.00,1.46
9023.00,1.46
9022.00,1.46
9021.00,1.46
9020.00,1.46
9019.00,1.46
9018.00,1.46
9017.00,1.47
9016.00,1.47
9015.00,1.47
9014.00,1.47
9013.00,1.47
9012.00,1.47
9011.00,1.47
9010.00,1.47
9009.00,1.47
9008.00,1.48
9007.00,1.48
9006.00,1.48
9005.00,1.48
9004.00,1.48
9003.00,1.49
9002.00,1.49
9001.00,1.49
9000.00,1.49
8999.00,1.49
8998.00,1.50
8997.00,1.50
8996.00,1.50
8995.00,1.50
8994.00,1.50
8993.00,1.50
8992.00,1.50
8991.00,1.50
8990.00,1.50
8989.00,1.50
8988.00,1.50
8987.00,1.50
8986.00,1.49
8985.00,1.49
8984.00,1.49
8983.00,1.49
8982.00,1.48
8981.00,1.48
8980.00,1.48
8979.00,1.48
8978.00,1.47
8977.00,1.47
8976.00,1.47
8975.00,1.47
8974.00,1.47
8973.00,1.47
8972.00,1.46
8971.00,1.46
8970.00,1.46
8969.00,1.46
8968.00,1.46
8967.00,1.47
8966.00,1.47
8965.00,1.47
8964.00,1.47
8963.00,1.47
8962.00,1.47
8961.00,1.47
8960.00,1.48
8959.00,1.48
8958.00,1.48
8957.00,1.48
8956.00,1.48
8955.00,1.49
8954.00,1.49
8953.00,1.49
8952.00,1.49
8951.00,1.49
8950.00,1.49
8949.00,1.49
8948.00,1.49
8947.00,1.49
8946.00,1.49
8945.00,1.49
8944.00,1.49
8943.00,1.49
8942.00,1.49
8941.00,1.49
8940.00,1.49
8939.00,1.49
8938.00,1.49
8937.00,1.49
8936.00,1.49
8935.00,1.49
8934.00,1.49
8933.00,1.49
8932.00,1.49
8931.00,1.49
8930.00,1.49
8929.00,1.48
8928.00,1.48
8927.00,1.48
8926.00,1.48
8925.00,1.48
8924.00,1.48
8923.00,1.48
8922.00,1.48
8921.00,1.48
8920.00,1.48
8919.00,1.48
8918.00,1.48
8917.00,1.48
8916.00,1.48
8915.00,1.48
8914.00,1.48
8913.00,1.48
8912.00,1.48
8911.00,1.47
8910.00,1.47
8909.00,1.47
8908.00,1.47
8907.00,1.47
8906.00,1.47
8905.00,1.47
8904.00,1.47
8903.00,1.48
8902.00,1.48
8901.00,1.48
8900.00,1.48
8899.00,1.48
8898.00,1.48
8897.00,1.48
8896.00,1.48
8895.00,1.48
8894.00,1.48
8893.00,1.48
8892.00,1.48
8891.00,1.49
8890.00,1.49
8889.00,1.49
8888.00,1.49
8887.00,1.49
8886.00,1.49
8885.00,1.49
8884.00,1.49
8883.00,1.49
8882.00,1.49
8881.00,1.49
8880.00,1.49
8879.00,1.49
8878.00,1.49
8877.00,1.49
8876.00,1.49
8875.00,1.49
8874.00,1.49
8873.00,1.49
8872.00,1.49
8871.00,1.49
8870.00,1.49
8869.00,1.49
8868.00,1.49
8867.00,1.49
8866.00,1.49
8865.00,1.49
8864.00,1.49
8863.00,1.49
8862.00,1.49
8861.00,1.49
8860.00,1.49
8859.00,1.49
8858.00,1.49
8857.00,1.50
8856.00,1.50
8855.00,1.50
8854.00,1.50
8853.00,1.50
8852.00,1.50
8851.00,1.50
8850.00,1.50
8849.00,1.50
8848.00,1.50
8847.00,1.50
8846.00,1.50
8845.00,1.50
8844.00,1.50
8843.00,1.50
8842.00,1.50
8841.00,1.49
8840.00,1.49
8839.00,1.49
8838.00,1.49
8837.00,1.49
8836.00,1.49
8835.00,1.49
8834.00,1.49
8833.00,1.49
8832.00,1.49
8831.00,1.49
8830.00,1.49
8829.00,1.48
8828.00,1.48
8827.00,1.48
8826.00,1.48
8825.00,1.48
8824.00,1.48
8823.00,1.48
8822.00,1.48
8821.00,1.48
8820.00,1.47
8819.00,1.47
8818.00,1.47
8817.00,1.47
8816.00,1.47
8815.00,1.47
8814.00,1.47
8813.00,1.46
8812.00,1.46
8811.00,1.46
8810.00,1.46
8809.00,1.46
8808.00,1.46
8807.00,1.46
8806.00,1.46
8805.00,1.46
8804.00,1.45
8803.00,1.45
8802.00,1.45
8801.00,1.46
8800.00,1.46
8799.00,1.46
8798.00,1.46
8797.00,1.46
8796.00,1.46
8795.00,1.46
8794.00,1.46
8793.00,1.46
8792.00,1.46
8791.00,1.45
8790.00,1.45
8789.00,1.45
8788.00,1.45
8787.00,1.45
8786.00,1.45
8785.00,1.45
8784.00,1.45
8783.00,1.45
8782.00,1.45
8781.00,1.45
8780.00,1.44
8779.00,1.44
8778.00,1.44
8777.00,1.44
8776.00,1.44
8775.00,1.44
8774.00,1.44
8773.00,1.44
8772.00,1.45
8771.00,1.45
8770.00,1.45
8769.00,1.45
8768.00,1.45
8767.00,1.45
8766.00,1.45
8765.00,1.45
8764.00,1.45
8763.00,1.45
8762.00,1.45
8761.00,1.45
8760.00,1.45
8759.00,1.45
8758.00,1.45
8757.00,1.44
8756.00,1.44
8755.00,1.44
8754.00,1.44
8753.00,1.44
8752.00,1.43
8751.00,1.43
8750.00,1.43
8749.00,1.43
8748.00,1.42
8747.00,1.42
8746.00,1.42
8745.00,1.42
8744.00,1.42
8743.00,1.41
8742.00,1.41
8741.00,1.41
8740.00,1.41
8739.00,1.41
8738.00,1.41
8737.00,1.41
8736.00,1.41
8735.00,1.42
8734.00,1.42
8733.00,1.42
8732.00,1.42
8731.00,1.42
8730.00,1.42
8729.00,1.43
8728.00,1.43
8727.00,1.43
8726.00,1.43
8725.00,1.43
8724.00,1.43
8723.00,1.43
8722.00,1.43
8721.00,1.43
8720.00,1.43
8719.00,1.43
8718.00,1.43
8717.00,1.43
8716.00,1.43
8715.00,1.43
8714.00,1.43
8713.00,1.42
8712.00,1.42
8711.00,1.42
8710.00,1.42
8709.00,1.42
8708.00,1.42
8707.00,1.42
8706.00,1.41
8705.00,1.41
8704.00,1.41
8703.00,1.41
8702.00,1.41
8701.00,1.41
8700.00,1.41
8699.00,1.40
8698.00,1.40
8697.00,1.40
8696.00,1.40
8695.00,1.40
8694.00,1.40
8693.00,1.40
8692.00,1.40
8691.00,1.40
8690.00,1.39
8689.00,1.39
8688.00,1.40
8687.00,1.40
8686.00,1.40
8685.00,1.40
8684.00,1.40
8683.00,1.40
8682.00,1.40
8681.00,1.40
8680.00,1.40
8679.00,1.40
8678.00,1.40
8677.00,1.40
8676.00,1.40
8675.00,1.40
8674.00,1.40
8673.00,1.40
8672.00,1.40
8671.00,1.40
8670.00,1.40
8669.00,1.40
8668.00,1.40
8667.00,1.40
8666.00,1.40
8665.00,1.40
8664.00,1.40
8663.00,1.40
8662.00,1.39
8661.00,1.39
8660.00,1.39
8659.00,1.39
8658.00,1.39
8657.00,1.39
8656.00,1.39
8655.00,1.39
8654.00,1.38
8653.00,1.38
8652.00,1.38
8651.00,1.38
8650.00,1.38
8649.00,1.38
8648.00,1.38
8647.00,1.38
8646.00,1.38
8645.00,1.38
8644.00,1.37
8643.00,1.37
8642.00,1.37
8641.00,1.37
8640.00,1.37
8639.00,1.37
8638.00,1.37
8637.00,1.37
8636.00,1.37
8635.00,1.37
8634.00,1.37
8633.00,1.37
8632.00,1.38
8631.00,1.38
8630.00,1.38
8629.00,1.38
8628.00,1.38
8627.00,1.38
8626.00,1.38
8625.00,1.38
8624.00,1.37
8623.00,1.37
8622.00,1.37
8621.00,1.37
8620.00,1.37
8619.00,1.37
8618.00,1.37
8617.00,1.37
8616.00,1.37
8615.00,1.36
8614.00,1.36
8613.00,1.36
8612.00,1.36
8611.00,1.36
8610.00,1.36
8609.00,1.36
8608.00,1.36
8607.00,1.36
8606.00,1.36
8605.00,1.36
8604.00,1.37
8603.00,1.37
8602.00,1.37
8601.00,1.37
8600.00,1.37
8599.00,1.37
8598.00,1.37
8597.00,1.37
8596.00,1.37
8595.00,1.37
8594.00,1.37
8593.00,1.37
8592.00,1.37
8591.00,1.37
8590.00,1.37
8589.00,1.36
8588.00,1.36
8587.00,1.36
8586.00,1.36
8585.00,1.36
8584.00,1.35
8583.00,1.35
8582.00,1.35
8581.00,1.35
8580.00,1.35
8579.00,1.35
8578.00,1.35
8577.00,1.35
8576.00,1.35
8575.00,1.35
8574.00,1.35
8573.00,1.35
8572.00,1.35
8571.00,1.35
8570.00,1.35
8569.00,1.35
8568.00,1.35
8567.00,1.35
8566.00,1.35
8565.00,1.35
8564.00,1.35
8563.00,1.35
8562.00,1.35
8561.00,1.35
8560.00,1.35
8559.00,1.35
8558.00,1.35
8557.00,1.35
8556.00,1.35
8555.00,1.35
8554.00,1.36
8553.00,1.36
8552.00,1.36
8551.00,1.36
8550.00,1.36
8549.00,1.36
8548.00,1.36
8547.00,1.36
8546.00,1.36
8545.00,1.36
8544.00,1.36
8543.00,1.36
8542.00,1.36
8541.00,1.36
8540.00,1.36
8539.00,1.36
8538.00,1.36
8537.00,1.36
8536.00,1.36
8535.00,1.36
8534.00,1.36
8533.00,1.36
8532.00,1.36
8531.00,1.36
8530.00,1.35
8529.00,1.35
8528.00,1.35
8527.00,1.35
8526.00,1.35
8525.00,1.35
8524.00,1.35
8523.00,1.34
8522.00,1.34
8521.00,1.34
8520.00,1.34
8519.00,1.34
8518.00,1.34
8517.00,1.33
8516.00,1.33
8515.00,1.33
8514.00,1.33
8513.00,1.33
8512.00,1.33
8511.00,1.33
8510.00,1.32
8509.00,1.32
8508.00,1.32
8507.00,1.32
8506.00,1.32
8505.00,1.32
8504.00,1.32
8503.00,1.32
8502.00,1.32
8501.00,1.32
8500.00,1.32
8499.00,1.33
8498.00,1.33
8497.00,1.33
8496.00,1.33
8495.00,1.33
8494.00,1.33
8493.00,1.33
8492.00,1.33
8491.00,1.33
8490.00,1.33
8489.00,1.33
8488.00,1.33
8487.00,1.33
8486.00,1.33
8485.00,1.33
8484.00,1.33
8483.00,1.33
8482.00,1.33
8481.00,1.32
8480.00,1.32
8479.00,1.32
8478.00,1.32
8477.00,1.31
8476.00,1.31
8475.00,1.31
8474.00,1.31
8473.00,1.30
8472.00,1.30
8471.00,1.30
8470.00,1.30
8469.00,1.30
8468.00,1.29
8467.00,1.29
8466.00,1.29
8465.00,1.29
8464.00,1.29
8463.00,1.29
8462.00,1.29
8461.00,1.29
8460.00,1.28
8459.00,1.28
8458.00,1.28
8457.00,1.28
8456.00,1.28
8455.00,1.28
8454.00,1.28
8453.00,1.28
8452.00,1.28
8451.00,1.28
8450.00,1.28
8449.00,1.28
8448.00,1.28
8447.00,1.28
8446.00,1.28
8445.00,1.28
8444.00,1.28
8443.00,1.29
8442.00,1.29
8441.00,1.29
8440.00,1.29
8439.00,1.29
8438.00,1.29
8437.00,1.29
8436.00,1.29
8435.00,1.29
8434.00,1.29
8433.00,1.29
8432.00,1.29
8431.00,1.29
8430.00,1.29
8429.00,1.30
8428.00,1.30
8427.00,1.30
8426.00,1.30
8425.00,1.30
8424.00,1.30
8423.00,1.30
8422.00,1.30
8421.00,1.30
8420.00,1.30
8419.00,1.30
8418.00,1.31
8417.00,1.31
8416.00,1.31
8415.00,1.31
8414.00,1.31
8413.00,1.31
8412.00,1.31
8411.00,1.31
8410.00,1.31
8409.00,1.31
8408.00,1.32
8407.00,1.32
8406.00,1.32
8405.00,1.32
8404.00,1.32
8403.00,1.32
8402.00,1.32
8401.00,1.32
8400.00,1.32
8399.00,1.32
8398.00,1.32
8397.00,1.32
8396.00,1.32
8395.00,1.32
8394.00,1.32
8393.00,1.32
8392.00,1.32
8391.00,1.32
8390.00,1.32
8389.00,1.32
8388.00,1.32
8387.00,1.32
8386.00,1.32
8385.00,1.32
8384.00,1.32
8383.00,1.32
8382.00,1.32
8381.00,1.32
8380.00,1.32
8379.00,1.32
8378.00,1.32
8377.00,1.32
8376.00,1.32
8375.00,1.32
8374.00,1.32
8373.00,1.32
8372.00,1.32
8371.00,1.32
8370.00,1.32
8369.00,1.32
8368.00,1.32
8367.00,1.32
8366.00,1.32
8365.00,1.32
8364.00,1.32
8363.00,1.32
8362.00,1.32
8361.00,1.32
8360.00,1.32
8359.00,1.32
8358.00,1.33
8357.00,1.33
8356.00,1.33
8355.00,1.33
8354.00,1.33
8353.00,1.33
8352.00,1.34
8351.00,1.34
8350.00,1.34
8349.00,1.34
8348.00,1.34
8347.00,1.34
8346.00,1.34
8345.00,1.35
8344.00,1.35
8343.00,1.35
8342.00,1.35
8341.00,1.35
8340.00,1.35
8339.00,1.35
8338.00,1.35
8337.00,1.35
8336.00,1.35
8335.00,1.35
8334.00,1.35
8333.00,1.35
8332.00,1.35
8331.00,1.35
8330.00,1.35
8329.00,1.35
8328.00,1.35
8327.00,1.34
8326.00,1.34
8325.00,1.34
8324.00,1.34
8323.00,1.34
8322.00,1.34
8321.00,1.34
8320.00,1.34
8319.00,1.34
8318.00,1.34
8317.00,1.34
8316.00,1.34
8315.00,1.34
8314.00,1.34
8313.00,1.34
8312.00,1.34
8311.00,1.34
8310.00,1.35
8309.00,1.35
8308.00,1.35
8307.00,1.35
8306.00,1.35
8305.00,1.35
8304.00,1.35
8303.00,1.35
8302.00,1.36
8301.00,1.36
8300.00,1.36
8299.00,1.36
8298.00,1.36
8297.00,1.36
8296.00,1.36
8295.00,1.36
8294.00,1.36
8293.00,1.36
8292.00,1.36
8291.00,1.36
8290.00,1.36
8289.00,1.36
8288.00,1.36
8287.00,1.36
8286.00,1.36
8285.00,1.36
8284.00,1.36
8283.00,1.37
8282.00,1.37
8281.00,1.37
8280.00,1.37
8279.00,1.37
8278.00,1.37
8277.00,1.37
8276.00,1.37
8275.00,1.38
8274.00,1.38
8273.00,1.38
8272.00,1.38
8271.00,1.38
8270.00,1.38
8269.00,1.38
8268.00,1.38
8267.00,1.37
8266.00,1.37
8265.00,1.37
8264.00,1.37
8263.00,1.37
8262.00,1.37
8261.00,1.37
8260.00,1.36
8259.00,1.36
8258.00,1.36
8257.00,1.36
8256.00,1.36
8255.00,1.36
8254.00,1.36
8253.00,1.35
8252.00,1.35
8251.00,1.35
8250.00,1.35
8249.00,1.35
8248.00,1.35
8247.00,1.35
8246.00,1.35
8245.00,1.35
8244.00,1.35
8243.00,1.35
8242.00,1.36
8241.00,1.36
8240.00,1.36
8239.00,1.36
8238.00,1.36
8237.00,1.36
8236.00,1.36
8235.00,1.37
8234.00,1.37
8233.00,1.37
8232.00,1.37
8231.00,1.37
8230.00,1.37
8229.00,1.37
8228.00,1.37
8227.00,1.37
8226.00,1.37
8225.00,1.38
8224.00,1.38
8223.00,1.38
8222.00,1.38
8221.00,1.38
8220.00,1.38
8219.00,1.38
8218.00,1.38
8217.00,1.38
8216.00,1.38
8215.00,1.38
8214.00,1.38
8213.00,1.38
8212.00,1.38
8211.00,1.38
8210.00,1.38
8209.00,1.38
8208.00,1.38
8207.00,1.38
8206.00,1.38
8205.00,1.38
8204.00,1.38
8203.00,1.38
8202.00,1.38
8201.00,1.38
8200.00,1.38
8199.00,1.38
8198.00,1.39
8197.00,1.39
8196.00,1.39
8195.00,1.39
8194.00,1.39
8193.00,1.39
8192.00,1.39
8191.00,1.39
8190.00,1.39
8189.00,1.39
8188.00,1.39
8187.00,1.39
8186.00,1.39
8185.00,1.39
8184.00,1.39
8183.00,1.39
8182.00,1.39
8181.00,1.38
8180.00,1.38
8179.00,1.38
8178.00,1.38
8177.00,1.38
8176.00,1.38
8175.00,1.38
8174.00,1.38
8173.00,1.38
8172.00,1.38
8171.00,1.38
8170.00,1.39
8169.00,1.39
8168.00,1.39
8167.00,1.39
8166.00,1.39
8165.00,1.39
8164.00,1.39
8163.00,1.40
8162.00,1.40
8161.00,1.40
8160.00,1.40
8159.00,1.40
8158.00,1.40
8157.00,1.40
8156.00,1.41
8155.00,1.41
8154.00,1.41
8153.00,1.41
8152.00,1.41
8151.00,1.41
8150.00,1.41
8149.00,1.41
8148.00,1.41
8147.00,1.41
8146.00,1.41
8145.00,1.41
8144.00,1.41
8143.00,1.41
8142.00,1.41
8141.00,1.41
8140.00,1.41
8139.00,1.41
8138.00,1.41
8137.00,1.41
8136.00,1.41
8135.00,1.41
8134.00,1.41
8133.00,1.41
8132.00,1.41
8131.00,1.41
8130.00,1.41
8129.00,1.41
8128.00,1.41
8127.00,1.41
8126.00,1.41
8125.00,1.41
8124.00,1.41
8123.00,1.41
8122.00,1.41
8121.00,1.41
8120.00,1.41
8119.00,1.41
8118.00,1.41
8117.00,1.41
8116.00,1.41
8115.00,1.41
8114.00,1.42
8113.00,1.42
8112.00,1.42
8111.00,1.42
8110.00,1.42
8109.00,1.42
8108.00,1.42
8107.00,1.42
8106.00,1.42
8105.00,1.42
8104.00,1.42
8103.00,1.42
8102.00,1.42
8101.00,1.42
8100.00,1.42
8099.00,1.42
8098.00,1.42
8097.00,1.42
8096.00,1.43
8095.00,1.43
8094.00,1.43
8093.00,1.43
8092.00,1.43
8091.00,1.43
8090.00,1.43
8089.00,1.43
8088.00,1.43
8087.00,1.43
8086.00,1.43
8085.00,1.43
8084.00,1.43
8083.00,1.43
8082.00,1.43
8081.00,1.43
8080.00,1.43
8079.00,1.43
8078.00,1.43
8077.00,1.43
8076.00,1.43
8075.00,1.43
8074.00,1.43
8073.00,1.43
8072.00,1.43
8071.00,1.43
8070.00,1.43
8069.00,1.43
8068.00,1.43
8067.00,1.43
8066.00,1.43
8065.00,1.43
8064.00,1.43
8063.00,1.43
8062.00,1.43
8061.00,1.43
8060.00,1.43
8059.00,1.43
8058.00,1.43
8057.00,1.43
8056.00,1.43
8055.00,1.43
8054.00,1.43
8053.00,1.43
8052.00,1.43
8051.00,1.43
8050.00,1.43
8049.00,1.43
8048.00,1.43
8047.00,1.43
8046.00,1.44
8045.00,1.44
8044.00,1.44
8043.00,1.44
8042.00,1.44
8041.00,1.44
8040.00,1.44
8039.00,1.44
8038.00,1.45
8037.00,1.45
8036.00,1.45
8035.00,1.45
8034.00,1.45
8033.00,1.45
8032.00,1.45
8031.00,1.45
8030.00,1.45
8029.00,1.45
8028.00,1.45
8027.00,1.45
8026.00,1.45
8025.00,1.45
8024.00,1.45
8023.00,1.45
8022.00,1.45
8021.00,1.45
8020.00,1.45
8019.00,1.45
8018.00,1.44
8017.00,1.44
8016.00,1.44
8015.00,1.44
8014.00,1.44
8013.00,1.44
8012.00,1.44
8011.00,1.44
8010.00,1.44
8009.00,1.44
8008.00,1.44
8007.00,1.44
8006.00,1.44
8005.00,1.44
8004.00,1.44
8003.00,1.45
8002.00,1.45
8001.00,1.45
8000.00,1.45
7999.00,1.45
7998.00,1.45
7997.00,1.45
7996.00,1.45
7995.00,1.45
7994.00,1.45
7993.00,1.45
7992.00,1.45
7991.00,1.46
7990.00,1.46
7989.00,1.46
7988.00,1.46
7987.00,1.46
7986.00,1.46
7985.00,1.46
7984.00,1.46
7983.00,1.46
7982.00,1.46
7981.00,1.46
7980.00,1.46
7979.00,1.46
7978.00,1.46
7977.00,1.46
7976.00,1.46
7975.00,1.46
7974.00,1.46
7973.00,1.46
7972.00,1.46
7971.00,1.46
7970.00,1.45
7969.00,1.45
7968.00,1.45
7967.00,1.45
7966.00,1.45
7965.00,1.45
7964.00,1.45
7963.00,1.45
7962.00,1.45
7961.00,1.45
7960.00,1.45
7959.00,1.45
7958.00,1.46
7957.00,1.46
7956.00,1.46
7955.00,1.46
7954.00,1.46
7953.00,1.46
7952.00,1.46
7951.00,1.46
7950.00,1.47
7949.00,1.47
7948.00,1.47
7947.00,1.47
7946.00,1.47
7945.00,1.46
7944.00,1.46
7943.00,1.46
7942.00,1.46
7941.00,1.46
7940.00,1.46
7939.00,1.46
7938.00,1.46
7937.00,1.46
7936.00,1.46
7935.00,1.47
7934.00,1.47
7933.00,1.47
7932.00,1.47
7931.00,1.47
7930.00,1.47
7929.00,1.47
7928.00,1.47
7927.00,1.48
7926.00,1.48
7925.00,1.48
7924.00,1.48
7923.00,1.48
7922.00,1.48
7921.00,1.48
7920.00,1.47
7919.00,1.47
7918.00,1.47
7917.00,1.47
7916.00,1.47
7915.00,1.47
7914.00,1.47
7913.00,1.47
7912.00,1.46
7911.00,1.46
7910.00,1.46
7909.00,1.46
7908.00,1.46
7907.00,1.46
7906.00,1.46
7905.00,1.46
7904.00,1.46
7903.00,1.46
7902.00,1.46
7901.00,1.46
7900.00,1.46
7899.00,1.46
7898.00,1.46
7897.00,1.46
7896.00,1.47
7895.00,1.47
7894.00,1.47
7893.00,1.47
7892.00,1.47
7891.00,1.47
7890.00,1.47
7889.00,1.47
7888.00,1.47
7887.00,1.47
7886.00,1.47
7885.00,1.47
7884.00,1.47
7883.00,1.47
7882.00,1.47
7881.00,1.47
7880.00,1.47
7879.00,1.47
7878.00,1.48
7877.00,1.48
7876.00,1.48
7875.00,1.48
7874.00,1.48
7873.00,1.48
7872.00,1.48
7871.00,1.48
7870.00,1.48
7869.00,1.48
7868.00,1.49
7867.00,1.49
7866.00,1.49
7865.00,1.49
7864.00,1.49
7863.00,1.49
7862.00,1.49
7861.00,1.49
7860.00,1.49
7859.00,1.48
7858.00,1.48
7857.00,1.48
7856.00,1.48
7855.00,1.48
7854.00,1.48
7853.00,1.48
7852.00,1.48
7851.00,1.48
7850.00,1.48
7849.00,1.48
7848.00,1.48
7847.00,1.48
7846.00,1.48
7845.00,1.48
7844.00,1.49
7843.00,1.49
7842.00,1.49
7841.00,1.49
7840.00,1.49
7839.00,1.49
7838.00,1.49
7837.00,1.49
7836.00,1.49
7835.00,1.49
7834.00,1.49
7833.00,1.49
7832.00,1.49
7831.00,1.49
7830.00,1.49
7829.00,1.49
7828.00,1.49
7827.00,1.50
7826.00,1.50
7825.00,1.50
7824.00,1.50
7823.00,1.50
7822.00,1.50
7821.00,1.50
7820.00,1.50
7819.00,1.50
7818.00,1.50
7817.00,1.50
7816.00,1.50
7815.00,1.50
7814.00,1.50
7813.00,1.50
7812.00,1.50
7811.00,1.50
7810.00,1.50
7809.00,1.50
7808.00,1.50
7807.00,1.50
7806.00,1.50
7805.00,1.50
7804.00,1.50
7803.00,1.50
7802.00,1.50
7801.00,1.50
7800.00,1.50
7799.00,1.50
7798.00,1.50
7797.00,1.50
7796.00,1.50
7795.00,1.50
7794.00,1.50
7793.00,1.50
7792.00,1.50
7791.00,1.50
7790.00,1.50
7789.00,1.50
7788.00,1.50
7787.00,1.50
7786.00,1.50
7785.00,1.50
7784.00,1.50
7783.00,1.50
7782.00,1.50
7781.00,1.50
7780.00,1.50
7779.00,1.50
7778.00,1.50
7777.00,1.50
7776.00,1.50
7775.00,1.50
7774.00,1.50
7773.00,1.50
7772.00,1.50
7771.00,1.50
7770.00,1.50
7769.00,1.50
7768.00,1.50
7767.00,1.50
7766.00,1.50
7765.00,1.50
7764.00,1.50
7763.00,1.50
7762.00,1.50
7761.00,1.50
7760.00,1.50
7759.00,1.50
7758.00,1.50
7757.00,1.50
7756.00,1.50
7755.00,1.50
7754.00,1.50
7753.00,1.50
7752.00,1.50
7751.00,1.50
7750.00,1.50
7749.00,1.50
7748.00,1.50
7747.00,1.50
7746.00,1.50
7745.00,1.50
7744.00,1.49
7743.00,1.49
7742.00,1.49
7741.00,1.49
7740.00,1.49
7739.00,1.49
7738.00,1.49
7737.00,1.49
7736.00,1.49
7735.00,1.49
7734.00,1.49
7733.00,1.49
7732.00,1.49
7731.00,1.49
7730.00,1.49
7729.00,1.49
7728.00,1.49
7727.00,1.49
7726.00,1.49
7725.00,1.49
7724.00,1.49
7723.00,1.49
7722.00,1.49
7721.00,1.49
7720.00,1.49
7719.00,1.49
7718.00,1.49
7717.00,1.49
7716.00,1.49
7715.00,1.50
7714.00,1.50
7713.00,1.50
7712.00,1.50
7711.00,1.50
7710.00,1.50
7709.00,1.50
7708.00,1.50
7707.00,1.50
7706.00,1.50
7705.00,1.50
7704.00,1.50
7703.00,1.50
7702.00,1.50
7701.00,1.50
7700.00,1.50
7699.00,1.50
7698.00,1.50
7697.00,1.50
7696.00,1.50
7695.00,1.50
7694.00,1.50
7693.00,1.50
7692.00,1.50
7691.00,1.50
7690.00,1.50
7689.00,1.50
7688.00,1.50
7687.00,1.50
7686.00,1.50
7685.00,1.50
7684.00,1.50
7683.00,1.50
7682.00,1.50
7681.00,1.50
7680.00,1.50
7679.00,1.50
7678.00,1.50
7677.00,1.50
7676.00,1.50
7675.00,1.50
7674.00,1.50
7673.00,1.50
7672.00,1.50
7671.00,1.50
7670.00,1.50
7669.00,1.50
7668.00,1.50
7667.00,1.50
7666.00,1.50
7665.00,1.49
7664.00,1.49
7663.00,1.49
7662.00,1.49
7661.00,1.49
7660.00,1.49
7659.00,1.49
7658.00,1.49
7657.00,1.49
7656.00,1.49
7655.00,1.49
7654.00,1.50
7653.00,1.50
7652.00,1.50
7651.00,1.50
7650.00,1.50
7649.00,1.50
7648.00,1.50
7647.00,1.50
7646.00,1.50
7645.00,1.50
7644.00,1.50
7643.00,1.50
7642.00,1.50
7641.00,1.50
7640.00,1.50
7639.00,1.50
7638.00,1.50
7637.00,1.50
7636.00,1.50
7635.00,1.50
7634.00,1.50
7633.00,1.50
7632.00,1.50
7631.00,1.50
7630.00,1.50
7629.00,1.50
7628.00,1.50
7627.00,1.50
7626.00,1.50
7625.00,1.50
7624.00,1.50
7623.00,1.50
7622.00,1.50
7621.00,1.50
7620.00,1.50
7619.00,1.50
7618.00,1.50
7617.00,1.50
7616.00,1.50
7615.00,1.50
7614.00,1.50
7613.00,1.50
7612.00,1.50
7611.00,1.50
7610.00,1.50
7609.00,1.50
7608.00,1.50
7607.00,1.50
7606.00,1.50
7605.00,1.50
7604.00,1.50
7603.00,1.50
7602.00,1.50
7601.00,1.50
7600.00,1.50
7599.00,1.50
7598.00,1.50
7597.00,1.50
7596.00,1.50
7595.00,1.50
7594.00,1.50
7593.00,1.50
7592.00,1.50
7591.00,1.50
7590.00,1.50
7589.00,1.50
7588.00,1.50
7587.00,1.50
7586.00,1.50
7585.00,1.49
7584.00,1.49
7583.00,1.49
7582.00,1.49
7581.00,1.49
7580.00,1.49
7579.00,1.49
7578.00,1.49
7577.00,1.49
7576.00,1.49
7575.00,1.49
7574.00,1.49
7573.00,1.49
7572.00,1.49
7571.00,1.49
7570.00,1.49
7569.00,1.49
7568.00,1.49
7567.00,1.49
7566.00,1.49
7565.00,1.49
7564.00,1.48
7563.00,1.48
7562.00,1.48
7561.00,1.48
7560.00,1.48
7559.00,1.48
7558.00,1.48
7557.00,1.47
7556.00,1.47
7555.00,1.47
7554.00,1.47
7553.00,1.47
7552.00,1.47
7551.00,1.47
7550.00,1.46
7549.00,1.46
7548.00,1.46
7547.00,1.46
7546.00,1.46
7545.00,1.46
7544.00,1.46
7543.00,1.46
7542.00,1.46
7541.00,1.46
7540.00,1.46
7539.00,1.46
7538.00,1.46
7537.00,1.46
7536.00,1.46
7535.00,1.47
7534.00,1.47
7533.00,1.47
7532.00,1.46
7531.00,1.46
7530.00,1.46
7529.00,1.46
7528.00,1.46
7527.00,1.46
7526.00,1.46
7525.00,1.46
7524.00,1.46
7523.00,1.46
7522.00,1.46
7521.00,1.46
7520.00,1.46
7519.00,1.46
7518.00,1.46
7517.00,1.46
7516.00,1.46
7515.00,1.46
7514.00,1.46
7513.00,1.46
7512.00,1.46
7511.00,1.46
7510.00,1.46
7509.00,1.46
7508.00,1.46
7507.00,1.46
7506.00,1.46
7505.00,1.46
7504.00,1.46
7503.00,1.46
7502.00,1.45
7501.00,1.45
7500.00,1.45
7499.00,1.45
7498.00,1.45
7497.00,1.45
7496.00,1.45
7495.00,1.45
7494.00,1.45
7493.00,1.45
7492.00,1.45
7491.00,1.45
7490.00,1.45
7489.00,1.45
7488.00,1.45
7487.00,1.45
7486.00,1.45
7485.00,1.45
7484.00,1.45
7483.00,1.45
7482.00,1.45
7481.00,1.45
7480.00,1.44
7479.00,1.44
7478.00,1.44
7477.00,1.44
7476.00,1.44
7475.00,1.44
7474.00,1.44
7473.00,1.44
7472.00,1.44
7471.00,1.44
7470.00,1.44
7469.00,1.44
7468.00,1.44
7467.00,1.44
7466.00,1.43
7465.00,1.43
7464.00,1.43
7463.00,1.43
7462.00,1.43
7461.00,1.43
7460.00,1.43
7459.00,1.43
7458.00,1.43
7457.00,1.43
7456.00,1.43
7455.00,1.43
7454.00,1.43
7453.00,1.42
7452.00,1.42
7451.00,1.42
7450.00,1.42
7449.00,1.42
7448.00,1.42
7447.00,1.42
7446.00,1.42
7445.00,1.41
7444.00,1.41
7443.00,1.41
7442.00,1.41
7441.00,1.41
7440.00,1.41
7439.00,1.41
7438.00,1.41
7437.00,1.40
7436.00,1.40
7435.00,1.40
7434.00,1.40
7433.00,1.40
7432.00,1.40
7431.00,1.40
7430.00,1.40
7429.00,1.40
7428.00,1.39
7427.00,1.39
7426.00,1.39
7425.00,1.39
7424.00,1.39
7423.00,1.39
7422.00,1.39
7421.00,1.39
7420.00,1.39
7419.00,1.39
7418.00,1.39
7417.00,1.38
7416.00,1.38
7415.00,1.38
7414.00,1.38
7413.00,1.38
7412.00,1.38
7411.00,1.38
7410.00,1.38
7409.00,1.38
7408.00,1.38
7407.00,1.37
7406.00,1.37
7405.00,1.37
7404.00,1.37
7403.00,1.37
7402.00,1.37
7401.00,1.37
7400.00,1.37
7399.00,1.36
7398.00,1.36
7397.00,1.36
7396.00,1.36
7395.00,1.36
7394.00,1.36
7393.00,1.36
7392.00,1.36
7391.00,1.36
7390.00,1.35
7389.00,1.35
7388.00,1.35
7387.00,1.35
7386.00,1.35
7385.00,1.35
7384.00,1.35
7383.00,1.35
7382.00,1.34
7381.00,1.34
7380.00,1.34
7379.00,1.34
7378.00,1.34
7377.00,1.34
7376.00,1.34
7375.00,1.34
7374.00,1.34
7373.00,1.34
7372.00,1.34
7371.00,1.34
7370.00,1.33
7369.00,1.33
7368.00,1.33
7367.00,1.33
7366.00,1.33
7365.00,1.33
7364.00,1.33
7363.00,1.33
7362.00,1.33
7361.00,1.33
7360.00,1.32
7359.00,1.32
7358.00,1.32
7357.00,1.32
7356.00,1.32
7355.00,1.32
7354.00,1.32
7353.00,1.32
7352.00,1.32
7351.00,1.32
7350.00,1.32
7349.00,1.32
7348.00,1.32
7347.00,1.32
7346.00,1.32
7345.00,1.32
7344.00,1.32
7343.00,1.32
7342.00,1.32
7341.00,1.32
7340.00,1.32
7339.00,1.32
7338.00,1.32
7337.00,1.32
7336.00,1.32
7335.00,1.32
7334.00,1.32
7333.00,1.32
7332.00,1.32
7331.00,1.32
7330.00,1.32
7329.00,1.32
7328.00,1.32
7327.00,1.32
7326.00,1.32
7325.00,1.32
7324.00,1.32
7323.00,1.32
7322.00,1.32
7321.00,1.32
7320.00,1.32
7319.00,1.32
7318.00,1.32
7317.00,1.32
7316.00,1.31
7315.00,1.31
7314.00,1.31
7313.00,1.31
7312.00,1.31
7311.00,1.31
7310.00,1.31
7309.00,1.31
7308.00,1.31
7307.00,1.30
7306.00,1.30
7305.00,1.30
7304.00,1.30
7303.00,1.30
7302.00,1.30
7301.00,1.29
7300.00,1.29
7299.00,1.29
7298.00,1.29
7297.00,1.29
7296.00,1.29
7295.00,1.28
7294.00,1.28
7293.00,1.28
7292.00,1.28
7291.00,1.28
7290.00,1.28
7289.00,1.27
7288.00,1.27
7287.00,1.27
7286.00,1.27
7285.00,1.27
7284.00,1.27
7283.00,1.27
7282.00,1.27
7281.00,1.27
7280.00,1.27
7279.00,1.26
7278.00,1.26
7277.00,1.26
7276.00,1.26
7275.00,1.26
7274.00,1.26
7273.00,1.26
7272.00,1.26
7271.00,1.25
7270.00,1.25
7269.00,1.25
7268.00,1.25
7267.00,1.25
7266.00,1.24
7265.00,1.24
7264.00,1.24
7263.00,1.24
7262.00,1.23
7261.00,1.23
7260.00,1.23
7259.00,1.22
7258.00,1.22
7257.00,1.22
7256.00,1.21
7255.00,1.21
7254.00,1.21
7253.00,1.20
7252.00,1.20
7251.00,1.20
7250.00,1.19
7249.00,1.19
7248.00,1.19
7247.00,1.18
7246.00,1.18
7245.00,1.17
7244.00,1.17
7243.00,1.17
7242.00,1.16
7241.00,1.16
7240.00,1.16
7239.00,1.16
7238.00,1.15
7237.00,1.15
7236.00,1.15
7235.00,1.14
7234.00,1.14
7233.00,1.14
7232.00,1.13
7231.00,1.13
7230.00,1.13
7229.00,1.12
7228.00,1.12
7227.00,1.12
7226.00,1.11
7225.00,1.11
7224.00,1.10
7223.00,1.10
7222.00,1.10
7221.00,1.09
7220.00,1.09
7219.00,1.08
7218.00,1.08
7217.00,1.08
7216.00,1.07
7215.00,1.07
7214.00,1.06
7213.00,1.06
7212.00,1.05
7211.00,1.05
7210.00,1.05
7209.00,1.04
7208.00,1.04
7207.00,1.03
7206.00,1.03
7205.00,1.03
7204.00,1.02
7203.00,1.02
7202.00,1.01
7201.00,1.01
7200.00,1.01
7199.00,1.00
7198.00,1.00
7197.00,1.00
7196.00,0.99
7195.00,0.99
7194.00,0.99
7193.00,0.99
7192.00,0.98
7191.00,0.98
7190.00,0.98
7189.00,0.97
7188.00,0.97
7187.00,0.97
7186.00,0.96
7185.00,0.96
7184.00,0.96
7183.00,0.95
7182.00,0.95
7181.00,0.94
7180.00,0.94
7179.00,0.94
7178.00,0.93
7177.00,0.93
7176.00,0.93
7175.00,0.92
7174.00,0.92
7173.00,0.92
7172.00,0.91
7171.00,0.91
7170.00,0.91
7169.00,0.90
7168.00,0.90
7167.00,0.90
7166.00,0.89
7165.00,0.89
7164.00,0.89
7163.00,0.88
7162.00,0.88
7161.00,0.88
7160.00,0.87
7159.00,0.87
7158.00,0.87
7157.00,0.87
7156.00,0.86
7155.00,0.86
7154.00,0.86
7153.00,0.86
7152.00,0.86
7151.00,0.85
7150.00,0.85
7149.00,0.85
7148.00,0.85
7147.00,0.85
7146.00,0.84
7145.00,0.84
7144.00,0.84
7143.00,0.84
7142.00,0.84
7141.00,0.83
7140.00,0.83
7139.00,0.83
7138.00,0.83
7137.00,0.83
7136.00,0.82
7135.00,0.82
7134.00,0.82
7133.00,0.82
7132.00,0.81
7131.00,0.81
7130.00,0.81
7129.00,0.81
7128.00,0.80
7127.00,0.80
7126.00,0.80
7125.00,0.79
7124.00,0.79
7123.00,0.79
7122.00,0.79
7121.00,0.79
7120.00,0.78
7119.00,0.78
7118.00,0.78
7117.00,0.78
7116.00,0.78
7115.00,0.78
7114.00,0.78
7113.00,0.77
7112.00,0.77
7111.00,0.77
7110.00,0.77
7109.00,0.77
7108.00,0.77
7107.00,0.77
7106.00,0.77
7105.00,0.77
7104.00,0.76
7103.00,0.76
7102.00,0.76
7101.00,0.76
7100.00,0.76
7099.00,0.76
7098.00,0.76
7097.00,0.75
7096.00,0.75
7095.00,0.75
7094.00,0.75
7093.00,0.75
7092.00,0.75
7091.00,0.74
7090.00,0.74
7089.00,0.74
7088.00,0.74
7087.00,0.74
7086.00,0.74
7085.00,0.74
7084.00,0.74
7083.00,0.73
7082.00,0.73
7081.00,0.73
7080.00,0.73
7079.00,0.73
7078.00,0.73
7077.00,0.72
7076.00,0.72
7075.00,0.72
7074.00,0.72
7073.00,0.72
7072.00,0.72
7071.00,0.72
7070.00,0.72
7069.00,0.72
7068.00,0.72
7067.00,0.72
7066.00,0.72
7065.00,0.72
7064.00,0.72
7063.00,0.72
7062.00,0.72
7061.00,0.72
7060.00,0.72
7059.00,0.72
7058.00,0.72
7057.00,0.72
7056.00,0.72
7055.00,0.72
7054.00,0.72
7053.00,0.72
7052.00,0.71
7051.00,0.71
7050.00,0.71
7049.00,0.71
7048.00,0.71
7047.00,0.71
7046.00,0.71
7045.00,0.71
7044.00,0.71
7043.00,0.70
7042.00,0.70
7041.00,0.70
7040.00,0.70
7039.00,0.70
7038.00,0.70
7037.00,0.70
7036.00,0.70
7035.00,0.70
7034.00,0.69
7033.00,0.69
7032.00,0.69
7031.00,0.69
7030.00,0.69
7029.00,0.69
7028.00,0.69
7027.00,0.69
7026.00,0.69
7025.00,0.69
7024.00,0.69
7023.00,0.69
7022.00,0.69
7021.00,0.69
7020.00,0.69
7019.00,0.69
7018.00,0.69
7017.00,0.69
7016.00,0.69
7015.00,0.68
7014.00,0.68
7013.00,0.68
7012.00,0.68
7011.00,0.68
7010.00,0.68
7009.00,0.68
7008.00,0.68
7007.00,0.68
7006.00,0.68
7005.00,0.68
7004.00,0.68
7003.00,0.68
7002.00,0.68
7001.00,0.68
7000.00,0.68
6999.00,0.69
6998.00,0.69
6997.00,0.69
6996.00,0.69
6995.00,0.68
6994.00,0.68
6993.00,0.68
6992.00,0.68
6991.00,0.68
6990.00,0.68
6989.00,0.68
6988.00,0.68
6987.00,0.68
6986.00,0.68
6985.00,0.68
6984.00,0.68
6983.00,0.68
6982.00,0.67
6981.00,0.67
6980.00,0.67
6979.00,0.67
6978.00,0.67
6977.00,0.67
6976.00,0.67
6975.00,0.67
6974.00,0.67
6973.00,0.67
6972.00,0.68
6971.00,0.68
6970.00,0.68
6969.00,0.68
6968.00,0.68
6967.00,0.68
6966.00,0.68
6965.00,0.68
6964.00,0.68
6963.00,0.68
6962.00,0.68
6961.00,0.68
6960.00,0.68
6959.00,0.68
6958.00,0.68
6957.00,0.68
6956.00,0.68
6955.00,0.68
6954.00,0.68
6953.00,0.68
6952.00,0.68
6951.00,0.68
6950.00,0.68
6949.00,0.68
6948.00,0.68
6947.00,0.68
6946.00,0.68
6945.00,0.68
6944.00,0.68
6943.00,0.68
6942.00,0.68
6941.00,0.68
6940.00,0.68
6939.00,0.68
6938.00,0.68
6937.00,0.68
6936.00,0.68
6935.00,0.68
6934.00,0.68
6933.00,0.68
6932.00,0.68
6931.00,0.68
6930.00,0.68
6929.00,0.68
6928.00,0.68
6927.00,0.68
6926.00,0.68
6925.00,0.68
6924.00,0.68
6923.00,0.68
6922.00,0.68
6921.00,0.68
6920.00,0.68
6919.00,0.68
6918.00,0.68
6917.00,0.68
6916.00,0.68
6915.00,0.68
6914.00,0.68
6913.00,0.68
6912.00,0.68
6911.00,0.68
6910.00,0.68
6909.00,0.68
6908.00,0.68
6907.00,0.68
6906.00,0.68
6905.00,0.68
6904.00,0.68
6903.00,0.68
6902.00,0.68
6901.00,0.68
6900.00,0.68
6899.00,0.68
6898.00,0.68
6897.00,0.68
6896.00,0.68
6895.00,0.68
6894.00,0.68
6893.00,0.68
6892.00,0.68
6891.00,0.68
6890.00,0.68
6889.00,0.68
6888.00,0.68
6887.00,0.68
6886.00,0.68
6885.00,0.68
6884.00,0.68
6883.00,0.68
6882.00,0.68
6881.00,0.68
6880.00,0.68
6879.00,0.69
6878.00,0.69
6877.00,0.69
6876.00,0.69
6875.00,0.69
6874.00,0.69
6873.00,0.69
6872.00,0.69
6871.00,0.69
6870.00,0.69
6869.00,0.69
6868.00,0.69
6867.00,0.69
6866.00,0.69
6865.00,0.69
6864.00,0.69
6863.00,0.69
6862.00,0.69
6861.00,0.69
6860.00,0.69
6859.00,0.69
6858.00,0.69
6857.00,0.69
6856.00,0.69
6855.00,0.69
6854.00,0.69
6853.00,0.69
6852.00,0.69
6851.00,0.69
6850.00,0.69
6849.00,0.69
6848.00,0.69
6847.00,0.69
6846.00,0.69
6845.00,0.69
6844.00,0.69
6843.00,0.69
6842.00,0.69
6841.00,0.69
6840.00,0.69
6839.00,0.69
6838.00,0.70
6837.00,0.70
6836.00,0.70
6835.00,0.70
6834.00,0.70
6833.00,0.70
6832.00,0.70
6831.00,0.70
6830.00,0.70
6829.00,0.70
6828.00,0.70
6827.00,0.70
6826.00,0.69
6825.00,0.69
6824.00,0.69
6823.00,0.69
6822.00,0.69
6821.00,0.69
6820.00,0.69
6819.00,0.69
6818.00,0.69
6817.00,0.69
6816.00,0.69
6815.00,0.69
6814.00,0.69
6813.00,0.69
6812.00,0.69
6811.00,0.69
6810.00,0.69
6809.00,0.70
6808.00,0.70
6807.00,0.70
6806.00,0.70
6805.00,0.70
6804.00,0.70
6803.00,0.70
6802.00,0.70
6801.00,0.70
6800.00,0.70
6799.00,0.71
6798.00,0.71
6797.00,0.71
6796.00,0.71
6795.00,0.71
6794.00,0.71
6793.00,0.71
6792.00,0.71
6791.00,0.71
6790.00,0.71
6789.00,0.71
6788.00,0.71
6787.00,0.71
6786.00,0.71
6785.00,0.71
6784.00,0.71
6783.00,0.71
6782.00,0.71
6781.00,0.71
6780.00,0.71
6779.00,0.71
6778.00,0.71
6777.00,0.71
6776.00,0.71
6775.00,0.70
6774.00,0.70
6773.00,0.70
6772.00,0.70
6771.00,0.70
6770.00,0.70
6769.00,0.70
6768.00,0.70
6767.00,0.70
6766.00,0.70
6765.00,0.70
6764.00,0.71
6763.00,0.71
6762.00,0.71
6761.00,0.71
6760.00,0.71
6759.00,0.71
6758.00,0.71
6757.00,0.71
6756.00,0.71
6755.00,0.71
6754.00,0.71
6753.00,0.71
6752.00,0.71
6751.00,0.71
6750.00,0.71
6749.00,0.71
6748.00,0.71
6747.00,0.71
6746.00,0.71
6745.00,0.71
6744.00,0.71
6743.00,0.72
6742.00,0.72
6741.00,0.72
6740.00,0.72
6739.00,0.72
6738.00,0.72
6737.00,0.73
6736.00,0.73
6735.00,0.73
6734.00,0.73
6733.00,0.73
6732.00,0.73
6731.00,0.73
6730.00,0.73
6729.00,0.73
6728.00,0.73
6727.00,0.73
6726.00,0.74
6725.00,0.74
6724.00,0.74
6723.00,0.74
6722.00,0.74
6721.00,0.73
6720.00,0.73
6719.00,0.73
6718.00,0.73
6717.00,0.73
6716.00,0.73
6715.00,0.73
6714.00,0.74
6713.00,0.74
6712.00,0.74
6711.00,0.74
6710.00,0.74
6709.00,0.74
6708.00,0.74
6707.00,0.74
6706.00,0.74
6705.00,0.74
6704.00,0.74
6703.00,0.75
6702.00,0.75
6701.00,0.75
6700.00,0.75
6699.00,0.75
6698.00,0.75
6697.00,0.75
6696.00,0.75
6695.00,0.75
6694.00,0.75
6693.00,0.75
6692.00,0.75
6691.00,0.75
6690.00,0.75
6689.00,0.75
6688.00,0.75
6687.00,0.75
6686.00,0.75
6685.00,0.75
6684.00,0.75
6683.00,0.75
6682.00,0.75
6681.00,0.75
6680.00,0.75
6679.00,0.75
6678.00,0.75
6677.00,0.75
6676.00,0.75
6675.00,0.75
6674.00,0.75
6673.00,0.75
6672.00,0.75
6671.00,0.75
6670.00,0.75
6669.00,0.75
6668.00,0.75
6667.00,0.75
6666.00,0.76
6665.00,0.76
6664.00,0.76
6663.00,0.76
6662.00,0.76
6661.00,0.76
6660.00,0.77
6659.00,0.77
6658.00,0.77
6657.00,0.77
6656.00,0.77
6655.00,0.77
6654.00,0.77
6653.00,0.78
6652.00,0.78
6651.00,0.78
6650.00,0.78
6649.00,0.78
6648.00,0.78
6647.00,0.78
6646.00,0.78
6645.00,0.78
6644.00,0.78
6643.00,0.78
6642.00,0.78
6641.00,0.79
6640.00,0.79
6639.00,0.79
6638.00,0.79
6637.00,0.79
6636.00,0.79
6635.00,0.79
6634.00,0.79
6633.00,0.79
6632.00,0.79
6631.00,0.79
6630.00,0.79
6629.00,0.78
6628.00,0.78
6627.00,0.78
6626.00,0.78
6625.00,0.78
6624.00,0.78
6623.00,0.79
6622.00,0.79
6621.00,0.79
6620.00,0.79
6619.00,0.79
6618.00,0.79
6617.00,0.79
6616.00,0.79
6615.00,0.80
6614.00,0.80
6613.00,0.80
6612.00,0.80
6611.00,0.80
6610.00,0.80
6609.00,0.80
6608.00,0.80
6607.00,0.80
6606.00,0.80
6605.00,0.80
6604.00,0.80
6603.00,0.80
6602.00,0.81
6601.00,0.81
6600.00,0.81
6599.00,0.81
6598.00,0.81
6597.00,0.81
6596.00,0.81
6595.00,0.81
6594.00,0.81
6593.00,0.81
6592.00,0.81
6591.00,0.81
6590.00,0.81
6589.00,0.82
6588.00,0.82
6587.00,0.82
6586.00,0.82
6585.00,0.82
6584.00,0.82
6583.00,0.82
6582.00,0.83
6581.00,0.83
6580.00,0.83
6579.00,0.83
6578.00,0.83
6577.00,0.83
6576.00,0.83
6575.00,0.83
6574.00,0.84
6573.00,0.84
6572.00,0.84
6571.00,0.84
6570.00,0.84
6569.00,0.84
6568.00,0.84
6567.00,0.84
6566.00,0.84
6565.00,0.84
6564.00,0.84
6563.00,0.84
6562.00,0.84
6561.00,0.84
6560.00,0.84
6559.00,0.84
6558.00,0.84
6557.00,0.85
6556.00,0.85
6555.00,0.85
6554.00,0.85
6553.00,0.85
6552.00,0.85
6551.00,0.85
6550.00,0.85
6549.00,0.85
6548.00,0.86
6547.00,0.86
6546.00,0.86
6545.00,0.86
6544.00,0.86
6543.00,0.86
6542.00,0.86
6541.00,0.86
6540.00,0.86
6539.00,0.86
6538.00,0.86
6537.00,0.86
6536.00,0.86
6535.00,0.86
6534.00,0.86
6533.00,0.86
6532.00,0.86
6531.00,0.86
6530.00,0.86
6529.00,0.86
6528.00,0.86
6527.00,0.87
6526.00,0.87
6525.00,0.87
6524.00,0.87
6523.00,0.87
6522.00,0.87
6521.00,0.87
6520.00,0.87
6519.00,0.87
6518.00,0.87
6517.00,0.88
6516.00,0.88
6515.00,0.88
6514.00,0.88
6513.00,0.88
6512.00,0.88
6511.00,0.88
6510.00,0.88
6509.00,0.88
6508.00,0.88
6507.00,0.88
6506.00,0.88
6505.00,0.88
6504.00,0.88
6503.00,0.88
6502.00,0.88
6501.00,0.88
6500.00,0.88
6499.00,0.88
6498.00,0.88
6497.00,0.88
6496.00,0.88
6495.00,0.89
6494.00,0.89
6493.00,0.89
6492.00,0.89
6491.00,0.89
6490.00,0.89
6489.00,0.89
6488.00,0.89
6487.00,0.89
6486.00,0.90
6485.00,0.90
6484.00,0.90
6483.00,0.90
6482.00,0.90
6481.00,0.90
6480.00,0.90
6479.00,0.91
6478.00,0.91
6477.00,0.91
6476.00,0.91
6475.00,0.91
6474.00,0.91
6473.00,0.91
6472.00,0.91
6471.00,0.91
6470.00,0.91
6469.00,0.91
6468.00,0.91
6467.00,0.91
6466.00,0.91
6465.00,0.91
6464.00,0.91
6463.00,0.91
6462.00,0.91
6461.00,0.91
6460.00,0.91
6459.00,0.91
6458.00,0.91
6457.00,0.92
6456.00,0.92
6455.00,0.92
6454.00,0.92
6453.00,0.92
6452.00,0.92
6451.00,0.92
6450.00,0.92
6449.00,0.92
6448.00,0.92
6447.00,0.93
6446.00,0.93
6445.00,0.93
6444.00,0.93
6443.00,0.93
6442.00,0.93
6441.00,0.93
6440.00,0.93
6439.00,0.93
6438.00,0.93
6437.00,0.94
6436.00,0.94
6435.00,0.94
6434.00,0.94
6433.00,0.94
6432.00,0.94
6431.00,0.94
6430.00,0.94
6429.00,0.95
6428.00,0.95
6427.00,0.95
6426.00,0.95
6425.00,0.95
6424.00,0.95
6423.00,0.95
6422.00,0.95
6421.00,0.95
6420.00,0.95
6419.00,0.95
6418.00,0.95
6417.00,0.95
6416.00,0.95
6415.00,0.95
6414.00,0.95
6413.00,0.95
6412.00,0.95
6411.00,0.95
6410.00,0.95
6409.00,0.95
6408.00,0.96
6407.00,0.96
6406.00,0.96
6405.00,0.96
6404.00,0.96
6403.00,0.96
6402.00,0.96
6401.00,0.96
6400.00,0.96
6399.00,0.96
6398.00,0.96
6397.00,0.96
6396.00,0.97
6395.00,0.97
6394.00,0.97
6393.00,0.97
6392.00,0.97
6391.00,0.97
6390.00,0.97
6389.00,0.97
6388.00,0.98
6387.00,0.98
6386.00,0.98
6385.00,0.98
6384.00,0.98
6383.00,0.98
6382.00,0.98
6381.00,0.98
6380.00,0.98
6379.00,0.98
6378.00,0.98
6377.00,0.98
6376.00,0.98
6375.00,0.98
6374.00,0.98
6373.00,0.99
6372.00,0.99
6371.00,0.99
6370.00,0.99
6369.00,0.99
6368.00,0.99
6367.00,0.99
6366.00,0.99
6365.00,0.99
6364.00,0.99
6363.00,0.99
6362.00,1.00
6361.00,1.00
6360.00,1.00
6359.00,1.00
6358.00,1.00
6357.00,1.00
6356.00,1.00
6355.00,1.00
6354.00,1.01
6353.00,1.01
6352.00,1.01
6351.00,1.01
6350.00,1.01
6349.00,1.01
6348.00,1.01
6347.00,1.02
6346.00,1.02
6345.00,1.02
6344.00,1.02
6343.00,1.02
6342.00,1.02
6341.00,1.02
6340.00,1.02
6339.00,1.02
6338.00,1.03
6337.00,1.03
6336.00,1.03
6335.00,1.03
6334.00,1.03
6333.00,1.03
6332.00,1.03
6331.00,1.03
6330.00,1.03
6329.00,1.04
6328.00,1.04
6327.00,1.04
6326.00,1.04
6325.00,1.04
6324.00,1.04
6323.00,1.04
6322.00,1.04
6321.00,1.04
6320.00,1.04
6319.00,1.04
6318.00,1.05
6317.00,1.05
6316.00,1.05
6315.00,1.05
6314.00,1.05
6313.00,1.05
6312.00,1.05
6311.00,1.05
6310.00,1.05
6309.00,1.05
6308.00,1.06
6307.00,1.06
6306.00,1.06
6305.00,1.06
6304.00,1.06
6303.00,1.06
6302.00,1.06
6301.00,1.06
6300.00,1.06
6299.00,1.06
6298.00,1.06
6297.00,1.06
6296.00,1.06
6295.00,1.06
6294.00,1.07
6293.00,1.07
6292.00,1.07
6291.00,1.07
6290.00,1.07
6289.00,1.07
6288.00,1.07
6287.00,1.07
6286.00,1.07
6285.00,1.08
6284.00,1.08
6283.00,1.08
6282.00,1.08
6281.00,1.08
6280.00,1.08
6279.00,1.08
6278.00,1.08
6277.00,1.08
6276.00,1.08
6275.00,1.09
6274.00,1.09
6273.00,1.09
6272.00,1.09
6271.00,1.09
6270.00,1.09
6269.00,1.09
6268.00,1.10
6267.00,1.10
6266.00,1.10
6265.00,1.10
6264.00,1.10
6263.00,1.10
6262.00,1.10
6261.00,1.11
6260.00,1.11
6259.00,1.11
6258.00,1.11
6257.00,1.11
6256.00,1.11
6255.00,1.11
6254.00,1.12
6253.00,1.12
6252.00,1.12
6251.00,1.12
6250.00,1.12
6249.00,1.12
6248.00,1.12
6247.00,1.12
6246.00,1.13
6245.00,1.13
6244.00,1.13
6243.00,1.13
6242.00,1.13
6241.00,1.13
6240.00,1.14
6239.00,1.14
6238.00,1.14
6237.00,1.14
6236.00,1.14
6235.00,1.14
6234.00,1.15
6233.00,1.15
6232.00,1.15
6231.00,1.15
6230.00,1.15
6229.00,1.15
6228.00,1.15
6227.00,1.16
6226.00,1.16
6225.00,1.16
6224.00,1.16
6223.00,1.16
6222.00,1.16
6221.00,1.16
6220.00,1.16
6219.00,1.17
6218.00,1.17
6217.00,1.17
6216.00,1.17
6215.00,1.17
6214.00,1.17
6213.00,1.17
6212.00,1.17
6211.00,1.17
6210.00,1.17
6209.00,1.18
6208.00,1.18
6207.00,1.18
6206.00,1.18
6205.00,1.18
6204.00,1.18
6203.00,1.18
6202.00,1.18
6201.00,1.19
6200.00,1.19
6199.00,1.19
6198.00,1.19
6197.00,1.19
6196.00,1.19
6195.00,1.20
6194.00,1.20
6193.00,1.20
6192.00,1.20
6191.00,1.20
6190.00,1.20
6189.00,1.20
6188.00,1.20
6187.00,1.21
6186.00,1.21
6185.00,1.21
6184.00,1.21
6183.00,1.21
6182.00,1.21
6181.00,1.21
6180.00,1.22
6179.00,1.22
6178.00,1.22
6177.00,1.22
6176.00,1.22
6175.00,1.22
6174.00,1.22
6173.00,1.23
6172.00,1.23
6171.00,1.23
6170.00,1.23
6169.00,1.23
6168.00,1.23
6167.00,1.23
6166.00,1.24
6165.00,1.24
6164.00,1.24
6163.00,1.24
6162.00,1.24
6161.00,1.24
6160.00,1.24
6159.00,1.24
6158.00,1.25
6157.00,1.25
6156.00,1.25
6155.00,1.25
6154.00,1.25
6153.00,1.26
6152.00,1.26
6151.00,1.26
6150.00,1.26
6149.00,1.26
6148.00,1.26
6147.00,1.27
6146.00,1.27
6145.00,1.27
6144.00,1.27
6143.00,1.27
6142.00,1.27
6141.00,1.28
6140.00,1.28
6139.00,1.28
6138.00,1.28
6137.00,1.28
6136.00,1.28
6135.00,1.28
6134.00,1.28
6133.00,1.29
6132.00,1.29
6131.00,1.29
6130.00,1.29
6129.00,1.29
6128.00,1.29
6127.00,1.29
6126.00,1.30
6125.00,1.30
6124.00,1.30
6123.00,1.30
6122.00,1.30
6121.00,1.30
6120.00,1.30
6119.00,1.30
6118.00,1.30
6117.00,1.30
6116.00,1.31
6115.00,1.31
6114.00,1.31
6113.00,1.31
6112.00,1.31
6111.00,1.31
6110.00,1.31
6109.00,1.31
6108.00,1.31
6107.00,1.32
6106.00,1.32
6105.00,1.32
6104.00,1.32
6103.00,1.32
6102.00,1.33
6101.00,1.33
6100.00,1.33
6099.00,1.33
6098.00,1.33
6097.00,1.34
6096.00,1.34
6095.00,1.34
6094.00,1.34
6093.00,1.34
6092.00,1.35
6091.00,1.35
6090.00,1.35
6089.00,1.35
6088.00,1.35
6087.00,1.36
6086.00,1.36
6085.00,1.36
6084.00,1.36
6083.00,1.36
6082.00,1.36
6081.00,1.36
6080.00,1.37
6079.00,1.37
6078.00,1.37
6077.00,1.37
6076.00,1.37
6075.00,1.37
6074.00,1.37
6073.00,1.37
6072.00,1.37
6071.00,1.37
6070.00,1.37
6069.00,1.37
6068.00,1.38
6067.00,1.38
6066.00,1.38
6065.00,1.38
6064.00,1.38
6063.00,1.38
6062.00,1.38
6061.00,1.38
6060.00,1.38
6059.00,1.38
6058.00,1.39
6057.00,1.39
6056.00,1.39
6055.00,1.39
6054.00,1.39
6053.00,1.39
6052.00,1.39
6051.00,1.39
6050.00,1.40
6049.00,1.40
6048.00,1.40
6047.00,1.40
6046.00,1.40
6045.00,1.40
6044.00,1.40
6043.00,1.40
6042.00,1.40
6041.00,1.41
6040.00,1.41
6039.00,1.41
6038.00,1.41
6037.00,1.41
6036.00,1.41
6035.00,1.41
6034.00,1.41
6033.00,1.41
6032.00,1.41
6031.00,1.41
6030.00,1.41
6029.00,1.42
6028.00,1.42
6027.00,1.42
6026.00,1.42
6025.00,1.42
6024.00,1.42
6023.00,1.42
6022.00,1.42
6021.00,1.42
6020.00,1.42
6019.00,1.42
6018.00,1.42
6017.00,1.42
6016.00,1.42
6015.00,1.42
6014.00,1.42
6013.00,1.42
6012.00,1.42
6011.00,1.42
6010.00,1.42
6009.00,1.42
6008.00,1.42
6007.00,1.42
6006.00,1.42
6005.00,1.42
6004.00,1.42
6003.00,1.42
6002.00,1.42
6001.00,1.42
6000.00,1.42
5999.00,1.42
5998.00,1.42
5997.00,1.41
5996.00,1.41
5995.00,1.41
5994.00,1.41
5993.00,1.41
5992.00,1.41
5991.00,1.40
5990.00,1.40
5989.00,1.40
5988.00,1.40
5987.00,1.40
5986.00,1.39
5985.00,1.39
5984.00,1.39
5983.00,1.39
5982.00,1.39
5981.00,1.38
5980.00,1.38
5979.00,1.38
5978.00,1.38
5977.00,1.37
5976.00,1.37
5975.00,1.37
5974.00,1.36
5973.00,1.36
5972.00,1.36
5971.00,1.35
5970.00,1.35
5969.00,1.34
5968.00,1.34
5967.00,1.33
5966.00,1.32
5965.00,1.32
5964.00,1.31
5963.00,1.30
5962.00,1.30
5961.00,1.29
5960.00,1.29
5959.00,1.28
5958.00,1.27
5957.00,1.27
5956.00,1.26
5955.00,1.25
5954.00,1.25
5953.00,1.24
5952.00,1.24
5951.00,1.23
5950.00,1.23
5949.00,1.23
5948.00,1.22
5947.00,1.22
5946.00,1.22
5945.00,1.22
5944.00,1.21
5943.00,1.21
5942.00,1.21
5941.00,1.21
5940.00,1.21
5939.00,1.21
5938.00,1.21
5937.00,1.20
5936.00,1.20
5935.00,1.20
5934.00,1.20
5933.00,1.20
5932.00,1.20
5931.00,1.20
5930.00,1.20
5929.00,1.20
5928.00,1.20
5927.00,1.20
5926.00,1.20
5925.00,1.19
5924.00,1.19
5923.00,1.19
5922.00,1.19
5921.00,1.19
5920.00,1.19
5919.00,1.19
5918.00,1.18
5917.00,1.18
5916.00,1.18
5915.00,1.17
5914.00,1.17
5913.00,1.17
5912.00,1.17
5911.00,1.16
5910.00,1.16
5909.00,1.16
5908.00,1.16
5907.00,1.15
5906.00,1.15
5905.00,1.15
5904.00,1.15
5903.00,1.15
5902.00,1.15
5901.00,1.15
5900.00,1.15
5899.00,1.15
5898.00,1.15
5897.00,1.15
5896.00,1.16
5895.00,1.16
5894.00,1.16
5893.00,1.17
5892.00,1.17
5891.00,1.17
5890.00,1.18
5889.00,1.18
5888.00,1.18
5887.00,1.19
5886.00,1.19
5885.00,1.20
5884.00,1.20
5883.00,1.20
5882.00,1.20
5881.00,1.21
5880.00,1.21
5879.00,1.21
5878.00,1.21
5877.00,1.22
5876.00,1.22
5875.00,1.22
5874.00,1.22
5873.00,1.22
5872.00,1.23
5871.00,1.23
5870.00,1.23
5869.00,1.23
5868.00,1.23
5867.00,1.24
5866.00,1.24
5865.00,1.24
5864.00,1.24
5863.00,1.24
5862.00,1.25
5861.00,1.25
5860.00,1.25
5859.00,1.25
5858.00,1.25
5857.00,1.25
5856.00,1.26
5855.00,1.26
5854.00,1.26
5853.00,1.26
5852.00,1.26
5851.00,1.26
5850.00,1.26
5849.00,1.26
5848.00,1.26
5847.00,1.26
5846.00,1.26
5845.00,1.27
5844.00,1.27
5843.00,1.27
5842.00,1.27
5841.00,1.27
5840.00,1.27
5839.00,1.27
5838.00,1.27
5837.00,1.27
5836.00,1.27
5835.00,1.27
5834.00,1.27
5833.00,1.27
5832.00,1.27
5831.00,1.27
5830.00,1.27
5829.00,1.27
5828.00,1.27
5827.00,1.27
5826.00,1.27
5825.00,1.27
5824.00,1.27
5823.00,1.27
5822.00,1.27
5821.00,1.27
5820.00,1.27
5819.00,1.27
5818.00,1.27
5817.00,1.27
5816.00,1.27
5815.00,1.27
5814.00,1.27
5813.00,1.27
5812.00,1.27
5811.00,1.27
5810.00,1.27
5809.00,1.27
5808.00,1.27
5807.00,1.27
5806.00,1.27
5805.00,1.26
5804.00,1.26
5803.00,1.26
5802.00,1.26
5801.00,1.26
5800.00,1.25
5799.00,1.25
5798.00,1.25
5797.00,1.25
5796.00,1.25
5795.00,1.24
5794.00,1.24
5793.00,1.24
5792.00,1.24
5791.00,1.24
5790.00,1.23
5789.00,1.23
5788.00,1.23
5787.00,1.23
5786.00,1.23
5785.00,1.23
5784.00,1.22
5783.00,1.22
5782.00,1.22
5781.00,1.22
5780.00,1.22
5779.00,1.22
5778.00,1.22
5777.00,1.22
5776.00,1.22
5775.00,1.22
5774.00,1.22
5773.00,1.22
5772.00,1.22
5771.00,1.22
5770.00,1.22
5769.00,1.22
5768.00,1.22
5767.00,1.22
5766.00,1.22
5765.00,1.22
5764.00,1.23
5763.00,1.23
5762.00,1.23
5761.00,1.23
5760.00,1.24
5759.00,1.24
5758.00,1.24
5757.00,1.24
5756.00,1.25
5755.00,1.25
5754.00,1.25
5753.00,1.26
5752.00,1.26
5751.00,1.26
5750.00,1.27
5749.00,1.27
5748.00,1.27
5747.00,1.28
5746.00,1.28
5745.00,1.28
5744.00,1.28
5743.00,1.29
5742.00,1.29
5741.00,1.29
5740.00,1.29
5739.00,1.29
5738.00,1.29
5737.00,1.30
5736.00,1.30
5735.00,1.30
5734.00,1.30
5733.00,1.30
5732.00,1.30
5731.00,1.30
5730.00,1.30
5729.00,1.30
5728.00,1.30
5727.00,1.30
5726.00,1.30
5725.00,1.30
5724.00,1.30
5723.00,1.30
5722.00,1.30
5721.00,1.30
5720.00,1.30
5719.00,1.30
5718.00,1.30
5717.00,1.30
5716.00,1.30
5715.00,1.30
5714.00,1.30
5713.00,1.30
5712.00,1.30
5711.00,1.30
5710.00,1.30
5709.00,1.30
5708.00,1.30
5707.00,1.30
5706.00,1.30
5705.00,1.30
5704.00,1.30
5703.00,1.30
5702.00,1.30
5701.00,1.30
5700.00,1.29
5699.00,1.29
5698.00,1.29
5697.00,1.29
5696.00,1.29
5695.00,1.29
5694.00,1.28
5693.00,1.28
5692.00,1.28
5691.00,1.28
5690.00,1.28
5689.00,1.27
5688.00,1.27
5687.00,1.27
5686.00,1.27
5685.00,1.27
5684.00,1.27
5683.00,1.27
5682.00,1.26
5681.00,1.26
5680.00,1.26
5679.00,1.26
5678.00,1.26
5677.00,1.26
5676.00,1.26
5675.00,1.26
5674.00,1.26
5673.00,1.26
5672.00,1.26
5671.00,1.26
5670.00,1.26
5669.00,1.26
5668.00,1.26
5667.00,1.26
5666.00,1.26
5665.00,1.26
5664.00,1.26
5663.00,1.26
5662.00,1.26
5661.00,1.26
5660.00,1.27
5659.00,1.27
5658.00,1.27
5657.00,1.27
5656.00,1.27
5655.00,1.27
5654.00,1.28
5653.00,1.28
5652.00,1.28
5651.00,1.28
5650.00,1.28
5649.00,1.29
5648.00,1.29
5647.00,1.29
5646.00,1.29
5645.00,1.29
5644.00,1.30
5643.00,1.30
5642.00,1.30
5641.00,1.30
5640.00,1.30
5639.00,1.30
5638.00,1.30
5637.00,1.30
5636.00,1.31
5635.00,1.31
5634.00,1.31
5633.00,1.31
5632.00,1.31
5631.00,1.31
5630.00,1.31
5629.00,1.32
5628.00,1.32
5627.00,1.32
5626.00,1.32
5625.00,1.32
5624.00,1.32
5623.00,1.32
5622.00,1.32
5621.00,1.32
5620.00,1.32
5619.00,1.32
5618.00,1.33
5617.00,1.33
5616.00,1.33
5615.00,1.33
5614.00,1.33
5613.00,1.33
5612.00,1.33
5611.00,1.33
5610.00,1.33
5609.00,1.34
5608.00,1.34
5607.00,1.34
5606.00,1.34
5605.00,1.34
5604.00,1.34
5603.00,1.35
5602.00,1.35
5601.00,1.35
5600.00,1.35
5599.00,1.35
5598.00,1.36
5597.00,1.36
5596.00,1.36
5595.00,1.36
5594.00,1.36
5593.00,1.37
5592.00,1.37
5591.00,1.37
5590.00,1.37
5589.00,1.37
5588.00,1.37
5587.00,1.38
5586.00,1.38
5585.00,1.38
5584.00,1.38
5583.00,1.38
5582.00,1.38
5581.00,1.38
5580.00,1.38
5579.00,1.38
5578.00,1.39
5577.00,1.39
5576.00,1.39
5575.00,1.39
5574.00,1.39
5573.00,1.39
5572.00,1.39
5571.00,1.39
5570.00,1.39
5569.00,1.39
5568.00,1.39
5567.00,1.39
5566.00,1.40
5565.00,1.40
5564.00,1.40
5563.00,1.40
5562.00,1.40
5561.00,1.40
5560.00,1.40
5559.00,1.40
5558.00,1.40
5557.00,1.40
5556.00,1.41
5555.00,1.41
5554.00,1.41
5553.00,1.41
5552.00,1.41
5551.00,1.41
5550.00,1.42
5549.00,1.42
5548.00,1.42
5547.00,1.42
5546.00,1.42
5545.00,1.42
5544.00,1.43
5543.00,1.43
5542.00,1.43
5541.00,1.43
5540.00,1.43
5539.00,1.43
5538.00,1.43
5537.00,1.43
5536.00,1.43
5535.00,1.44
5534.00,1.44
5533.00,1.44
5532.00,1.44
5531.00,1.44
5530.00,1.44
5529.00,1.44
5528.00,1.44
5527.00,1.44
5526.00,1.44
5525.00,1.44
5524.00,1.44
5523.00,1.44
5522.00,1.44
5521.00,1.44
5520.00,1.44
5519.00,1.45
5518.00,1.45
5517.00,1.45
5516.00,1.45
5515.00,1.45
5514.00,1.45
5513.00,1.45
5512.00,1.45
5511.00,1.45
5510.00,1.45
5509.00,1.45
5508.00,1.45
5507.00,1.45
5506.00,1.46
5505.00,1.46
5504.00,1.46
5503.00,1.46
5502.00,1.46
5501.00,1.46
5500.00,1.46
5499.00,1.46
5498.00,1.46
5497.00,1.46
5496.00,1.46
5495.00,1.46
5494.00,1.46
5493.00,1.47
5492.00,1.47
5491.00,1.47
5490.00,1.47
5489.00,1.47
5488.00,1.47
5487.00,1.48
5486.00,1.48
5485.00,1.48
5484.00,1.48
5483.00,1.48
5482.00,1.48
5481.00,1.49
5480.00,1.49
5479.00,1.49
5478.00,1.49
5477.00,1.49
5476.00,1.49
5475.00,1.49
5474.00,1.49
5473.00,1.49
5472.00,1.49
5471.00,1.49
5470.00,1.49
5469.00,1.49
5468.00,1.49
5467.00,1.49
5466.00,1.49
5465.00,1.49
5464.00,1.49
5463.00,1.49
5462.00,1.49
5461.00,1.49
5460.00,1.49
5459.00,1.49
5458.00,1.50
5457.00,1.50
5456.00,1.50
5455.00,1.50
5454.00,1.50
5453.00,1.50
5452.00,1.50
5451.00,1.50
5450.00,1.50
5449.00,1.50
5448.00,1.50
5447.00,1.50
5446.00,1.50
5445.00,1.50
5444.00,1.50
5443.00,1.50
5442.00,1.50
5441.00,1.50
5440.00,1.50
5439.00,1.50
5438.00,1.50
5437.00,1.50
5436.00,1.50
5435.00,1.50
5434.00,1.50
5433.00,1.50
5432.00,1.50
5431.00,1.50
5430.00,1.50
5429.00,1.50
5428.00,1.50
5427.00,1.50
5426.00,1.50
5425.00,1.50
5424.00,1.50
5423.00,1.50
5422.00,1.50
5421.00,1.50
5420.00,1.49
5419.00,1.49
5418.00,1.49
5417.00,1.49
5416.00,1.49
5415.00,1.49
5414.00,1.49
5413.00,1.49
5412.00,1.49
5411.00,1.49
5410.00,1.48
5409.00,1.48
5408.00,1.48
5407.00,1.48
5406.00,1.48
5405.00,1.48
5404.00,1.48
5403.00,1.48
5402.00,1.48
5401.00,1.48
5400.00,1.48
5399.00,1.48
5398.00,1.47
5397.00,1.47
5396.00,1.47
5395.00,1.47
5394.00,1.47
5393.00,1.46
5392.00,1.46
5391.00,1.46
5390.00,1.46
5389.00,1.45
5388.00,1.45
5387.00,1.45
5386.00,1.44
5385.00,1.44
5384.00,1.44
5383.00,1.43
5382.00,1.43
5381.00,1.42
5380.00,1.42
5379.00,1.42
5378.00,1.41
5377.00,1.41
5376.00,1.40
5375.00,1.40
5374.00,1.39
5373.00,1.39
5372.00,1.38
5371.00,1.38
5370.00,1.37
5369.00,1.37
5368.00,1.36
5367.00,1.36
5366.00,1.35
5365.00,1.35
5364.00,1.34
5363.00,1.33
5362.00,1.33
5361.00,1.32
5360.00,1.31
5359.00,1.30
5358.00,1.30
5357.00,1.29
5356.00,1.28
5355.00,1.27
5354.00,1.26
5353.00,1.25
5352.00,1.24
5351.00,1.23
5350.00,1.23
5349.00,1.22
5348.00,1.21
5347.00,1.20
5346.00,1.19
5345.00,1.18
5344.00,1.18
5343.00,1.17
5342.00,1.16
5341.00,1.16
5340.00,1.15
5339.00,1.14
5338.00,1.14
5337.00,1.13
5336.00,1.12
5335.00,1.12
5334.00,1.11
5333.00,1.11
5332.00,1.10
5331.00,1.10
5330.00,1.09
5329.00,1.09
5328.00,1.08
5327.00,1.08
5326.00,1.07
5325.00,1.07
5324.00,1.06
5323.00,1.06
5322.00,1.05
5321.00,1.05
5320.00,1.05
5319.00,1.04
5318.00,1.04
5317.00,1.03
5316.00,1.03
5315.00,1.03
5314.00,1.02
5313.00,1.02
5312.00,1.02
5311.00,1.01
5310.00,1.01
5309.00,1.01
5308.00,1.01
5307.00,1.00
5306.00,1.00
5305.00,1.00
5304.00,1.00
5303.00,1.00
5302.00,1.00
5301.00,0.99
5300.00,0.99
5299.00,0.99
5298.00,0.99
5297.00,0.99
5296.00,0.99
5295.00,0.99
5294.00,0.99
5293.00,0.99
5292.00,0.99
5291.00,0.99
5290.00,0.99
5289.00,0.99
5288.00,0.99
5287.00,0.99
5286.00,0.99
5285.00,0.99
5284.00,0.99
5283.00,0.99
5282.00,0.99
5281.00,0.99
5280.00,0.99
5279.00,0.99
5278.00,0.99
5277.00,0.99
5276.00,0.99
5275.00,0.99
5274.00,0.99
5273.00,0.99
5272.00,0.99
5271.00,0.98
5270.00,0.98
5269.00,0.98
5268.00,0.98
5267.00,0.98
5266.00,0.98
5265.00,0.98
5264.00,0.98
5263.00,0.98
5262.00,0.98
5261.00,0.98
5260.00,0.98
5259.00,0.98
5258.00,0.98
5257.00,0.98
5256.00,0.98
5255.00,0.98
5254.00,0.98
5253.00,0.98
5252.00,0.98
5251.00,0.98
5250.00,0.98
5249.00,0.98
5248.00,0.98
5247.00,0.98
5246.00,0.98
5245.00,0.98
5244.00,0.98
5243.00,0.99
5242.00,0.99
5241.00,0.99
5240.00,0.99
5239.00,0.99
5238.00,0.99
5237.00,0.99
5236.00,0.99
5235.00,0.99
5234.00,0.99
5233.00,0.99
5232.00,0.99
5231.00,0.99
5230.00,0.99
5229.00,0.99
5228.00,0.99
5227.00,0.99
5226.00,0.99
5225.00,0.99
5224.00,0.99
5223.00,0.99
5222.00,0.99
5221.00,0.99
5220.00,0.99
5219.00,0.99
5218.00,0.99
5217.00,0.99
5216.00,1.00
5215.00,1.00
5214.00,1.00
5213.00,1.00
5212.00,1.00
5211.00,1.00
5210.00,1.00
5209.00,1.00
5208.00,1.00
5207.00,1.00
5206.00,1.00
5205.00,1.00
5204.00,1.00
5203.00,1.00
5202.00,1.00
5201.00,1.00
5200.00,1.00
5199.00,1.00
5198.00,1.00
5197.00,1.01
5196.00,1.01
5195.00,1.01
5194.00,1.01
5193.00,1.01
5192.00,1.01
5191.00,1.01
5190.00,1.01
5189.00,1.01
5188.00,1.01
5187.00,1.01
5186.00,1.01
5185.00,1.01
5184.00,1.01
5183.00,1.01
5182.00,1.01
5181.00,1.01
5180.00,1.01
5179.00,1.01
5178.00,1.01
5177.00,1.02
5176.00,1.02
5175.00,1.02
5174.00,1.02
5173.00,1.02
5172.00,1.02
5171.00,1.02
5170.00,1.02
5169.00,1.02
5168.00,1.02
5167.00,1.02
5166.00,1.02
5165.00,1.03
5164.00,1.03
5163.00,1.03
5162.00,1.03
5161.00,1.03
5160.00,1.03
5159.00,1.03
5158.00,1.03
5157.00,1.03
5156.00,1.03
5155.00,1.03
5154.00,1.03
5153.00,1.03
5152.00,1.03
5151.00,1.03
5150.00,1.03
5149.00,1.03
5148.00,1.03
5147.00,1.03
5146.00,1.03
5145.00,1.03
5144.00,1.03
5143.00,1.03
5142.00,1.03
5141.00,1.03
5140.00,1.03
5139.00,1.03
5138.00,1.03
5137.00,1.03
5136.00,1.03
5135.00,1.03
5134.00,1.03
5133.00,1.04
5132.00,1.04
5131.00,1.04
5130.00,1.04
5129.00,1.04
5128.00,1.04
5127.00,1.04
5126.00,1.04
5125.00,1.04
5124.00,1.04
5123.00,1.04
5122.00,1.04
5121.00,1.04
5120.00,1.04
5119.00,1.04
5118.00,1.04
5117.00,1.04
5116.00,1.04
5115.00,1.04
5114.00,1.04
5113.00,1.04
5112.00,1.04
5111.00,1.04
5110.00,1.04
5109.00,1.04
5108.00,1.04
5107.00,1.04
5106.00,1.04
5105.00,1.04
5104.00,1.04
5103.00,1.04
5102.00,1.04
5101.00,1.04
5100.00,1.04
5099.00,1.04
5098.00,1.04
5097.00,1.05
5096.00,1.05
5095.00,1.05
5094.00,1.05
5093.00,1.05
5092.00,1.05
5091.00,1.05
5090.00,1.05
5089.00,1.05
5088.00,1.05
5087.00,1.05
5086.00,1.05
5085.00,1.05
5084.00,1.05
5083.00,1.05
5082.00,1.05
5081.00,1.05
5080.00,1.06
5079.00,1.06
5078.00,1.06
5077.00,1.06
5076.00,1.06
5075.00,1.06
5074.00,1.06
5073.00,1.06
5072.00,1.06
5071.00,1.06
5070.00,1.05
5069.00,1.05
5068.00,1.05
5067.00,1.05
5066.00,1.05
5065.00,1.05
5064.00,1.05
5063.00,1.05
5062.00,1.05
5061.00,1.05
5060.00,1.05
5059.00,1.05
5058.00,1.05
5057.00,1.05
5056.00,1.05
5055.00,1.05
5054.00,1.06
5053.00,1.06
5052.00,1.06
5051.00,1.06
5050.00,1.06
5049.00,1.06
5048.00,1.06
5047.00,1.06
5046.00,1.07
5045.00,1.07
5044.00,1.07
5043.00,1.07
5042.00,1.07
5041.00,1.07
5040.00,1.07
5039.00,1.07
5038.00,1.07
5037.00,1.08
5036.00,1.08
5035.00,1.08
5034.00,1.08
5033.00,1.08
5032.00,1.08
5031.00,1.08
5030.00,1.08
5029.00,1.08
5028.00,1.08
5027.00,1.08
5026.00,1.08
5025.00,1.08
5024.00,1.08
5023.00,1.08
5022.00,1.08
5021.00,1.08
5020.00,1.08
5019.00,1.08
5018.00,1.08
5017.00,1.08
5016.00,1.08
5015.00,1.08
5014.00,1.08
5013.00,1.08
5012.00,1.08
5011.00,1.08
5010.00,1.09
5009.00,1.09
5008.00,1.09
5007.00,1.09
5006.00,1.09
5005.00,1.09
5004.00,1.09
5003.00,1.09
5002.00,1.09
5001.00,1.09
5000.00,1.09
4999.00,1.09
4998.00,1.09
4997.00,1.09
4996.00,1.09
4995.00,1.09
4994.00,1.09
4993.00,1.09
4992.00,1.09
4991.00,1.09
4990.00,1.09
4989.00,1.09
4988.00,1.09
4987.00,1.09
4986.00,1.09
4985.00,1.09
4984.00,1.09
4983.00,1.09
4982.00,1.09
4981.00,1.09
4980.00,1.09
4979.00,1.09
4978.00,1.09
4977.00,1.09
4976.00,1.09
4975.00,1.09
4974.00,1.09
4973.00,1.09
4972.00,1.09
4971.00,1.09
4970.00,1.09
4969.00,1.09
4968.00,1.09
4967.00,1.09
4966.00,1.09
4965.00,1.09
4964.00,1.09
4963.00,1.09
4962.00,1.09
4961.00,1.09
4960.00,1.09
4959.00,1.09
4958.00,1.09
4957.00,1.09
4956.00,1.09
4955.00,1.09
4954.00,1.09
4953.00,1.09
4952.00,1.10
4951.00,1.10
4950.00,1.10
4949.00,1.10
4948.00,1.10
4947.00,1.10
4946.00,1.10
4945.00,1.10
4944.00,1.11
4943.00,1.11
4942.00,1.11
4941.00,1.11
4940.00,1.11
4939.00,1.11
4938.00,1.11
4937.00,1.12
4936.00,1.12
4935.00,1.12
4934.00,1.12
4933.00,1.12
4932.00,1.12
4931.00,1.12
4930.00,1.12
4929.00,1.12
4928.00,1.12
4927.00,1.12
4926.00,1.12
4925.00,1.12
4924.00,1.12
4923.00,1.12
4922.00,1.12
4921.00,1.12
4920.00,1.12
4919.00,1.12
4918.00,1.12
4917.00,1.11
4916.00,1.11
4915.00,1.11
4914.00,1.11
4913.00,1.11
4912.00,1.11
4911.00,1.12
4910.00,1.12
4909.00,1.12
4908.00,1.12
4907.00,1.12
4906.00,1.12
4905.00,1.12
4904.00,1.12
4903.00,1.12
4902.00,1.13
4901.00,1.13
4900.00,1.13
4899.00,1.13
4898.00,1.13
4897.00,1.13
4896.00,1.13
4895.00,1.13
4894.00,1.13
4893.00,1.13
4892.00,1.13
4891.00,1.13
4890.00,1.13
4889.00,1.13
4888.00,1.14
4887.00,1.14
4886.00,1.14
4885.00,1.14
4884.00,1.14
4883.00,1.14
4882.00,1.14
4881.00,1.14
4880.00,1.14
4879.00,1.14
4878.00,1.14
4877.00,1.14
4876.00,1.14
4875.00,1.14
4874.00,1.14
4873.00,1.14
4872.00,1.14
4871.00,1.15
4870.00,1.15
4869.00,1.15
4868.00,1.15
4867.00,1.15
4866.00,1.15
4865.00,1.15
4864.00,1.15
4863.00,1.15
4862.00,1.15
4861.00,1.15
4860.00,1.15
4859.00,1.15
4858.00,1.15
4857.00,1.15
4856.00,1.15
4855.00,1.15
4854.00,1.15
4853.00,1.15
4852.00,1.15
4851.00,1.15
4850.00,1.15
4849.00,1.15
4848.00,1.15
4847.00,1.15
4846.00,1.15
4845.00,1.15
4844.00,1.15
4843.00,1.15
4842.00,1.15
4841.00,1.15
4840.00,1.15
4839.00,1.15
4838.00,1.16
4837.00,1.16
4836.00,1.16
4835.00,1.16
4834.00,1.16
4833.00,1.16
4832.00,1.16
4831.00,1.16
4830.00,1.16
4829.00,1.16
4828.00,1.16
4827.00,1.16
4826.00,1.16
4825.00,1.16
4824.00,1.16
4823.00,1.16
4822.00,1.16
4821.00,1.16
4820.00,1.16
4819.00,1.16
4818.00,1.16
4817.00,1.16
4816.00,1.17
4815.00,1.17
4814.00,1.17
4813.00,1.17
4812.00,1.17
4811.00,1.17
4810.00,1.17
4809.00,1.17
4808.00,1.17
4807.00,1.17
4806.00,1.17
4805.00,1.17
4804.00,1.17
4803.00,1.17
4802.00,1.17
4801.00,1.17
4800.00,1.17
4799.00,1.18
4798.00,1.18
4797.00,1.18
4796.00,1.18
4795.00,1.18
4794.00,1.18
4793.00,1.18
4792.00,1.18
4791.00,1.18
4790.00,1.18
4789.00,1.18
4788.00,1.18
4787.00,1.18
4786.00,1.19
4785.00,1.19
4784.00,1.19
4783.00,1.19
4782.00,1.19
4781.00,1.19
4780.00,1.19
4779.00,1.19
4778.00,1.19
4777.00,1.19
4776.00,1.19
4775.00,1.19
4774.00,1.19
4773.00,1.19
4772.00,1.19
4771.00,1.19
4770.00,1.19
4769.00,1.19
4768.00,1.19
4767.00,1.20
4766.00,1.20
4765.00,1.20
4764.00,1.20
4763.00,1.20
4762.00,1.20
4761.00,1.20
4760.00,1.20
4759.00,1.20
4758.00,1.21
4757.00,1.21
4756.00,1.21
4755.00,1.21
4754.00,1.21
4753.00,1.21
4752.00,1.21
4751.00,1.21
4750.00,1.21
4749.00,1.21
4748.00,1.21
4747.00,1.21
4746.00,1.22
4745.00,1.22
4744.00,1.22
4743.00,1.22
4742.00,1.22
4741.00,1.22
4740.00,1.22
4739.00,1.22
4738.00,1.22
4737.00,1.22
4736.00,1.22
4735.00,1.22
4734.00,1.22
4733.00,1.22
4732.00,1.22
4731.00,1.22
4730.00,1.23
4729.00,1.23
4728.00,1.23
4727.00,1.23
4726.00,1.23
4725.00,1.23
4724.00,1.23
4723.00,1.23
4722.00,1.23
4721.00,1.23
4720.00,1.23
4719.00,1.23
4718.00,1.23
4717.00,1.23
4716.00,1.23
4715.00,1.24
4714.00,1.24
4713.00,1.24
4712.00,1.24
4711.00,1.24
4710.00,1.24
4709.00,1.24
4708.00,1.25
4707.00,1.25
4706.00,1.25
4705.00,1.25
4704.00,1.25
4703.00,1.25
4702.00,1.26
4701.00,1.26
4700.00,1.26
4699.00,1.26
4698.00,1.26
4697.00,1.26
4696.00,1.26
4695.00,1.26
4694.00,1.26
4693.00,1.26
4692.00,1.26
4691.00,1.26
4690.00,1.26
4689.00,1.26
4688.00,1.27
4687.00,1.27
4686.00,1.27
4685.00,1.27
4684.00,1.27
4683.00,1.27
4682.00,1.27
4681.00,1.27
4680.00,1.27
4679.00,1.27
4678.00,1.27
4677.00,1.28
4676.00,1.28
4675.00,1.28
4674.00,1.28
4673.00,1.28
4672.00,1.28
4671.00,1.28
4670.00,1.28
4669.00,1.28
4668.00,1.28
4667.00,1.28
4666.00,1.28
4665.00,1.28
4664.00,1.28
4663.00,1.28
4662.00,1.28
4661.00,1.28
4660.00,1.29
4659.00,1.29
4658.00,1.29
4657.00,1.29
4656.00,1.29
4655.00,1.29
4654.00,1.29
4653.00,1.29
4652.00,1.29
4651.00,1.30
4650.00,1.30
4649.00,1.30
4648.00,1.30
4647.00,1.30
4646.00,1.30
4645.00,1.31
4644.00,1.31
4643.00,1.31
4642.00,1.31
4641.00,1.31
4640.00,1.31
4639.00,1.31
4638.00,1.31
4637.00,1.31
4636.00,1.31
4635.00,1.31
4634.00,1.31
4633.00,1.31
4632.00,1.31
4631.00,1.31
4630.00,1.30
4629.00,1.30
4628.00,1.30
4627.00,1.30
4626.00,1.30
4625.00,1.30
4624.00,1.30
4623.00,1.30
4622.00,1.30
4621.00,1.30
4620.00,1.30
4619.00,1.30
4618.00,1.30
4617.00,1.30
4616.00,1.30
4615.00,1.30
4614.00,1.30
4613.00,1.30
4612.00,1.30
4611.00,1.30
4610.00,1.30
4609.00,1.30
4608.00,1.31
4607.00,1.31
4606.00,1.31
4605.00,1.31
4604.00,1.31
4603.00,1.31
4602.00,1.31
4601.00,1.32
4600.00,1.32
4599.00,1.32
4598.00,1.32
4597.00,1.32
4596.00,1.32
4595.00,1.32
4594.00,1.32
4593.00,1.32
4592.00,1.32
4591.00,1.32
4590.00,1.33
4589.00,1.33
4588.00,1.33
4587.00,1.33
4586.00,1.33
4585.00,1.33
4584.00,1.33
4583.00,1.33
4582.00,1.33
4581.00,1.33
4580.00,1.33
4579.00,1.33
4578.00,1.33
4577.00,1.34
4576.00,1.34
4575.00,1.34
4574.00,1.34
4573.00,1.34
4572.00,1.34
4571.00,1.34
4570.00,1.34
4569.00,1.34
4568.00,1.34
4567.00,1.34
4566.00,1.34
4565.00,1.34
4564.00,1.34
4563.00,1.34
4562.00,1.34
4561.00,1.34
4560.00,1.34
4559.00,1.34
4558.00,1.34
4557.00,1.34
4556.00,1.34
4555.00,1.34
4554.00,1.34
4553.00,1.34
4552.00,1.34
4551.00,1.34
4550.00,1.35
4549.00,1.35
4548.00,1.35
4547.00,1.35
4546.00,1.35
4545.00,1.35
4544.00,1.35
4543.00,1.35
4542.00,1.35
4541.00,1.35
4540.00,1.35
4539.00,1.35
4538.00,1.35
4537.00,1.35
4536.00,1.35
4535.00,1.35
4534.00,1.35
4533.00,1.35
4532.00,1.35
4531.00,1.35
4530.00,1.35
4529.00,1.35
4528.00,1.35
4527.00,1.35
4526.00,1.35
4525.00,1.35
4524.00,1.35
4523.00,1.35
4522.00,1.35
4521.00,1.34
4520.00,1.34
4519.00,1.35
4518.00,1.35
4517.00,1.35
4516.00,1.35
4515.00,1.35
4514.00,1.35
4513.00,1.35
4512.00,1.35
4511.00,1.35
4510.00,1.35
4509.00,1.35
4508.00,1.35
4507.00,1.36
4506.00,1.36
4505.00,1.36
4504.00,1.36
4503.00,1.36
4502.00,1.36
4501.00,1.36
4500.00,1.36
4499.00,1.36
4498.00,1.36
4497.00,1.36
4496.00,1.36
4495.00,1.36
4494.00,1.36
4493.00,1.36
4492.00,1.36
4491.00,1.36
4490.00,1.36
4489.00,1.36
4488.00,1.36
4487.00,1.36
4486.00,1.36
4485.00,1.36
4484.00,1.36
4483.00,1.36
4482.00,1.35
4481.00,1.35
4480.00,1.35
4479.00,1.35
4478.00,1.35
4477.00,1.35
4476.00,1.35
4475.00,1.35
4474.00,1.34
4473.00,1.34
4472.00,1.34
4471.00,1.34
4470.00,1.34
4469.00,1.34
4468.00,1.34
4467.00,1.34
4466.00,1.34
4465.00,1.34
4464.00,1.34
4463.00,1.34
4462.00,1.34
4461.00,1.34
4460.00,1.34
4459.00,1.34
4458.00,1.34
4457.00,1.34
4456.00,1.34
4455.00,1.34
4454.00,1.34
4453.00,1.34
4452.00,1.34
4451.00,1.34
4450.00,1.33
4449.00,1.33
4448.00,1.33
4447.00,1.33
4446.00,1.33
4445.00,1.33
4444.00,1.33
4443.00,1.33
4442.00,1.32
4441.00,1.32
4440.00,1.32
4439.00,1.32
4438.00,1.32
4437.00,1.32
4436.00,1.32
4435.00,1.32
4434.00,1.31
4433.00,1.31
4432.00,1.31
4431.00,1.31
4430.00,1.31
4429.00,1.31
4428.00,1.31
4427.00,1.31
4426.00,1.31
4425.00,1.31
4424.00,1.31
4423.00,1.31
4422.00,1.31
4421.00,1.31
4420.00,1.31
4419.00,1.31
4418.00,1.31
4417.00,1.31
4416.00,1.31
4415.00,1.31
4414.00,1.31
4413.00,1.31
4412.00,1.31
4411.00,1.31
4410.00,1.31
4409.00,1.31
4408.00,1.31
4407.00,1.31
4406.00,1.32
4405.00,1.32
4404.00,1.32
4403.00,1.32
4402.00,1.32
4401.00,1.32
4400.00,1.32
4399.00,1.32
4398.00,1.32
4397.00,1.32
4396.00,1.32
4395.00,1.32
4394.00,1.32
4393.00,1.32
4392.00,1.32
4391.00,1.32
4390.00,1.32
4389.00,1.32
4388.00,1.32
4387.00,1.32
4386.00,1.32
4385.00,1.32
4384.00,1.32
4383.00,1.32
4382.00,1.32
4381.00,1.32
4380.00,1.32
4379.00,1.32
4378.00,1.32
4377.00,1.32
4376.00,1.32
4375.00,1.32
4374.00,1.32
4373.00,1.32
4372.00,1.32
4371.00,1.33
4370.00,1.33
4369.00,1.33
4368.00,1.33
4367.00,1.33
4366.00,1.33
4365.00,1.33
4364.00,1.34
4363.00,1.34
4362.00,1.34
4361.00,1.34
4360.00,1.34
4359.00,1.34
4358.00,1.34
4357.00,1.34
4356.00,1.34
4355.00,1.34
4354.00,1.34
4353.00,1.34
4352.00,1.34
4351.00,1.34
4350.00,1.34
4349.00,1.34
4348.00,1.34
4347.00,1.34
4346.00,1.34
4345.00,1.34
4344.00,1.34
4343.00,1.34
4342.00,1.34
4341.00,1.34
4340.00,1.34
4339.00,1.34
4338.00,1.34
4337.00,1.34
4336.00,1.34
4335.00,1.34
4334.00,1.34
4333.00,1.34
4332.00,1.34
4331.00,1.34
4330.00,1.34
4329.00,1.34
4328.00,1.35
4327.00,1.35
4326.00,1.35
4325.00,1.35
4324.00,1.35
4323.00,1.35
4322.00,1.35
4321.00,1.36
4320.00,1.36
4319.00,1.36
4318.00,1.36
4317.00,1.36
4316.00,1.36
4315.00,1.36
4314.00,1.36
4313.00,1.36
4312.00,1.36
4311.00,1.37
4310.00,1.37
4309.00,1.37
4308.00,1.37
4307.00,1.37
4306.00,1.37
4305.00,1.37
4304.00,1.37
4303.00,1.37
4302.00,1.37
4301.00,1.37
4300.00,1.37
4299.00,1.37
4298.00,1.37
4297.00,1.37
4296.00,1.37
4295.00,1.37
4294.00,1.37
4293.00,1.37
4292.00,1.38
4291.00,1.38
4290.00,1.38
4289.00,1.38
4288.00,1.38
4287.00,1.38
4286.00,1.38
4285.00,1.39
4284.00,1.39
4283.00,1.39
4282.00,1.39
4281.00,1.39
4280.00,1.39
4279.00,1.39
4278.00,1.39
4277.00,1.39
4276.00,1.39
4275.00,1.39
4274.00,1.39
4273.00,1.39
4272.00,1.39
4271.00,1.40
4270.00,1.40
4269.00,1.40
4268.00,1.40
4267.00,1.40
4266.00,1.40
4265.00,1.40
4264.00,1.40
4263.00,1.40
4262.00,1.40
4261.00,1.40
4260.00,1.40
4259.00,1.40
4258.00,1.40
4257.00,1.40
4256.00,1.40
4255.00,1.40
4254.00,1.40
4253.00,1.40
4252.00,1.40
4251.00,1.40
4250.00,1.40
4249.00,1.40
4248.00,1.40
4247.00,1.40
4246.00,1.40
4245.00,1.40
4244.00,1.40
4243.00,1.40
4242.00,1.40
4241.00,1.40
4240.00,1.40
4239.00,1.40
4238.00,1.40
4237.00,1.40
4236.00,1.40
4235.00,1.40
4234.00,1.40
4233.00,1.40
4232.00,1.40
4231.00,1.40
4230.00,1.40
4229.00,1.40
4228.00,1.40
4227.00,1.40
4226.00,1.40
4225.00,1.40
4224.00,1.40
4223.00,1.40
4222.00,1.40
4221.00,1.40
4220.00,1.40
4219.00,1.40
4218.00,1.40
4217.00,1.40
4216.00,1.40
4215.00,1.40
4214.00,1.40
4213.00,1.40
4212.00,1.40
4211.00,1.40
4210.00,1.40
4209.00,1.40
4208.00,1.40
4207.00,1.40
4206.00,1.40
4205.00,1.40
4204.00,1.40
4203.00,1.40
4202.00,1.40
4201.00,1.40
4200.00,1.40
4199.00,1.40
4198.00,1.40
4197.00,1.40
4196.00,1.40
4195.00,1.40
4194.00,1.40
4193.00,1.40
4192.00,1.40
4191.00,1.40
4190.00,1.41
4189.00,1.41
4188.00,1.41
4187.00,1.41
4186.00,1.41
4185.00,1.41
4184.00,1.41
4183.00,1.41
4182.00,1.42
4181.00,1.42
4180.00,1.42
4179.00,1.42
4178.00,1.42
4177.00,1.42
4176.00,1.42
4175.00,1.42
4174.00,1.42
4173.00,1.43
4172.00,1.43
4171.00,1.43
4170.00,1.43
4169.00,1.43
4168.00,1.43
4167.00,1.43
4166.00,1.43
4165.00,1.43
4164.00,1.44
4163.00,1.44
4162.00,1.44
4161.00,1.44
4160.00,1.44
4159.00,1.44
4158.00,1.44
4157.00,1.44
4156.00,1.44
4155.00,1.45
4154.00,1.45
4153.00,1.45
4152.00,1.45
4151.00,1.45
4150.00,1.45
4149.00,1.45
4148.00,1.45
4147.00,1.45
4146.00,1.45
4145.00,1.45
4144.00,1.45
4143.00,1.45
4142.00,1.45
4141.00,1.45
4140.00,1.45
4139.00,1.46
4138.00,1.46
4137.00,1.46
4136.00,1.46
4135.00,1.46
4134.00,1.46
4133.00,1.46
4132.00,1.46
4131.00,1.46
4130.00,1.46
4129.00,1.46
4128.00,1.46
4127.00,1.46
4126.00,1.46
4125.00,1.46
4124.00,1.46
4123.00,1.46
4122.00,1.46
4121.00,1.46
4120.00,1.46
4119.00,1.46
4118.00,1.46
4117.00,1.46
4116.00,1.46
4115.00,1.46
4114.00,1.46
4113.00,1.46
4112.00,1.46
4111.00,1.46
4110.00,1.46
4109.00,1.46
4108.00,1.46
4107.00,1.47
4106.00,1.47
4105.00,1.47
4104.00,1.47
4103.00,1.47
4102.00,1.47
4101.00,1.47
4100.00,1.47
4099.00,1.47
4098.00,1.47
4097.00,1.47
4096.00,1.47
4095.00,1.47
4094.00,1.47
4093.00,1.47
4092.00,1.47
4091.00,1.47
4090.00,1.47
4089.00,1.47
4088.00,1.47
4087.00,1.47
4086.00,1.47
4085.00,1.47
4084.00,1.47
4083.00,1.47
4082.00,1.47
4081.00,1.47
4080.00,1.47
4079.00,1.47
4078.00,1.47
4077.00,1.47
4076.00,1.47
4075.00,1.48
4074.00,1.48
4073.00,1.48
4072.00,1.48
4071.00,1.48
4070.00,1.48
4069.00,1.48
4068.00,1.48
4067.00,1.48
4066.00,1.48
4065.00,1.48
4064.00,1.48
4063.00,1.48
4062.00,1.48
4061.00,1.48
4060.00,1.48
4059.00,1.48
4058.00,1.48
4057.00,1.48
4056.00,1.49
4055.00,1.49
4054.00,1.49
4053.00,1.49
4052.00,1.49
4051.00,1.49
4050.00,1.49
4049.00,1.49
4048.00,1.49
4047.00,1.49
4046.00,1.49
4045.00,1.49
4044.00,1.49
4043.00,1.49
4042.00,1.49
4041.00,1.49
4040.00,1.49
4039.00,1.49
4038.00,1.49
4037.00,1.49
4036.00,1.49
4035.00,1.49
4034.00,1.49
4033.00,1.49
4032.00,1.49
4031.00,1.49
4030.00,1.49
4029.00,1.49
4028.00,1.49
4027.00,1.49
4026.00,1.49
4025.00,1.49
4024.00,1.49
4023.00,1.49
4022.00,1.49
4021.00,1.50
4020.00,1.50
4019.00,1.50
4018.00,1.50
4017.00,1.50
4016.00,1.50
4015.00,1.50
4014.00,1.50
4013.00,1.50
4012.00,1.50
4011.00,1.50
4010.00,1.50
4009.00,1.50
4008.00,1.50
4007.00,1.50
4006.00,1.50
4005.00,1.50
4004.00,1.50
4003.00,1.50
4002.00,1.50
4001.00,1.50
4000.00,1.50
