创建为新数据集,样品 201 用户 Administrator 日期 星期六, 七月 21 2018
cm-1,%T
10000.00,1.63
9999.00,1.63
9998.00,1.63
9997.00,1.63
9996.00,1.63
9995.00,1.63
9994.00,1.63
9993.00,1.63
9992.00,1.63
9991.00,1.63
9990.00,1.63
9989.00,1.63
9988.00,1.63
9987.00,1.63
9986.00,1.63
9985.00,1.63
9984.00,1.63
9983.00,1.62
9982.00,1.62
9981.00,1.62
9980.00,1.62
9979.00,1.62
9978.00,1.62
9977.00,1.62
9976.00,1.62
9975.00,1.62
9974.00,1.62
9973.00,1.63
9972.00,1.63
9971.00,1.63
9970.00,1.63
9969.00,1.63
9968.00,1.64
9967.00,1.64
9966.00,1.64
9965.00,1.64
9964.00,1.64
9963.00,1.64
9962.00,1.64
9961.00,1.63
9960.00,1.63
9959.00,1.63
9958.00,1.62
9957.00,1.62
9956.00,1.61
9955.00,1.61
9954.00,1.60
9953.00,1.60
9952.00,1.60
9951.00,1.59
9950.00,1.59
9949.00,1.59
9948.00,1.59
9947.00,1.58
9946.00,1.58
9945.00,1.58
9944.00,1.58
9943.00,1.58
9942.00,1.59
9941.00,1.59
9940.00,1.59
9939.00,1.59
9938.00,1.59
9937.00,1.59
9936.00,1.60
9935.00,1.60
9934.00,1.60
9933.00,1.60
9932.00,1.60
9931.00,1.61
9930.00,1.61
9929.00,1.61
9928.00,1.61
9927.00,1.61
9926.00,1.62
9925.00,1.62
9924.00,1.62
9923.00,1.62
9922.00,1.63
9921.00,1.63
9920.00,1.63
9919.00,1.63
9918.00,1.63
9917.00,1.63
9916.00,1.63
9915.00,1.63
9914.00,1.63
9913.00,1.63
9912.00,1.63
9911.00,1.63
9910.00,1.62
9909.00,1.62
9908.00,1.62
9907.00,1.62
9906.00,1.62
9905.00,1.62
9904.00,1.62
9903.00,1.62
9902.00,1.62
9901.00,1.62
9900.00,1.63
9899.00,1.63
9898.00,1.63
9897.00,1.63
9896.00,1.63
9895.00,1.63
9894.00,1.63
9893.00,1.63
9892.00,1.63
9891.00,1.63
9890.00,1.63
9889.00,1.62
9888.00,1.62
9887.00,1.62
9886.00,1.62
9885.00,1.62
9884.00,1.62
9883.00,1.62
9882.00,1.62
9881.00,1.62
9880.00,1.62
9879.00,1.62
9878.00,1.62
9877.00,1.62
9876.00,1.62
9875.00,1.62
9874.00,1.62
9873.00,1.62
9872.00,1.62
9871.00,1.62
9870.00,1.62
9869.00,1.62
9868.00,1.62
9867.00,1.61
9866.00,1.61
9865.00,1.61
9864.00,1.61
9863.00,1.60
9862.00,1.60
9861.00,1.60
9860.00,1.60
9859.00,1.60
9858.00,1.60
9857.00,1.60
9856.00,1.60
9855.00,1.60
9854.00,1.60
9853.00,1.60
9852.00,1.60
9851.00,1.60
9850.00,1.61
9849.00,1.61
9848.00,1.61
9847.00,1.61
9846.00,1.61
9845.00,1.61
9844.00,1.61
9843.00,1.61
9842.00,1.61
9841.00,1.61
9840.00,1.61
9839.00,1.61
9838.00,1.61
9837.00,1.61
9836.00,1.61
9835.00,1.60
9834.00,1.60
9833.00,1.60
9832.00,1.60
9831.00,1.60
9830.00,1.60
9829.00,1.60
9828.00,1.60
9827.00,1.60
9826.00,1.60
9825.00,1.60
9824.00,1.60
9823.00,1.60
9822.00,1.60
9821.00,1.60
9820.00,1.60
9819.00,1.60
9818.00,1.59
9817.00,1.59
9816.00,1.59
9815.00,1.59
9814.00,1.59
9813.00,1.59
9812.00,1.59
9811.00,1.59
9810.00,1.59
9809.00,1.59
9808.00,1.59
9807.00,1.59
9806.00,1.59
9805.00,1.59
9804.00,1.59
9803.00,1.59
9802.00,1.59
9801.00,1.59
9800.00,1.59
9799.00,1.59
9798.00,1.59
9797.00,1.59
9796.00,1.59
9795.00,1.59
9794.00,1.59
9793.00,1.60
9792.00,1.60
9791.00,1.60
9790.00,1.60
9789.00,1.60
9788.00,1.60
9787.00,1.60
9786.00,1.61
9785.00,1.61
9784.00,1.61
9783.00,1.61
9782.00,1.62
9781.00,1.62
9780.00,1.62
9779.00,1.62
9778.00,1.62
9777.00,1.62
9776.00,1.62
9775.00,1.62
9774.00,1.62
9773.00,1.62
9772.00,1.62
9771.00,1.62
9770.00,1.62
9769.00,1.61
9768.00,1.61
9767.00,1.61
9766.00,1.61
9765.00,1.60
9764.00,1.60
9763.00,1.60
9762.00,1.60
9761.00,1.60
9760.00,1.60
9759.00,1.60
9758.00,1.60
9757.00,1.60
9756.00,1.61
9755.00,1.61
9754.00,1.61
9753.00,1.61
9752.00,1.61
9751.00,1.61
9750.00,1.62
9749.00,1.62
9748.00,1.62
9747.00,1.62
9746.00,1.62
9745.00,1.62
9744.00,1.62
9743.00,1.62
9742.00,1.62
9741.00,1.62
9740.00,1.62
9739.00,1.62
9738.00,1.62
9737.00,1.61
9736.00,1.61
9735.00,1.61
9734.00,1.61
9733.00,1.61
9732.00,1.61
9731.00,1.61
9730.00,1.61
9729.00,1.61
9728.00,1.60
9727.00,1.60
9726.00,1.60
9725.00,1.60
9724.00,1.60
9723.00,1.60
9722.00,1.60
9721.00,1.60
9720.00,1.60
9719.00,1.60
9718.00,1.60
9717.00,1.60
9716.00,1.60
9715.00,1.60
9714.00,1.60
9713.00,1.61
9712.00,1.61
9711.00,1.61
9710.00,1.61
9709.00,1.61
9708.00,1.61
9707.00,1.61
9706.00,1.61
9705.00,1.61
9704.00,1.61
9703.00,1.61
9702.00,1.61
9701.00,1.60
9700.00,1.60
9699.00,1.60
9698.00,1.60
9697.00,1.60
9696.00,1.60
9695.00,1.60
9694.00,1.60
9693.00,1.60
9692.00,1.60
9691.00,1.60
9690.00,1.60
9689.00,1.60
9688.00,1.61
9687.00,1.61
9686.00,1.61
9685.00,1.61
9684.00,1.61
9683.00,1.62
9682.00,1.62
9681.00,1.62
9680.00,1.62
9679.00,1.63
9678.00,1.63
9677.00,1.63
9676.00,1.63
9675.00,1.63
9674.00,1.63
9673.00,1.63
9672.00,1.63
9671.00,1.63
9670.00,1.63
9669.00,1.63
9668.00,1.62
9667.00,1.62
9666.00,1.62
9665.00,1.62
9664.00,1.61
9663.00,1.61
9662.00,1.61
9661.00,1.61
9660.00,1.61
9659.00,1.61
9658.00,1.61
9657.00,1.61
9656.00,1.61
9655.00,1.61
9654.00,1.61
9653.00,1.61
9652.00,1.61
9651.00,1.61
9650.00,1.61
9649.00,1.62
9648.00,1.62
9647.00,1.62
9646.00,1.62
9645.00,1.62
9644.00,1.62
9643.00,1.62
9642.00,1.62
9641.00,1.62
9640.00,1.62
9639.00,1.62
9638.00,1.62
9637.00,1.62
9636.00,1.62
9635.00,1.62
9634.00,1.62
9633.00,1.62
9632.00,1.62
9631.00,1.62
9630.00,1.62
9629.00,1.62
9628.00,1.62
9627.00,1.62
9626.00,1.62
9625.00,1.62
9624.00,1.62
9623.00,1.63
9622.00,1.63
9621.00,1.63
9620.00,1.63
9619.00,1.63
9618.00,1.62
9617.00,1.62
9616.00,1.62
9615.00,1.62
9614.00,1.62
9613.00,1.62
9612.00,1.62
9611.00,1.61
9610.00,1.61
9609.00,1.61
9608.00,1.61
9607.00,1.61
9606.00,1.61
9605.00,1.61
9604.00,1.61
9603.00,1.61
9602.00,1.61
9601.00,1.61
9600.00,1.61
9599.00,1.61
9598.00,1.61
9597.00,1.61
9596.00,1.61
9595.00,1.61
9594.00,1.61
9593.00,1.61
9592.00,1.61
9591.00,1.61
9590.00,1.61
9589.00,1.61
9588.00,1.60
9587.00,1.60
9586.00,1.60
9585.00,1.60
9584.00,1.60
9583.00,1.60
9582.00,1.59
9581.00,1.59
9580.00,1.59
9579.00,1.59
9578.00,1.59
9577.00,1.59
9576.00,1.59
9575.00,1.59
9574.00,1.59
9573.00,1.59
9572.00,1.59
9571.00,1.59
9570.00,1.59
9569.00,1.59
9568.00,1.59
9567.00,1.60
9566.00,1.60
9565.00,1.60
9564.00,1.60
9563.00,1.60
9562.00,1.60
9561.00,1.60
9560.00,1.60
9559.00,1.60
9558.00,1.60
9557.00,1.60
9556.00,1.60
9555.00,1.60
9554.00,1.60
9553.00,1.60
9552.00,1.60
9551.00,1.60
9550.00,1.60
9549.00,1.60
9548.00,1.60
9547.00,1.60
9546.00,1.60
9545.00,1.60
9544.00,1.60
9543.00,1.60
9542.00,1.60
9541.00,1.60
9540.00,1.59
9539.00,1.59
9538.00,1.59
9537.00,1.59
9536.00,1.59
9535.00,1.59
9534.00,1.59
9533.00,1.59
9532.00,1.59
9531.00,1.59
9530.00,1.59
9529.00,1.59
9528.00,1.59
9527.00,1.59
9526.00,1.59
9525.00,1.59
9524.00,1.59
9523.00,1.59
9522.00,1.59
9521.00,1.59
9520.00,1.59
9519.00,1.59
9518.00,1.59
9517.00,1.59
9516.00,1.59
9515.00,1.60
9514.00,1.60
9513.00,1.60
9512.00,1.60
9511.00,1.60
9510.00,1.60
9509.00,1.60
9508.00,1.60
9507.00,1.60
9506.00,1.59
9505.00,1.59
9504.00,1.59
9503.00,1.59
9502.00,1.59
9501.00,1.59
9500.00,1.59
9499.00,1.59
9498.00,1.59
9497.00,1.59
9496.00,1.59
9495.00,1.59
9494.00,1.59
9493.00,1.59
9492.00,1.59
9491.00,1.59
9490.00,1.59
9489.00,1.59
9488.00,1.59
9487.00,1.59
9486.00,1.60
9485.00,1.60
9484.00,1.60
9483.00,1.60
9482.00,1.60
9481.00,1.60
9480.00,1.61
9479.00,1.61
9478.00,1.61
9477.00,1.61
9476.00,1.61
9475.00,1.62
9474.00,1.62
9473.00,1.62
9472.00,1.62
9471.00,1.62
9470.00,1.63
9469.00,1.63
9468.00,1.63
9467.00,1.63
9466.00,1.63
9465.00,1.63
9464.00,1.63
9463.00,1.63
9462.00,1.63
9461.00,1.63
9460.00,1.63
9459.00,1.62
9458.00,1.62
9457.00,1.62
9456.00,1.62
9455.00,1.61
9454.00,1.61
9453.00,1.61
9452.00,1.60
9451.00,1.60
9450.00,1.60
9449.00,1.59
9448.00,1.59
9447.00,1.59
9446.00,1.59
9445.00,1.59
9444.00,1.59
9443.00,1.59
9442.00,1.59
9441.00,1.59
9440.00,1.59
9439.00,1.59
9438.00,1.60
9437.00,1.60
9436.00,1.60
9435.00,1.60
9434.00,1.61
9433.00,1.61
9432.00,1.61
9431.00,1.61
9430.00,1.61
9429.00,1.61
9428.00,1.62
9427.00,1.62
9426.00,1.62
9425.00,1.62
9424.00,1.62
9423.00,1.62
9422.00,1.62
9421.00,1.62
9420.00,1.62
9419.00,1.62
9418.00,1.62
9417.00,1.62
9416.00,1.62
9415.00,1.62
9414.00,1.62
9413.00,1.62
9412.00,1.62
9411.00,1.62
9410.00,1.62
9409.00,1.62
9408.00,1.62
9407.00,1.62
9406.00,1.62
9405.00,1.62
9404.00,1.62
9403.00,1.62
9402.00,1.62
9401.00,1.61
9400.00,1.61
9399.00,1.61
9398.00,1.61
9397.00,1.60
9396.00,1.60
9395.00,1.60
9394.00,1.60
9393.00,1.60
9392.00,1.59
9391.00,1.59
9390.00,1.59
9389.00,1.59
9388.00,1.59
9387.00,1.59
9386.00,1.59
9385.00,1.59
9384.00,1.59
9383.00,1.59
9382.00,1.59
9381.00,1.59
9380.00,1.59
9379.00,1.59
9378.00,1.59
9377.00,1.59
9376.00,1.59
9375.00,1.59
9374.00,1.59
9373.00,1.59
9372.00,1.59
9371.00,1.59
9370.00,1.59
9369.00,1.59
9368.00,1.60
9367.00,1.60
9366.00,1.60
9365.00,1.60
9364.00,1.60
9363.00,1.60
9362.00,1.60
9361.00,1.60
9360.00,1.60
9359.00,1.60
9358.00,1.60
9357.00,1.61
9356.00,1.61
9355.00,1.61
9354.00,1.61
9353.00,1.61
9352.00,1.61
9351.00,1.60
9350.00,1.60
9349.00,1.60
9348.00,1.61
9347.00,1.61
9346.00,1.61
9345.00,1.61
9344.00,1.61
9343.00,1.61
9342.00,1.61
9341.00,1.61
9340.00,1.61
9339.00,1.61
9338.00,1.61
9337.00,1.61
9336.00,1.61
9335.00,1.61
9334.00,1.61
9333.00,1.61
9332.00,1.61
9331.00,1.61
9330.00,1.61
9329.00,1.61
9328.00,1.61
9327.00,1.61
9326.00,1.61
9325.00,1.61
9324.00,1.61
9323.00,1.61
9322.00,1.61
9321.00,1.61
9320.00,1.61
9319.00,1.61
9318.00,1.61
9317.00,1.61
9316.00,1.61
9315.00,1.61
9314.00,1.61
9313.00,1.61
9312.00,1.60
9311.00,1.60
9310.00,1.60
9309.00,1.60
9308.00,1.60
9307.00,1.60
9306.00,1.60
9305.00,1.60
9304.00,1.60
9303.00,1.60
9302.00,1.60
9301.00,1.60
9300.00,1.60
9299.00,1.60
9298.00,1.60
9297.00,1.60
9296.00,1.60
9295.00,1.60
9294.00,1.60
9293.00,1.60
9292.00,1.61
9291.00,1.61
9290.00,1.61
9289.00,1.61
9288.00,1.61
9287.00,1.62
9286.00,1.62
9285.00,1.62
9284.00,1.62
9283.00,1.62
9282.00,1.62
9281.00,1.62
9280.00,1.62
9279.00,1.62
9278.00,1.62
9277.00,1.62
9276.00,1.62
9275.00,1.62
9274.00,1.62
9273.00,1.62
9272.00,1.62
9271.00,1.62
9270.00,1.62
9269.00,1.62
9268.00,1.62
9267.00,1.62
9266.00,1.62
9265.00,1.62
9264.00,1.61
9263.00,1.61
9262.00,1.61
9261.00,1.61
9260.00,1.61
9259.00,1.61
9258.00,1.61
9257.00,1.61
9256.00,1.61
9255.00,1.60
9254.00,1.60
9253.00,1.60
9252.00,1.60
9251.00,1.60
9250.00,1.60
9249.00,1.61
9248.00,1.61
9247.00,1.61
9246.00,1.61
9245.00,1.61
9244.00,1.61
9243.00,1.61
9242.00,1.62
9241.00,1.62
9240.00,1.62
9239.00,1.62
9238.00,1.62
9237.00,1.62
9236.00,1.62
9235.00,1.62
9234.00,1.62
9233.00,1.62
9232.00,1.62
9231.00,1.62
9230.00,1.62
9229.00,1.62
9228.00,1.62
9227.00,1.62
9226.00,1.62
9225.00,1.61
9224.00,1.61
9223.00,1.61
9222.00,1.61
9221.00,1.61
9220.00,1.61
9219.00,1.61
9218.00,1.61
9217.00,1.61
9216.00,1.61
9215.00,1.61
9214.00,1.61
9213.00,1.61
9212.00,1.61
9211.00,1.61
9210.00,1.61
9209.00,1.61
9208.00,1.61
9207.00,1.61
9206.00,1.61
9205.00,1.61
9204.00,1.61
9203.00,1.61
9202.00,1.61
9201.00,1.61
9200.00,1.61
9199.00,1.61
9198.00,1.61
9197.00,1.61
9196.00,1.61
9195.00,1.61
9194.00,1.61
9193.00,1.61
9192.00,1.61
9191.00,1.61
9190.00,1.61
9189.00,1.61
9188.00,1.61
9187.00,1.61
9186.00,1.61
9185.00,1.61
9184.00,1.61
9183.00,1.61
9182.00,1.61
9181.00,1.61
9180.00,1.61
9179.00,1.62
9178.00,1.62
9177.00,1.62
9176.00,1.62
9175.00,1.62
9174.00,1.62
9173.00,1.62
9172.00,1.62
9171.00,1.62
9170.00,1.62
9169.00,1.62
9168.00,1.62
9167.00,1.62
9166.00,1.62
9165.00,1.62
9164.00,1.62
9163.00,1.62
9162.00,1.62
9161.00,1.62
9160.00,1.61
9159.00,1.61
9158.00,1.61
9157.00,1.61
9156.00,1.61
9155.00,1.61
9154.00,1.61
9153.00,1.61
9152.00,1.61
9151.00,1.60
9150.00,1.60
9149.00,1.60
9148.00,1.60
9147.00,1.60
9146.00,1.60
9145.00,1.60
9144.00,1.60
9143.00,1.60
9142.00,1.59
9141.00,1.59
9140.00,1.59
9139.00,1.59
9138.00,1.59
9137.00,1.59
9136.00,1.59
9135.00,1.59
9134.00,1.60
9133.00,1.60
9132.00,1.60
9131.00,1.60
9130.00,1.60
9129.00,1.60
9128.00,1.60
9127.00,1.60
9126.00,1.60
9125.00,1.60
9124.00,1.60
9123.00,1.60
9122.00,1.60
9121.00,1.60
9120.00,1.61
9119.00,1.61
9118.00,1.61
9117.00,1.61
9116.00,1.61
9115.00,1.61
9114.00,1.61
9113.00,1.61
9112.00,1.61
9111.00,1.61
9110.00,1.61
9109.00,1.62
9108.00,1.62
9107.00,1.62
9106.00,1.62
9105.00,1.62
9104.00,1.62
9103.00,1.62
9102.00,1.62
9101.00,1.62
9100.00,1.62
9099.00,1.62
9098.00,1.62
9097.00,1.62
9096.00,1.62
9095.00,1.62
9094.00,1.62
9093.00,1.62
9092.00,1.62
9091.00,1.62
9090.00,1.62
9089.00,1.62
9088.00,1.62
9087.00,1.62
9086.00,1.62
9085.00,1.62
9084.00,1.62
9083.00,1.62
9082.00,1.62
9081.00,1.62
9080.00,1.62
9079.00,1.62
9078.00,1.62
9077.00,1.62
9076.00,1.62
9075.00,1.62
9074.00,1.62
9073.00,1.62
9072.00,1.62
9071.00,1.62
9070.00,1.62
9069.00,1.62
9068.00,1.62
9067.00,1.62
9066.00,1.63
9065.00,1.63
9064.00,1.63
9063.00,1.63
9062.00,1.63
9061.00,1.63
9060.00,1.63
9059.00,1.63
9058.00,1.63
9057.00,1.63
9056.00,1.62
9055.00,1.62
9054.00,1.62
9053.00,1.62
9052.00,1.62
9051.00,1.61
9050.00,1.61
9049.00,1.61
9048.00,1.61
9047.00,1.61
9046.00,1.61
9045.00,1.61
9044.00,1.60
9043.00,1.60
9042.00,1.60
9041.00,1.60
9040.00,1.60
9039.00,1.60
9038.00,1.60
9037.00,1.60
9036.00,1.60
9035.00,1.61
9034.00,1.61
9033.00,1.61
9032.00,1.61
9031.00,1.61
9030.00,1.61
9029.00,1.62
9028.00,1.62
9027.00,1.62
9026.00,1.62
9025.00,1.62
9024.00,1.62
9023.00,1.63
9022.00,1.63
9021.00,1.63
9020.00,1.63
9019.00,1.63
9018.00,1.63
9017.00,1.63
9016.00,1.63
9015.00,1.63
9014.00,1.63
9013.00,1.63
9012.00,1.63
9011.00,1.63
9010.00,1.62
9009.00,1.62
9008.00,1.62
9007.00,1.62
9006.00,1.62
9005.00,1.62
9004.00,1.62
9003.00,1.62
9002.00,1.62
9001.00,1.62
9000.00,1.62
8999.00,1.62
8998.00,1.62
8997.00,1.62
8996.00,1.62
8995.00,1.62
8994.00,1.62
8993.00,1.62
8992.00,1.62
8991.00,1.62
8990.00,1.62
8989.00,1.62
8988.00,1.62
8987.00,1.62
8986.00,1.62
8985.00,1.62
8984.00,1.62
8983.00,1.61
8982.00,1.61
8981.00,1.61
8980.00,1.61
8979.00,1.61
8978.00,1.61
8977.00,1.60
8976.00,1.60
8975.00,1.60
8974.00,1.60
8973.00,1.60
8972.00,1.60
8971.00,1.60
8970.00,1.60
8969.00,1.60
8968.00,1.60
8967.00,1.60
8966.00,1.60
8965.00,1.60
8964.00,1.61
8963.00,1.61
8962.00,1.61
8961.00,1.61
8960.00,1.62
8959.00,1.62
8958.00,1.62
8957.00,1.62
8956.00,1.63
8955.00,1.63
8954.00,1.63
8953.00,1.63
8952.00,1.63
8951.00,1.63
8950.00,1.63
8949.00,1.63
8948.00,1.63
8947.00,1.63
8946.00,1.63
8945.00,1.63
8944.00,1.63
8943.00,1.63
8942.00,1.63
8941.00,1.63
8940.00,1.63
8939.00,1.62
8938.00,1.62
8937.00,1.62
8936.00,1.62
8935.00,1.62
8934.00,1.62
8933.00,1.62
8932.00,1.62
8931.00,1.62
8930.00,1.61
8929.00,1.61
8928.00,1.61
8927.00,1.61
8926.00,1.61
8925.00,1.61
8924.00,1.61
8923.00,1.61
8922.00,1.61
8921.00,1.61
8920.00,1.61
8919.00,1.61
8918.00,1.61
8917.00,1.61
8916.00,1.61
8915.00,1.61
8914.00,1.61
8913.00,1.61
8912.00,1.61
8911.00,1.61
8910.00,1.61
8909.00,1.61
8908.00,1.61
8907.00,1.61
8906.00,1.61
8905.00,1.61
8904.00,1.61
8903.00,1.61
8902.00,1.61
8901.00,1.61
8900.00,1.61
8899.00,1.61
8898.00,1.61
8897.00,1.61
8896.00,1.61
8895.00,1.61
8894.00,1.61
8893.00,1.61
8892.00,1.61
8891.00,1.61
8890.00,1.62
8889.00,1.62
8888.00,1.62
8887.00,1.62
8886.00,1.62
8885.00,1.62
8884.00,1.62
8883.00,1.62
8882.00,1.62
8881.00,1.62
8880.00,1.62
8879.00,1.62
8878.00,1.62
8877.00,1.62
8876.00,1.62
8875.00,1.62
8874.00,1.62
8873.00,1.62
8872.00,1.62
8871.00,1.61
8870.00,1.61
8869.00,1.61
8868.00,1.61
8867.00,1.61
8866.00,1.61
8865.00,1.61
8864.00,1.61
8863.00,1.61
8862.00,1.61
8861.00,1.61
8860.00,1.61
8859.00,1.61
8858.00,1.60
8857.00,1.60
8856.00,1.60
8855.00,1.60
8854.00,1.60
8853.00,1.60
8852.00,1.60
8851.00,1.60
8850.00,1.60
8849.00,1.60
8848.00,1.60
8847.00,1.60
8846.00,1.60
8845.00,1.60
8844.00,1.60
8843.00,1.60
8842.00,1.60
8841.00,1.60
8840.00,1.60
8839.00,1.60
8838.00,1.60
8837.00,1.59
8836.00,1.59
8835.00,1.59
8834.00,1.59
8833.00,1.59
8832.00,1.59
8831.00,1.59
8830.00,1.59
8829.00,1.58
8828.00,1.58
8827.00,1.58
8826.00,1.58
8825.00,1.58
8824.00,1.58
8823.00,1.58
8822.00,1.58
8821.00,1.58
8820.00,1.58
8819.00,1.58
8818.00,1.58
8817.00,1.58
8816.00,1.58
8815.00,1.58
8814.00,1.58
8813.00,1.58
8812.00,1.58
8811.00,1.58
8810.00,1.58
8809.00,1.58
8808.00,1.58
8807.00,1.58
8806.00,1.58
8805.00,1.58
8804.00,1.58
8803.00,1.57
8802.00,1.57
8801.00,1.57
8800.00,1.57
8799.00,1.57
8798.00,1.57
8797.00,1.57
8796.00,1.57
8795.00,1.57
8794.00,1.57
8793.00,1.57
8792.00,1.57
8791.00,1.57
8790.00,1.57
8789.00,1.57
8788.00,1.57
8787.00,1.57
8786.00,1.57
8785.00,1.56
8784.00,1.56
8783.00,1.56
8782.00,1.56
8781.00,1.56
8780.00,1.56
8779.00,1.56
8778.00,1.56
8777.00,1.56
8776.00,1.56
8775.00,1.56
8774.00,1.56
8773.00,1.56
8772.00,1.56
8771.00,1.56
8770.00,1.56
8769.00,1.56
8768.00,1.56
8767.00,1.56
8766.00,1.56
8765.00,1.56
8764.00,1.56
8763.00,1.56
8762.00,1.56
8761.00,1.56
8760.00,1.56
8759.00,1.56
8758.00,1.56
8757.00,1.55
8756.00,1.55
8755.00,1.55
8754.00,1.55
8753.00,1.55
8752.00,1.55
8751.00,1.54
8750.00,1.54
8749.00,1.54
8748.00,1.54
8747.00,1.54
8746.00,1.53
8745.00,1.53
8744.00,1.53
8743.00,1.53
8742.00,1.53
8741.00,1.53
8740.00,1.53
8739.00,1.53
8738.00,1.53
8737.00,1.53
8736.00,1.53
8735.00,1.53
8734.00,1.53
8733.00,1.54
8732.00,1.54
8731.00,1.54
8730.00,1.54
8729.00,1.54
8728.00,1.54
8727.00,1.54
8726.00,1.54
8725.00,1.54
8724.00,1.54
8723.00,1.54
8722.00,1.54
8721.00,1.54
8720.00,1.54
8719.00,1.54
8718.00,1.53
8717.00,1.53
8716.00,1.53
8715.00,1.53
8714.00,1.53
8713.00,1.52
8712.00,1.52
8711.00,1.52
8710.00,1.52
8709.00,1.52
8708.00,1.52
8707.00,1.51
8706.00,1.51
8705.00,1.51
8704.00,1.51
8703.00,1.51
8702.00,1.51
8701.00,1.51
8700.00,1.51
8699.00,1.51
8698.00,1.51
8697.00,1.51
8696.00,1.51
8695.00,1.51
8694.00,1.51
8693.00,1.51
8692.00,1.51
8691.00,1.51
8690.00,1.51
8689.00,1.51
8688.00,1.51
8687.00,1.51
8686.00,1.51
8685.00,1.51
8684.00,1.52
8683.00,1.52
8682.00,1.52
8681.00,1.52
8680.00,1.52
8679.00,1.52
8678.00,1.52
8677.00,1.52
8676.00,1.52
8675.00,1.52
8674.00,1.52
8673.00,1.52
8672.00,1.52
8671.00,1.52
8670.00,1.52
8669.00,1.52
8668.00,1.52
8667.00,1.52
8666.00,1.52
8665.00,1.52
8664.00,1.52
8663.00,1.52
8662.00,1.52
8661.00,1.52
8660.00,1.52
8659.00,1.52
8658.00,1.52
8657.00,1.52
8656.00,1.52
8655.00,1.52
8654.00,1.52
8653.00,1.52
8652.00,1.52
8651.00,1.52
8650.00,1.52
8649.00,1.52
8648.00,1.52
8647.00,1.52
8646.00,1.52
8645.00,1.53
8644.00,1.53
8643.00,1.53
8642.00,1.53
8641.00,1.53
8640.00,1.53
8639.00,1.53
8638.00,1.53
8637.00,1.53
8636.00,1.53
8635.00,1.53
8634.00,1.53
8633.00,1.52
8632.00,1.52
8631.00,1.52
8630.00,1.52
8629.00,1.52
8628.00,1.52
8627.00,1.51
8626.00,1.51
8625.00,1.51
8624.00,1.51
8623.00,1.51
8622.00,1.50
8621.00,1.50
8620.00,1.50
8619.00,1.50
8618.00,1.50
8617.00,1.50
8616.00,1.49
8615.00,1.49
8614.00,1.49
8613.00,1.49
8612.00,1.49
8611.00,1.49
8610.00,1.49
8609.00,1.49
8608.00,1.49
8607.00,1.49
8606.00,1.49
8605.00,1.49
8604.00,1.49
8603.00,1.49
8602.00,1.49
8601.00,1.49
8600.00,1.49
8599.00,1.48
8598.00,1.48
8597.00,1.48
8596.00,1.48
8595.00,1.48
8594.00,1.48
8593.00,1.48
8592.00,1.47
8591.00,1.47
8590.00,1.47
8589.00,1.47
8588.00,1.47
8587.00,1.47
8586.00,1.47
8585.00,1.47
8584.00,1.47
8583.00,1.47
8582.00,1.47
8581.00,1.47
8580.00,1.47
8579.00,1.46
8578.00,1.46
8577.00,1.46
8576.00,1.46
8575.00,1.46
8574.00,1.46
8573.00,1.46
8572.00,1.46
8571.00,1.46
8570.00,1.46
8569.00,1.46
8568.00,1.46
8567.00,1.46
8566.00,1.46
8565.00,1.46
8564.00,1.46
8563.00,1.46
8562.00,1.46
8561.00,1.46
8560.00,1.46
8559.00,1.46
8558.00,1.46
8557.00,1.47
8556.00,1.47
8555.00,1.47
8554.00,1.47
8553.00,1.47
8552.00,1.47
8551.00,1.47
8550.00,1.46
8549.00,1.46
8548.00,1.46
8547.00,1.46
8546.00,1.46
8545.00,1.45
8544.00,1.45
8543.00,1.45
8542.00,1.45
8541.00,1.45
8540.00,1.44
8539.00,1.44
8538.00,1.44
8537.00,1.44
8536.00,1.44
8535.00,1.44
8534.00,1.44
8533.00,1.43
8532.00,1.43
8531.00,1.43
8530.00,1.43
8529.00,1.43
8528.00,1.43
8527.00,1.43
8526.00,1.43
8525.00,1.43
8524.00,1.43
8523.00,1.43
8522.00,1.44
8521.00,1.44
8520.00,1.44
8519.00,1.44
8518.00,1.44
8517.00,1.44
8516.00,1.44
8515.00,1.44
8514.00,1.44
8513.00,1.44
8512.00,1.44
8511.00,1.44
8510.00,1.43
8509.00,1.43
8508.00,1.43
8507.00,1.43
8506.00,1.43
8505.00,1.43
8504.00,1.43
8503.00,1.42
8502.00,1.42
8501.00,1.42
8500.00,1.42
8499.00,1.42
8498.00,1.41
8497.00,1.41
8496.00,1.41
8495.00,1.41
8494.00,1.41
8493.00,1.40
8492.00,1.40
8491.00,1.40
8490.00,1.40
8489.00,1.40
8488.00,1.40
8487.00,1.40
8486.00,1.40
8485.00,1.40
8484.00,1.40
8483.00,1.40
8482.00,1.40
8481.00,1.40
8480.00,1.40
8479.00,1.40
8478.00,1.39
8477.00,1.39
8476.00,1.39
8475.00,1.39
8474.00,1.39
8473.00,1.38
8472.00,1.38
8471.00,1.38
8470.00,1.38
8469.00,1.37
8468.00,1.37
8467.00,1.37
8466.00,1.37
8465.00,1.36
8464.00,1.36
8463.00,1.36
8462.00,1.36
8461.00,1.36
8460.00,1.36
8459.00,1.36
8458.00,1.36
8457.00,1.36
8456.00,1.36
8455.00,1.36
8454.00,1.36
8453.00,1.36
8452.00,1.36
8451.00,1.36
8450.00,1.36
8449.00,1.36
8448.00,1.36
8447.00,1.36
8446.00,1.36
8445.00,1.36
8444.00,1.36
8443.00,1.36
8442.00,1.36
8441.00,1.36
8440.00,1.36
8439.00,1.36
8438.00,1.36
8437.00,1.36
8436.00,1.36
8435.00,1.36
8434.00,1.37
8433.00,1.37
8432.00,1.37
8431.00,1.37
8430.00,1.37
8429.00,1.37
8428.00,1.38
8427.00,1.38
8426.00,1.38
8425.00,1.38
8424.00,1.38
8423.00,1.38
8422.00,1.38
8421.00,1.38
8420.00,1.38
8419.00,1.38
8418.00,1.38
8417.00,1.38
8416.00,1.38
8415.00,1.38
8414.00,1.39
8413.00,1.39
8412.00,1.39
8411.00,1.39
8410.00,1.39
8409.00,1.39
8408.00,1.39
8407.00,1.39
8406.00,1.39
8405.00,1.39
8404.00,1.39
8403.00,1.39
8402.00,1.39
8401.00,1.39
8400.00,1.40
8399.00,1.40
8398.00,1.40
8397.00,1.40
8396.00,1.40
8395.00,1.40
8394.00,1.40
8393.00,1.41
8392.00,1.41
8391.00,1.41
8390.00,1.41
8389.00,1.41
8388.00,1.41
8387.00,1.42
8386.00,1.42
8385.00,1.42
8384.00,1.42
8383.00,1.42
8382.00,1.42
8381.00,1.43
8380.00,1.43
8379.00,1.43
8378.00,1.43
8377.00,1.43
8376.00,1.43
8375.00,1.43
8374.00,1.44
8373.00,1.44
8372.00,1.44
8371.00,1.44
8370.00,1.44
8369.00,1.44
8368.00,1.44
8367.00,1.44
8366.00,1.44
8365.00,1.44
8364.00,1.44
8363.00,1.44
8362.00,1.43
8361.00,1.43
8360.00,1.43
8359.00,1.44
8358.00,1.44
8357.00,1.44
8356.00,1.44
8355.00,1.44
8354.00,1.44
8353.00,1.44
8352.00,1.44
8351.00,1.44
8350.00,1.44
8349.00,1.44
8348.00,1.44
8347.00,1.44
8346.00,1.44
8345.00,1.44
8344.00,1.44
8343.00,1.44
8342.00,1.44
8341.00,1.44
8340.00,1.43
8339.00,1.43
8338.00,1.43
8337.00,1.43
8336.00,1.43
8335.00,1.43
8334.00,1.43
8333.00,1.43
8332.00,1.43
8331.00,1.43
8330.00,1.43
8329.00,1.43
8328.00,1.44
8327.00,1.44
8326.00,1.44
8325.00,1.44
8324.00,1.44
8323.00,1.44
8322.00,1.44
8321.00,1.44
8320.00,1.44
8319.00,1.44
8318.00,1.44
8317.00,1.44
8316.00,1.44
8315.00,1.44
8314.00,1.44
8313.00,1.44
8312.00,1.44
8311.00,1.44
8310.00,1.44
8309.00,1.44
8308.00,1.44
8307.00,1.43
8306.00,1.43
8305.00,1.43
8304.00,1.43
8303.00,1.43
8302.00,1.43
8301.00,1.43
8300.00,1.43
8299.00,1.43
8298.00,1.43
8297.00,1.43
8296.00,1.43
8295.00,1.43
8294.00,1.43
8293.00,1.43
8292.00,1.43
8291.00,1.43
8290.00,1.43
8289.00,1.43
8288.00,1.44
8287.00,1.44
8286.00,1.44
8285.00,1.44
8284.00,1.44
8283.00,1.44
8282.00,1.44
8281.00,1.44
8280.00,1.44
8279.00,1.44
8278.00,1.44
8277.00,1.44
8276.00,1.44
8275.00,1.44
8274.00,1.44
8273.00,1.45
8272.00,1.45
8271.00,1.45
8270.00,1.45
8269.00,1.45
8268.00,1.45
8267.00,1.45
8266.00,1.45
8265.00,1.46
8264.00,1.46
8263.00,1.46
8262.00,1.46
8261.00,1.46
8260.00,1.46
8259.00,1.46
8258.00,1.46
8257.00,1.46
8256.00,1.46
8255.00,1.46
8254.00,1.46
8253.00,1.46
8252.00,1.46
8251.00,1.46
8250.00,1.46
8249.00,1.46
8248.00,1.46
8247.00,1.46
8246.00,1.46
8245.00,1.46
8244.00,1.46
8243.00,1.46
8242.00,1.46
8241.00,1.46
8240.00,1.46
8239.00,1.46
8238.00,1.46
8237.00,1.46
8236.00,1.46
8235.00,1.46
8234.00,1.47
8233.00,1.47
8232.00,1.47
8231.00,1.47
8230.00,1.47
8229.00,1.47
8228.00,1.47
8227.00,1.47
8226.00,1.47
8225.00,1.47
8224.00,1.47
8223.00,1.47
8222.00,1.47
8221.00,1.47
8220.00,1.47
8219.00,1.48
8218.00,1.48
8217.00,1.48
8216.00,1.48
8215.00,1.48
8214.00,1.48
8213.00,1.48
8212.00,1.48
8211.00,1.48
8210.00,1.49
8209.00,1.49
8208.00,1.49
8207.00,1.49
8206.00,1.49
8205.00,1.49
8204.00,1.49
8203.00,1.49
8202.00,1.49
8201.00,1.49
8200.00,1.49
8199.00,1.49
8198.00,1.49
8197.00,1.49
8196.00,1.49
8195.00,1.49
8194.00,1.49
8193.00,1.49
8192.00,1.49
8191.00,1.49
8190.00,1.49
8189.00,1.49
8188.00,1.49
8187.00,1.49
8186.00,1.49
8185.00,1.49
8184.00,1.49
8183.00,1.49
8182.00,1.49
8181.00,1.50
8180.00,1.50
8179.00,1.50
8178.00,1.50
8177.00,1.50
8176.00,1.50
8175.00,1.50
8174.00,1.50
8173.00,1.50
8172.00,1.50
8171.00,1.50
8170.00,1.50
8169.00,1.50
8168.00,1.50
8167.00,1.50
8166.00,1.50
8165.00,1.50
8164.00,1.51
8163.00,1.51
8162.00,1.51
8161.00,1.51
8160.00,1.51
8159.00,1.51
8158.00,1.51
8157.00,1.51
8156.00,1.51
8155.00,1.51
8154.00,1.51
8153.00,1.51
8152.00,1.51
8151.00,1.51
8150.00,1.51
8149.00,1.51
8148.00,1.51
8147.00,1.51
8146.00,1.50
8145.00,1.50
8144.00,1.50
8143.00,1.50
8142.00,1.50
8141.00,1.51
8140.00,1.51
8139.00,1.51
8138.00,1.51
8137.00,1.51
8136.00,1.51
8135.00,1.51
8134.00,1.51
8133.00,1.51
8132.00,1.51
8131.00,1.51
8130.00,1.51
8129.00,1.52
8128.00,1.52
8127.00,1.52
8126.00,1.52
8125.00,1.52
8124.00,1.52
8123.00,1.52
8122.00,1.52
8121.00,1.52
8120.00,1.53
8119.00,1.53
8118.00,1.53
8117.00,1.53
8116.00,1.53
8115.00,1.53
8114.00,1.53
8113.00,1.53
8112.00,1.54
8111.00,1.54
8110.00,1.54
8109.00,1.54
8108.00,1.54
8107.00,1.54
8106.00,1.54
8105.00,1.55
8104.00,1.55
8103.00,1.55
8102.00,1.55
8101.00,1.55
8100.00,1.55
8099.00,1.55
8098.00,1.55
8097.00,1.55
8096.00,1.55
8095.00,1.55
8094.00,1.54
8093.00,1.54
8092.00,1.54
8091.00,1.54
8090.00,1.54
8089.00,1.54
8088.00,1.54
8087.00,1.54
8086.00,1.54
8085.00,1.54
8084.00,1.54
8083.00,1.54
8082.00,1.54
8081.00,1.54
8080.00,1.54
8079.00,1.54
8078.00,1.54
8077.00,1.54
8076.00,1.54
8075.00,1.54
8074.00,1.54
8073.00,1.54
8072.00,1.54
8071.00,1.54
8070.00,1.54
8069.00,1.54
8068.00,1.54
8067.00,1.54
8066.00,1.54
8065.00,1.54
8064.00,1.54
8063.00,1.55
8062.00,1.55
8061.00,1.55
8060.00,1.55
8059.00,1.55
8058.00,1.55
8057.00,1.55
8056.00,1.55
8055.00,1.55
8054.00,1.55
8053.00,1.55
8052.00,1.55
8051.00,1.55
8050.00,1.55
8049.00,1.55
8048.00,1.55
8047.00,1.55
8046.00,1.55
8045.00,1.55
8044.00,1.55
8043.00,1.55
8042.00,1.55
8041.00,1.55
8040.00,1.55
8039.00,1.55
8038.00,1.55
8037.00,1.55
8036.00,1.55
8035.00,1.55
8034.00,1.55
8033.00,1.55
8032.00,1.55
8031.00,1.55
8030.00,1.55
8029.00,1.55
8028.00,1.55
8027.00,1.56
8026.00,1.56
8025.00,1.56
8024.00,1.56
8023.00,1.56
8022.00,1.56
8021.00,1.56
8020.00,1.57
8019.00,1.57
8018.00,1.57
8017.00,1.57
8016.00,1.57
8015.00,1.58
8014.00,1.58
8013.00,1.58
8012.00,1.58
8011.00,1.58
8010.00,1.58
8009.00,1.58
8008.00,1.58
8007.00,1.58
8006.00,1.58
8005.00,1.58
8004.00,1.58
8003.00,1.58
8002.00,1.58
8001.00,1.57
8000.00,1.57
7999.00,1.57
7998.00,1.57
7997.00,1.57
7996.00,1.57
7995.00,1.57
7994.00,1.57
7993.00,1.56
7992.00,1.56
7991.00,1.56
7990.00,1.57
7989.00,1.57
7988.00,1.57
7987.00,1.57
7986.00,1.57
7985.00,1.57
7984.00,1.57
7983.00,1.57
7982.00,1.57
7981.00,1.57
7980.00,1.57
7979.00,1.57
7978.00,1.58
7977.00,1.58
7976.00,1.58
7975.00,1.57
7974.00,1.57
7973.00,1.57
7972.00,1.57
7971.00,1.57
7970.00,1.57
7969.00,1.57
7968.00,1.57
7967.00,1.57
7966.00,1.57
7965.00,1.57
7964.00,1.57
7963.00,1.57
7962.00,1.57
7961.00,1.57
7960.00,1.57
7959.00,1.57
7958.00,1.57
7957.00,1.57
7956.00,1.57
7955.00,1.57
7954.00,1.57
7953.00,1.57
7952.00,1.57
7951.00,1.57
7950.00,1.57
7949.00,1.57
7948.00,1.57
7947.00,1.57
7946.00,1.57
7945.00,1.57
7944.00,1.57
7943.00,1.57
7942.00,1.57
7941.00,1.57
7940.00,1.57
7939.00,1.57
7938.00,1.57
7937.00,1.57
7936.00,1.57
7935.00,1.57
7934.00,1.58
7933.00,1.58
7932.00,1.58
7931.00,1.58
7930.00,1.58
7929.00,1.58
7928.00,1.58
7927.00,1.58
7926.00,1.58
7925.00,1.58
7924.00,1.58
7923.00,1.58
7922.00,1.58
7921.00,1.58
7920.00,1.59
7919.00,1.59
7918.00,1.59
7917.00,1.59
7916.00,1.59
7915.00,1.59
7914.00,1.59
7913.00,1.59
7912.00,1.60
7911.00,1.60
7910.00,1.60
7909.00,1.60
7908.00,1.60
7907.00,1.60
7906.00,1.60
7905.00,1.60
7904.00,1.60
7903.00,1.60
7902.00,1.60
7901.00,1.60
7900.00,1.60
7899.00,1.60
7898.00,1.59
7897.00,1.59
7896.00,1.59
7895.00,1.59
7894.00,1.59
7893.00,1.59
7892.00,1.59
7891.00,1.59
7890.00,1.59
7889.00,1.59
7888.00,1.59
7887.00,1.59
7886.00,1.59
7885.00,1.59
7884.00,1.59
7883.00,1.59
7882.00,1.59
7881.00,1.59
7880.00,1.59
7879.00,1.59
7878.00,1.59
7877.00,1.59
7876.00,1.59
7875.00,1.59
7874.00,1.60
7873.00,1.60
7872.00,1.60
7871.00,1.60
7870.00,1.60
7869.00,1.60
7868.00,1.60
7867.00,1.60
7866.00,1.60
7865.00,1.60
7864.00,1.60
7863.00,1.60
7862.00,1.60
7861.00,1.60
7860.00,1.60
7859.00,1.60
7858.00,1.60
7857.00,1.60
7856.00,1.60
7855.00,1.60
7854.00,1.60
7853.00,1.60
7852.00,1.60
7851.00,1.60
7850.00,1.60
7849.00,1.60
7848.00,1.60
7847.00,1.60
7846.00,1.60
7845.00,1.61
7844.00,1.61
7843.00,1.61
7842.00,1.61
7841.00,1.61
7840.00,1.61
7839.00,1.61
7838.00,1.61
7837.00,1.62
7836.00,1.62
7835.00,1.62
7834.00,1.62
7833.00,1.62
7832.00,1.62
7831.00,1.62
7830.00,1.62
7829.00,1.62
7828.00,1.62
7827.00,1.62
7826.00,1.62
7825.00,1.62
7824.00,1.62
7823.00,1.62
7822.00,1.62
7821.00,1.62
7820.00,1.62
7819.00,1.62
7818.00,1.62
7817.00,1.62
7816.00,1.62
7815.00,1.62
7814.00,1.62
7813.00,1.62
7812.00,1.62
7811.00,1.62
7810.00,1.61
7809.00,1.61
7808.00,1.61
7807.00,1.61
7806.00,1.61
7805.00,1.61
7804.00,1.61
7803.00,1.61
7802.00,1.61
7801.00,1.61
7800.00,1.61
7799.00,1.61
7798.00,1.61
7797.00,1.61
7796.00,1.61
7795.00,1.61
7794.00,1.61
7793.00,1.61
7792.00,1.61
7791.00,1.61
7790.00,1.61
7789.00,1.61
7788.00,1.61
7787.00,1.61
7786.00,1.61
7785.00,1.61
7784.00,1.61
7783.00,1.61
7782.00,1.61
7781.00,1.61
7780.00,1.61
7779.00,1.61
7778.00,1.61
7777.00,1.61
7776.00,1.61
7775.00,1.61
7774.00,1.61
7773.00,1.61
7772.00,1.61
7771.00,1.61
7770.00,1.61
7769.00,1.61
7768.00,1.61
7767.00,1.61
7766.00,1.61
7765.00,1.61
7764.00,1.61
7763.00,1.61
7762.00,1.61
7761.00,1.61
7760.00,1.61
7759.00,1.62
7758.00,1.62
7757.00,1.62
7756.00,1.62
7755.00,1.62
7754.00,1.62
7753.00,1.62
7752.00,1.62
7751.00,1.62
7750.00,1.62
7749.00,1.62
7748.00,1.62
7747.00,1.62
7746.00,1.62
7745.00,1.62
7744.00,1.62
7743.00,1.62
7742.00,1.63
7741.00,1.63
7740.00,1.63
7739.00,1.63
7738.00,1.63
7737.00,1.63
7736.00,1.63
7735.00,1.63
7734.00,1.63
7733.00,1.63
7732.00,1.63
7731.00,1.63
7730.00,1.63
7729.00,1.63
7728.00,1.63
7727.00,1.63
7726.00,1.63
7725.00,1.63
7724.00,1.63
7723.00,1.63
7722.00,1.63
7721.00,1.63
7720.00,1.63
7719.00,1.63
7718.00,1.63
7717.00,1.63
7716.00,1.63
7715.00,1.63
7714.00,1.63
7713.00,1.63
7712.00,1.63
7711.00,1.63
7710.00,1.62
7709.00,1.62
7708.00,1.62
7707.00,1.62
7706.00,1.62
7705.00,1.62
7704.00,1.62
7703.00,1.62
7702.00,1.62
7701.00,1.62
7700.00,1.62
7699.00,1.62
7698.00,1.62
7697.00,1.62
7696.00,1.62
7695.00,1.62
7694.00,1.62
7693.00,1.62
7692.00,1.62
7691.00,1.63
7690.00,1.63
7689.00,1.63
7688.00,1.63
7687.00,1.63
7686.00,1.63
7685.00,1.63
7684.00,1.63
7683.00,1.63
7682.00,1.63
7681.00,1.62
7680.00,1.62
7679.00,1.62
7678.00,1.62
7677.00,1.62
7676.00,1.62
7675.00,1.62
7674.00,1.62
7673.00,1.62
7672.00,1.62
7671.00,1.62
7670.00,1.62
7669.00,1.62
7668.00,1.62
7667.00,1.62
7666.00,1.62
7665.00,1.62
7664.00,1.62
7663.00,1.62
7662.00,1.62
7661.00,1.62
7660.00,1.62
7659.00,1.61
7658.00,1.61
7657.00,1.61
7656.00,1.61
7655.00,1.61
7654.00,1.61
7653.00,1.61
7652.00,1.62
7651.00,1.62
7650.00,1.62
7649.00,1.62
7648.00,1.62
7647.00,1.62
7646.00,1.62
7645.00,1.62
7644.00,1.62
7643.00,1.62
7642.00,1.62
7641.00,1.62
7640.00,1.62
7639.00,1.62
7638.00,1.62
7637.00,1.62
7636.00,1.62
7635.00,1.62
7634.00,1.62
7633.00,1.63
7632.00,1.63
7631.00,1.63
7630.00,1.63
7629.00,1.63
7628.00,1.63
7627.00,1.63
7626.00,1.63
7625.00,1.63
7624.00,1.63
7623.00,1.63
7622.00,1.63
7621.00,1.63
7620.00,1.63
7619.00,1.63
7618.00,1.63
7617.00,1.63
7616.00,1.63
7615.00,1.63
7614.00,1.63
7613.00,1.63
7612.00,1.63
7611.00,1.63
7610.00,1.63
7609.00,1.63
7608.00,1.62
7607.00,1.62
7606.00,1.62
7605.00,1.62
7604.00,1.62
7603.00,1.62
7602.00,1.62
7601.00,1.62
7600.00,1.62
7599.00,1.62
7598.00,1.62
7597.00,1.62
7596.00,1.62
7595.00,1.62
7594.00,1.62
7593.00,1.62
7592.00,1.62
7591.00,1.62
7590.00,1.62
7589.00,1.62
7588.00,1.62
7587.00,1.62
7586.00,1.62
7585.00,1.62
7584.00,1.62
7583.00,1.62
7582.00,1.62
7581.00,1.62
7580.00,1.62
7579.00,1.62
7578.00,1.62
7577.00,1.62
7576.00,1.62
7575.00,1.62
7574.00,1.61
7573.00,1.61
7572.00,1.61
7571.00,1.61
7570.00,1.61
7569.00,1.61
7568.00,1.61
7567.00,1.61
7566.00,1.61
7565.00,1.61
7564.00,1.61
7563.00,1.61
7562.00,1.61
7561.00,1.61
7560.00,1.61
7559.00,1.61
7558.00,1.61
7557.00,1.61
7556.00,1.61
7555.00,1.61
7554.00,1.61
7553.00,1.61
7552.00,1.61
7551.00,1.61
7550.00,1.61
7549.00,1.60
7548.00,1.60
7547.00,1.60
7546.00,1.60
7545.00,1.60
7544.00,1.60
7543.00,1.60
7542.00,1.60
7541.00,1.60
7540.00,1.60
7539.00,1.60
7538.00,1.60
7537.00,1.60
7536.00,1.60
7535.00,1.60
7534.00,1.60
7533.00,1.59
7532.00,1.59
7531.00,1.59
7530.00,1.59
7529.00,1.59
7528.00,1.59
7527.00,1.59
7526.00,1.59
7525.00,1.59
7524.00,1.59
7523.00,1.59
7522.00,1.59
7521.00,1.58
7520.00,1.58
7519.00,1.58
7518.00,1.58
7517.00,1.58
7516.00,1.58
7515.00,1.58
7514.00,1.58
7513.00,1.59
7512.00,1.59
7511.00,1.59
7510.00,1.59
7509.00,1.59
7508.00,1.59
7507.00,1.59
7506.00,1.59
7505.00,1.59
7504.00,1.59
7503.00,1.59
7502.00,1.59
7501.00,1.59
7500.00,1.59
7499.00,1.59
7498.00,1.59
7497.00,1.59
7496.00,1.59
7495.00,1.59
7494.00,1.59
7493.00,1.59
7492.00,1.59
7491.00,1.59
7490.00,1.59
7489.00,1.59
7488.00,1.59
7487.00,1.58
7486.00,1.58
7485.00,1.58
7484.00,1.58
7483.00,1.58
7482.00,1.58
7481.00,1.58
7480.00,1.58
7479.00,1.58
7478.00,1.58
7477.00,1.58
7476.00,1.58
7475.00,1.57
7474.00,1.57
7473.00,1.57
7472.00,1.57
7471.00,1.57
7470.00,1.57
7469.00,1.57
7468.00,1.57
7467.00,1.57
7466.00,1.57
7465.00,1.56
7464.00,1.56
7463.00,1.56
7462.00,1.56
7461.00,1.56
7460.00,1.56
7459.00,1.56
7458.00,1.56
7457.00,1.56
7456.00,1.55
7455.00,1.55
7454.00,1.55
7453.00,1.55
7452.00,1.55
7451.00,1.55
7450.00,1.55
7449.00,1.55
7448.00,1.55
7447.00,1.54
7446.00,1.54
7445.00,1.54
7444.00,1.54
7443.00,1.54
7442.00,1.54
7441.00,1.54
7440.00,1.54
7439.00,1.54
7438.00,1.54
7437.00,1.53
7436.00,1.53
7435.00,1.53
7434.00,1.53
7433.00,1.53
7432.00,1.53
7431.00,1.53
7430.00,1.53
7429.00,1.53
7428.00,1.53
7427.00,1.53
7426.00,1.53
7425.00,1.53
7424.00,1.53
7423.00,1.53
7422.00,1.53
7421.00,1.52
7420.00,1.52
7419.00,1.52
7418.00,1.52
7417.00,1.52
7416.00,1.52
7415.00,1.52
7414.00,1.51
7413.00,1.51
7412.00,1.51
7411.00,1.51
7410.00,1.51
7409.00,1.51
7408.00,1.51
7407.00,1.50
7406.00,1.50
7405.00,1.50
7404.00,1.50
7403.00,1.50
7402.00,1.50
7401.00,1.50
7400.00,1.49
7399.00,1.49
7398.00,1.49
7397.00,1.49
7396.00,1.49
7395.00,1.48
7394.00,1.48
7393.00,1.48
7392.00,1.48
7391.00,1.48
7390.00,1.47
7389.00,1.47
7388.00,1.47
7387.00,1.47
7386.00,1.46
7385.00,1.46
7384.00,1.46
7383.00,1.46
7382.00,1.46
7381.00,1.45
7380.00,1.45
7379.00,1.45
7378.00,1.45
7377.00,1.45
7376.00,1.45
7375.00,1.45
7374.00,1.45
7373.00,1.44
7372.00,1.44
7371.00,1.44
7370.00,1.44
7369.00,1.44
7368.00,1.44
7367.00,1.44
7366.00,1.44
7365.00,1.45
7364.00,1.45
7363.00,1.45
7362.00,1.45
7361.00,1.45
7360.00,1.45
7359.00,1.45
7358.00,1.45
7357.00,1.44
7356.00,1.44
7355.00,1.44
7354.00,1.44
7353.00,1.44
7352.00,1.44
7351.00,1.44
7350.00,1.44
7349.00,1.44
7348.00,1.43
7347.00,1.43
7346.00,1.43
7345.00,1.43
7344.00,1.43
7343.00,1.43
7342.00,1.43
7341.00,1.43
7340.00,1.42
7339.00,1.42
7338.00,1.42
7337.00,1.42
7336.00,1.42
7335.00,1.42
7334.00,1.42
7333.00,1.42
7332.00,1.42
7331.00,1.42
7330.00,1.42
7329.00,1.42
7328.00,1.42
7327.00,1.42
7326.00,1.42
7325.00,1.42
7324.00,1.42
7323.00,1.42
7322.00,1.42
7321.00,1.42
7320.00,1.42
7319.00,1.42
7318.00,1.42
7317.00,1.42
7316.00,1.42
7315.00,1.42
7314.00,1.42
7313.00,1.42
7312.00,1.41
7311.00,1.41
7310.00,1.41
7309.00,1.41
7308.00,1.41
7307.00,1.40
7306.00,1.40
7305.00,1.40
7304.00,1.40
7303.00,1.39
7302.00,1.39
7301.00,1.39
7300.00,1.39
7299.00,1.39
7298.00,1.38
7297.00,1.38
7296.00,1.38
7295.00,1.38
7294.00,1.38
7293.00,1.38
7292.00,1.38
7291.00,1.38
7290.00,1.38
7289.00,1.38
7288.00,1.38
7287.00,1.38
7286.00,1.37
7285.00,1.37
7284.00,1.37
7283.00,1.37
7282.00,1.37
7281.00,1.37
7280.00,1.36
7279.00,1.36
7278.00,1.36
7277.00,1.36
7276.00,1.35
7275.00,1.35
7274.00,1.35
7273.00,1.35
7272.00,1.35
7271.00,1.34
7270.00,1.34
7269.00,1.34
7268.00,1.34
7267.00,1.34
7266.00,1.34
7265.00,1.34
7264.00,1.34
7263.00,1.34
7262.00,1.34
7261.00,1.34
7260.00,1.34
7259.00,1.34
7258.00,1.34
7257.00,1.34
7256.00,1.34
7255.00,1.34
7254.00,1.34
7253.00,1.33
7252.00,1.33
7251.00,1.33
7250.00,1.33
7249.00,1.32
7248.00,1.32
7247.00,1.31
7246.00,1.31
7245.00,1.30
7244.00,1.30
7243.00,1.29
7242.00,1.29
7241.00,1.28
7240.00,1.28
7239.00,1.27
7238.00,1.27
7237.00,1.26
7236.00,1.26
7235.00,1.26
7234.00,1.25
7233.00,1.25
7232.00,1.24
7231.00,1.24
7230.00,1.23
7229.00,1.23
7228.00,1.23
7227.00,1.22
7226.00,1.22
7225.00,1.22
7224.00,1.21
7223.00,1.21
7222.00,1.20
7221.00,1.20
7220.00,1.20
7219.00,1.19
7218.00,1.19
7217.00,1.19
7216.00,1.18
7215.00,1.18
7214.00,1.18
7213.00,1.17
7212.00,1.17
7211.00,1.17
7210.00,1.16
7209.00,1.16
7208.00,1.15
7207.00,1.15
7206.00,1.15
7205.00,1.14
7204.00,1.14
7203.00,1.14
7202.00,1.13
7201.00,1.13
7200.00,1.12
7199.00,1.12
7198.00,1.11
7197.00,1.11
7196.00,1.11
7195.00,1.10
7194.00,1.10
7193.00,1.09
7192.00,1.09
7191.00,1.09
7190.00,1.08
7189.00,1.08
7188.00,1.07
7187.00,1.07
7186.00,1.06
7185.00,1.06
7184.00,1.06
7183.00,1.05
7182.00,1.05
7181.00,1.04
7180.00,1.04
7179.00,1.04
7178.00,1.03
7177.00,1.03
7176.00,1.02
7175.00,1.02
7174.00,1.02
7173.00,1.01
7172.00,1.01
7171.00,1.01
7170.00,1.01
7169.00,1.00
7168.00,1.00
7167.00,1.00
7166.00,0.99
7165.00,0.99
7164.00,0.99
7163.00,0.98
7162.00,0.98
7161.00,0.98
7160.00,0.98
7159.00,0.98
7158.00,0.97
7157.00,0.97
7156.00,0.97
7155.00,0.97
7154.00,0.96
7153.00,0.96
7152.00,0.96
7151.00,0.96
7150.00,0.96
7149.00,0.95
7148.00,0.95
7147.00,0.95
7146.00,0.95
7145.00,0.95
7144.00,0.94
7143.00,0.94
7142.00,0.94
7141.00,0.93
7140.00,0.93
7139.00,0.93
7138.00,0.93
7137.00,0.92
7136.00,0.92
7135.00,0.92
7134.00,0.92
7133.00,0.91
7132.00,0.91
7131.00,0.91
7130.00,0.90
7129.00,0.90
7128.00,0.90
7127.00,0.89
7126.00,0.89
7125.00,0.89
7124.00,0.88
7123.00,0.88
7122.00,0.88
7121.00,0.87
7120.00,0.87
7119.00,0.87
7118.00,0.86
7117.00,0.86
7116.00,0.86
7115.00,0.86
7114.00,0.85
7113.00,0.85
7112.00,0.85
7111.00,0.85
7110.00,0.84
7109.00,0.84
7108.00,0.84
7107.00,0.84
7106.00,0.84
7105.00,0.83
7104.00,0.83
7103.00,0.83
7102.00,0.83
7101.00,0.83
7100.00,0.82
7099.00,0.82
7098.00,0.82
7097.00,0.82
7096.00,0.82
7095.00,0.81
7094.00,0.81
7093.00,0.81
7092.00,0.81
7091.00,0.81
7090.00,0.81
7089.00,0.81
7088.00,0.80
7087.00,0.80
7086.00,0.80
7085.00,0.80
7084.00,0.80
7083.00,0.80
7082.00,0.80
7081.00,0.80
7080.00,0.80
7079.00,0.80
7078.00,0.79
7077.00,0.79
7076.00,0.79
7075.00,0.79
7074.00,0.79
7073.00,0.79
7072.00,0.79
7071.00,0.79
7070.00,0.79
7069.00,0.79
7068.00,0.79
7067.00,0.79
7066.00,0.79
7065.00,0.78
7064.00,0.78
7063.00,0.78
7062.00,0.78
7061.00,0.78
7060.00,0.78
7059.00,0.78
7058.00,0.78
7057.00,0.78
7056.00,0.78
7055.00,0.78
7054.00,0.78
7053.00,0.77
7052.00,0.77
7051.00,0.77
7050.00,0.77
7049.00,0.77
7048.00,0.77
7047.00,0.77
7046.00,0.77
7045.00,0.77
7044.00,0.77
7043.00,0.77
7042.00,0.77
7041.00,0.77
7040.00,0.76
7039.00,0.76
7038.00,0.76
7037.00,0.76
7036.00,0.76
7035.00,0.76
7034.00,0.76
7033.00,0.76
7032.00,0.76
7031.00,0.76
7030.00,0.76
7029.00,0.76
7028.00,0.75
7027.00,0.75
7026.00,0.75
7025.00,0.75
7024.00,0.75
7023.00,0.75
7022.00,0.75
7021.00,0.75
7020.00,0.75
7019.00,0.75
7018.00,0.75
7017.00,0.74
7016.00,0.74
7015.00,0.74
7014.00,0.74
7013.00,0.74
7012.00,0.74
7011.00,0.74
7010.00,0.74
7009.00,0.74
7008.00,0.74
7007.00,0.74
7006.00,0.74
7005.00,0.74
7004.00,0.74
7003.00,0.74
7002.00,0.74
7001.00,0.74
7000.00,0.74
6999.00,0.74
6998.00,0.74
6997.00,0.74
6996.00,0.74
6995.00,0.74
6994.00,0.74
6993.00,0.74
6992.00,0.74
6991.00,0.74
6990.00,0.74
6989.00,0.73
6988.00,0.73
6987.00,0.73
6986.00,0.73
6985.00,0.73
6984.00,0.73
6983.00,0.73
6982.00,0.73
6981.00,0.73
6980.00,0.73
6979.00,0.73
6978.00,0.73
6977.00,0.73
6976.00,0.73
6975.00,0.73
6974.00,0.73
6973.00,0.73
6972.00,0.73
6971.00,0.73
6970.00,0.72
6969.00,0.72
6968.00,0.72
6967.00,0.72
6966.00,0.72
6965.00,0.72
6964.00,0.72
6963.00,0.72
6962.00,0.72
6961.00,0.72
6960.00,0.72
6959.00,0.72
6958.00,0.72
6957.00,0.72
6956.00,0.72
6955.00,0.72
6954.00,0.72
6953.00,0.73
6952.00,0.73
6951.00,0.73
6950.00,0.73
6949.00,0.73
6948.00,0.73
6947.00,0.73
6946.00,0.73
6945.00,0.73
6944.00,0.73
6943.00,0.73
6942.00,0.73
6941.00,0.73
6940.00,0.73
6939.00,0.73
6938.00,0.73
6937.00,0.73
6936.00,0.73
6935.00,0.73
6934.00,0.73
6933.00,0.73
6932.00,0.73
6931.00,0.73
6930.00,0.73
6929.00,0.73
6928.00,0.73
6927.00,0.73
6926.00,0.73
6925.00,0.73
6924.00,0.73
6923.00,0.73
6922.00,0.73
6921.00,0.73
6920.00,0.73
6919.00,0.73
6918.00,0.72
6917.00,0.72
6916.00,0.72
6915.00,0.72
6914.00,0.72
6913.00,0.72
6912.00,0.72
6911.00,0.72
6910.00,0.72
6909.00,0.72
6908.00,0.72
6907.00,0.72
6906.00,0.72
6905.00,0.72
6904.00,0.73
6903.00,0.73
6902.00,0.73
6901.00,0.73
6900.00,0.73
6899.00,0.73
6898.00,0.73
6897.00,0.73
6896.00,0.73
6895.00,0.73
6894.00,0.73
6893.00,0.73
6892.00,0.73
6891.00,0.73
6890.00,0.73
6889.00,0.72
6888.00,0.72
6887.00,0.72
6886.00,0.72
6885.00,0.72
6884.00,0.72
6883.00,0.72
6882.00,0.72
6881.00,0.72
6880.00,0.72
6879.00,0.72
6878.00,0.72
6877.00,0.72
6876.00,0.72
6875.00,0.72
6874.00,0.72
6873.00,0.71
6872.00,0.71
6871.00,0.71
6870.00,0.72
6869.00,0.72
6868.00,0.72
6867.00,0.72
6866.00,0.72
6865.00,0.72
6864.00,0.72
6863.00,0.72
6862.00,0.72
6861.00,0.72
6860.00,0.72
6859.00,0.72
6858.00,0.72
6857.00,0.72
6856.00,0.72
6855.00,0.73
6854.00,0.73
6853.00,0.73
6852.00,0.73
6851.00,0.73
6850.00,0.73
6849.00,0.73
6848.00,0.73
6847.00,0.73
6846.00,0.73
6845.00,0.73
6844.00,0.73
6843.00,0.73
6842.00,0.73
6841.00,0.73
6840.00,0.73
6839.00,0.73
6838.00,0.73
6837.00,0.73
6836.00,0.73
6835.00,0.73
6834.00,0.73
6833.00,0.73
6832.00,0.73
6831.00,0.73
6830.00,0.73
6829.00,0.73
6828.00,0.73
6827.00,0.73
6826.00,0.73
6825.00,0.73
6824.00,0.73
6823.00,0.73
6822.00,0.74
6821.00,0.74
6820.00,0.74
6819.00,0.74
6818.00,0.74
6817.00,0.74
6816.00,0.74
6815.00,0.74
6814.00,0.74
6813.00,0.74
6812.00,0.74
6811.00,0.74
6810.00,0.74
6809.00,0.74
6808.00,0.74
6807.00,0.74
6806.00,0.74
6805.00,0.74
6804.00,0.74
6803.00,0.74
6802.00,0.74
6801.00,0.74
6800.00,0.74
6799.00,0.74
6798.00,0.74
6797.00,0.74
6796.00,0.74
6795.00,0.74
6794.00,0.74
6793.00,0.75
6792.00,0.75
6791.00,0.75
6790.00,0.75
6789.00,0.75
6788.00,0.75
6787.00,0.75
6786.00,0.75
6785.00,0.75
6784.00,0.75
6783.00,0.75
6782.00,0.75
6781.00,0.75
6780.00,0.75
6779.00,0.75
6778.00,0.75
6777.00,0.75
6776.00,0.75
6775.00,0.75
6774.00,0.75
6773.00,0.75
6772.00,0.75
6771.00,0.75
6770.00,0.74
6769.00,0.74
6768.00,0.74
6767.00,0.75
6766.00,0.75
6765.00,0.75
6764.00,0.75
6763.00,0.75
6762.00,0.75
6761.00,0.75
6760.00,0.75
6759.00,0.75
6758.00,0.75
6757.00,0.75
6756.00,0.75
6755.00,0.76
6754.00,0.76
6753.00,0.76
6752.00,0.76
6751.00,0.76
6750.00,0.76
6749.00,0.76
6748.00,0.76
6747.00,0.76
6746.00,0.76
6745.00,0.76
6744.00,0.77
6743.00,0.77
6742.00,0.77
6741.00,0.77
6740.00,0.77
6739.00,0.77
6738.00,0.77
6737.00,0.77
6736.00,0.77
6735.00,0.77
6734.00,0.77
6733.00,0.77
6732.00,0.77
6731.00,0.77
6730.00,0.77
6729.00,0.77
6728.00,0.77
6727.00,0.78
6726.00,0.78
6725.00,0.78
6724.00,0.78
6723.00,0.78
6722.00,0.78
6721.00,0.78
6720.00,0.78
6719.00,0.78
6718.00,0.78
6717.00,0.78
6716.00,0.78
6715.00,0.78
6714.00,0.78
6713.00,0.78
6712.00,0.79
6711.00,0.79
6710.00,0.79
6709.00,0.79
6708.00,0.79
6707.00,0.79
6706.00,0.79
6705.00,0.79
6704.00,0.79
6703.00,0.79
6702.00,0.80
6701.00,0.80
6700.00,0.80
6699.00,0.80
6698.00,0.80
6697.00,0.80
6696.00,0.80
6695.00,0.80
6694.00,0.80
6693.00,0.80
6692.00,0.80
6691.00,0.80
6690.00,0.80
6689.00,0.80
6688.00,0.80
6687.00,0.80
6686.00,0.80
6685.00,0.80
6684.00,0.81
6683.00,0.81
6682.00,0.81
6681.00,0.81
6680.00,0.81
6679.00,0.81
6678.00,0.81
6677.00,0.81
6676.00,0.81
6675.00,0.81
6674.00,0.81
6673.00,0.81
6672.00,0.81
6671.00,0.81
6670.00,0.81
6669.00,0.82
6668.00,0.82
6667.00,0.82
6666.00,0.82
6665.00,0.82
6664.00,0.82
6663.00,0.82
6662.00,0.82
6661.00,0.82
6660.00,0.82
6659.00,0.83
6658.00,0.83
6657.00,0.83
6656.00,0.83
6655.00,0.83
6654.00,0.83
6653.00,0.83
6652.00,0.83
6651.00,0.84
6650.00,0.84
6649.00,0.84
6648.00,0.84
6647.00,0.84
6646.00,0.84
6645.00,0.84
6644.00,0.84
6643.00,0.84
6642.00,0.84
6641.00,0.84
6640.00,0.84
6639.00,0.84
6638.00,0.84
6637.00,0.84
6636.00,0.84
6635.00,0.84
6634.00,0.84
6633.00,0.84
6632.00,0.84
6631.00,0.85
6630.00,0.85
6629.00,0.85
6628.00,0.85
6627.00,0.85
6626.00,0.85
6625.00,0.85
6624.00,0.85
6623.00,0.85
6622.00,0.85
6621.00,0.85
6620.00,0.85
6619.00,0.85
6618.00,0.86
6617.00,0.86
6616.00,0.86
6615.00,0.86
6614.00,0.86
6613.00,0.86
6612.00,0.86
6611.00,0.86
6610.00,0.87
6609.00,0.87
6608.00,0.87
6607.00,0.87
6606.00,0.87
6605.00,0.87
6604.00,0.87
6603.00,0.87
6602.00,0.87
6601.00,0.88
6600.00,0.88
6599.00,0.88
6598.00,0.88
6597.00,0.88
6596.00,0.88
6595.00,0.88
6594.00,0.88
6593.00,0.88
6592.00,0.88
6591.00,0.88
6590.00,0.88
6589.00,0.88
6588.00,0.88
6587.00,0.88
6586.00,0.89
6585.00,0.89
6584.00,0.89
6583.00,0.89
6582.00,0.89
6581.00,0.89
6580.00,0.89
6579.00,0.89
6578.00,0.89
6577.00,0.89
6576.00,0.89
6575.00,0.89
6574.00,0.90
6573.00,0.90
6572.00,0.90
6571.00,0.90
6570.00,0.90
6569.00,0.90
6568.00,0.90
6567.00,0.90
6566.00,0.91
6565.00,0.91
6564.00,0.91
6563.00,0.91
6562.00,0.91
6561.00,0.91
6560.00,0.91
6559.00,0.91
6558.00,0.91
6557.00,0.91
6556.00,0.91
6555.00,0.92
6554.00,0.92
6553.00,0.92
6552.00,0.92
6551.00,0.92
6550.00,0.92
6549.00,0.92
6548.00,0.92
6547.00,0.92
6546.00,0.92
6545.00,0.92
6544.00,0.92
6543.00,0.92
6542.00,0.92
6541.00,0.93
6540.00,0.93
6539.00,0.93
6538.00,0.93
6537.00,0.93
6536.00,0.93
6535.00,0.93
6534.00,0.93
6533.00,0.93
6532.00,0.93
6531.00,0.94
6530.00,0.94
6529.00,0.94
6528.00,0.94
6527.00,0.94
6526.00,0.94
6525.00,0.94
6524.00,0.94
6523.00,0.94
6522.00,0.94
6521.00,0.94
6520.00,0.94
6519.00,0.94
6518.00,0.94
6517.00,0.95
6516.00,0.95
6515.00,0.95
6514.00,0.95
6513.00,0.95
6512.00,0.95
6511.00,0.95
6510.00,0.95
6509.00,0.95
6508.00,0.95
6507.00,0.96
6506.00,0.96
6505.00,0.96
6504.00,0.96
6503.00,0.96
6502.00,0.96
6501.00,0.96
6500.00,0.96
6499.00,0.96
6498.00,0.96
6497.00,0.96
6496.00,0.96
6495.00,0.96
6494.00,0.96
6493.00,0.96
6492.00,0.96
6491.00,0.96
6490.00,0.96
6489.00,0.96
6488.00,0.96
6487.00,0.96
6486.00,0.97
6485.00,0.97
6484.00,0.97
6483.00,0.97
6482.00,0.97
6481.00,0.97
6480.00,0.97
6479.00,0.97
6478.00,0.97
6477.00,0.97
6476.00,0.97
6475.00,0.97
6474.00,0.97
6473.00,0.97
6472.00,0.97
6471.00,0.98
6470.00,0.98
6469.00,0.98
6468.00,0.98
6467.00,0.98
6466.00,0.98
6465.00,0.98
6464.00,0.98
6463.00,0.98
6462.00,0.98
6461.00,0.98
6460.00,0.98
6459.00,0.98
6458.00,0.98
6457.00,0.98
6456.00,0.98
6455.00,0.99
6454.00,0.99
6453.00,0.99
6452.00,0.99
6451.00,0.99
6450.00,0.99
6449.00,0.99
6448.00,0.99
6447.00,0.99
6446.00,0.99
6445.00,0.99
6444.00,0.99
6443.00,0.99
6442.00,0.99
6441.00,0.99
6440.00,0.99
6439.00,0.99
6438.00,0.99
6437.00,0.99
6436.00,0.99
6435.00,0.99
6434.00,1.00
6433.00,1.00
6432.00,1.00
6431.00,1.00
6430.00,1.00
6429.00,1.00
6428.00,1.00
6427.00,1.01
6426.00,1.01
6425.00,1.01
6424.00,1.01
6423.00,1.01
6422.00,1.01
6421.00,1.01
6420.00,1.01
6419.00,1.01
6418.00,1.01
6417.00,1.01
6416.00,1.01
6415.00,1.01
6414.00,1.01
6413.00,1.01
6412.00,1.01
6411.00,1.01
6410.00,1.02
6409.00,1.02
6408.00,1.02
6407.00,1.02
6406.00,1.02
6405.00,1.02
6404.00,1.02
6403.00,1.02
6402.00,1.02
6401.00,1.03
6400.00,1.03
6399.00,1.03
6398.00,1.03
6397.00,1.03
6396.00,1.03
6395.00,1.03
6394.00,1.03
6393.00,1.03
6392.00,1.03
6391.00,1.04
6390.00,1.04
6389.00,1.04
6388.00,1.04
6387.00,1.04
6386.00,1.04
6385.00,1.04
6384.00,1.04
6383.00,1.04
6382.00,1.04
6381.00,1.04
6380.00,1.04
6379.00,1.04
6378.00,1.04
6377.00,1.04
6376.00,1.04
6375.00,1.05
6374.00,1.05
6373.00,1.05
6372.00,1.05
6371.00,1.05
6370.00,1.05
6369.00,1.05
6368.00,1.05
6367.00,1.06
6366.00,1.06
6365.00,1.06
6364.00,1.06
6363.00,1.06
6362.00,1.06
6361.00,1.06
6360.00,1.06
6359.00,1.06
6358.00,1.06
6357.00,1.06
6356.00,1.06
6355.00,1.06
6354.00,1.06
6353.00,1.06
6352.00,1.06
6351.00,1.06
6350.00,1.06
6349.00,1.06
6348.00,1.06
6347.00,1.06
6346.00,1.06
6345.00,1.06
6344.00,1.06
6343.00,1.06
6342.00,1.06
6341.00,1.07
6340.00,1.07
6339.00,1.07
6338.00,1.07
6337.00,1.07
6336.00,1.07
6335.00,1.07
6334.00,1.07
6333.00,1.07
6332.00,1.07
6331.00,1.08
6330.00,1.08
6329.00,1.08
6328.00,1.08
6327.00,1.08
6326.00,1.08
6325.00,1.08
6324.00,1.09
6323.00,1.09
6322.00,1.09
6321.00,1.09
6320.00,1.09
6319.00,1.09
6318.00,1.10
6317.00,1.10
6316.00,1.10
6315.00,1.10
6314.00,1.10
6313.00,1.11
6312.00,1.11
6311.00,1.11
6310.00,1.11
6309.00,1.11
6308.00,1.11
6307.00,1.11
6306.00,1.11
6305.00,1.12
6304.00,1.12
6303.00,1.12
6302.00,1.12
6301.00,1.12
6300.00,1.12
6299.00,1.12
6298.00,1.12
6297.00,1.12
6296.00,1.12
6295.00,1.12
6294.00,1.12
6293.00,1.13
6292.00,1.13
6291.00,1.13
6290.00,1.13
6289.00,1.13
6288.00,1.13
6287.00,1.13
6286.00,1.13
6285.00,1.13
6284.00,1.13
6283.00,1.14
6282.00,1.14
6281.00,1.14
6280.00,1.14
6279.00,1.14
6278.00,1.14
6277.00,1.14
6276.00,1.14
6275.00,1.15
6274.00,1.15
6273.00,1.15
6272.00,1.15
6271.00,1.15
6270.00,1.15
6269.00,1.16
6268.00,1.16
6267.00,1.16
6266.00,1.16
6265.00,1.17
6264.00,1.17
6263.00,1.17
6262.00,1.17
6261.00,1.17
6260.00,1.17
6259.00,1.18
6258.00,1.18
6257.00,1.18
6256.00,1.18
6255.00,1.18
6254.00,1.18
6253.00,1.18
6252.00,1.18
6251.00,1.18
6250.00,1.18
6249.00,1.18
6248.00,1.19
6247.00,1.19
6246.00,1.19
6245.00,1.19
6244.00,1.19
6243.00,1.19
6242.00,1.19
6241.00,1.19
6240.00,1.19
6239.00,1.19
6238.00,1.19
6237.00,1.20
6236.00,1.20
6235.00,1.20
6234.00,1.20
6233.00,1.20
6232.00,1.20
6231.00,1.21
6230.00,1.21
6229.00,1.21
6228.00,1.21
6227.00,1.21
6226.00,1.21
6225.00,1.21
6224.00,1.22
6223.00,1.22
6222.00,1.22
6221.00,1.22
6220.00,1.22
6219.00,1.22
6218.00,1.22
6217.00,1.22
6216.00,1.23
6215.00,1.23
6214.00,1.23
6213.00,1.23
6212.00,1.23
6211.00,1.23
6210.00,1.23
6209.00,1.23
6208.00,1.24
6207.00,1.24
6206.00,1.24
6205.00,1.24
6204.00,1.24
6203.00,1.24
6202.00,1.25
6201.00,1.25
6200.00,1.25
6199.00,1.25
6198.00,1.25
6197.00,1.25
6196.00,1.26
6195.00,1.26
6194.00,1.26
6193.00,1.26
6192.00,1.26
6191.00,1.26
6190.00,1.27
6189.00,1.27
6188.00,1.27
6187.00,1.27
6186.00,1.27
6185.00,1.27
6184.00,1.27
6183.00,1.27
6182.00,1.28
6181.00,1.28
6180.00,1.28
6179.00,1.28
6178.00,1.28
6177.00,1.28
6176.00,1.29
6175.00,1.29
6174.00,1.29
6173.00,1.29
6172.00,1.29
6171.00,1.30
6170.00,1.30
6169.00,1.30
6168.00,1.30
6167.00,1.30
6166.00,1.30
6165.00,1.30
6164.00,1.31
6163.00,1.31
6162.00,1.31
6161.00,1.31
6160.00,1.31
6159.00,1.31
6158.00,1.31
6157.00,1.32
6156.00,1.32
6155.00,1.32
6154.00,1.32
6153.00,1.32
6152.00,1.32
6151.00,1.33
6150.00,1.33
6149.00,1.33
6148.00,1.33
6147.00,1.34
6146.00,1.34
6145.00,1.34
6144.00,1.34
6143.00,1.35
6142.00,1.35
6141.00,1.35
6140.00,1.35
6139.00,1.36
6138.00,1.36
6137.00,1.36
6136.00,1.36
6135.00,1.36
6134.00,1.37
6133.00,1.37
6132.00,1.37
6131.00,1.37
6130.00,1.37
6129.00,1.37
6128.00,1.38
6127.00,1.38
6126.00,1.38
6125.00,1.38
6124.00,1.38
6123.00,1.38
6122.00,1.38
6121.00,1.38
6120.00,1.38
6119.00,1.39
6118.00,1.39
6117.00,1.39
6116.00,1.39
6115.00,1.39
6114.00,1.39
6113.00,1.40
6112.00,1.40
6111.00,1.40
6110.00,1.40
6109.00,1.40
6108.00,1.41
6107.00,1.41
6106.00,1.41
6105.00,1.41
6104.00,1.42
6103.00,1.42
6102.00,1.42
6101.00,1.42
6100.00,1.42
6099.00,1.42
6098.00,1.43
6097.00,1.43
6096.00,1.43
6095.00,1.43
6094.00,1.43
6093.00,1.43
6092.00,1.43
6091.00,1.43
6090.00,1.44
6089.00,1.44
6088.00,1.44
6087.00,1.44
6086.00,1.44
6085.00,1.44
6084.00,1.44
6083.00,1.45
6082.00,1.45
6081.00,1.45
6080.00,1.45
6079.00,1.45
6078.00,1.45
6077.00,1.45
6076.00,1.45
6075.00,1.45
6074.00,1.45
6073.00,1.45
6072.00,1.45
6071.00,1.46
6070.00,1.46
6069.00,1.46
6068.00,1.46
6067.00,1.46
6066.00,1.46
6065.00,1.46
6064.00,1.46
6063.00,1.46
6062.00,1.46
6061.00,1.47
6060.00,1.47
6059.00,1.47
6058.00,1.47
6057.00,1.47
6056.00,1.47
6055.00,1.47
6054.00,1.47
6053.00,1.48
6052.00,1.48
6051.00,1.48
6050.00,1.48
6049.00,1.48
6048.00,1.48
6047.00,1.48
6046.00,1.48
6045.00,1.49
6044.00,1.49
6043.00,1.49
6042.00,1.49
6041.00,1.49
6040.00,1.49
6039.00,1.49
6038.00,1.49
6037.00,1.49
6036.00,1.50
6035.00,1.50
6034.00,1.50
6033.00,1.50
6032.00,1.50
6031.00,1.50
6030.00,1.50
6029.00,1.50
6028.00,1.50
6027.00,1.50
6026.00,1.51
6025.00,1.51
6024.00,1.51
6023.00,1.51
6022.00,1.51
6021.00,1.51
6020.00,1.51
6019.00,1.51
6018.00,1.51
6017.00,1.51
6016.00,1.51
6015.00,1.51
6014.00,1.51
6013.00,1.51
6012.00,1.51
6011.00,1.51
6010.00,1.51
6009.00,1.51
6008.00,1.51
6007.00,1.51
6006.00,1.51
6005.00,1.50
6004.00,1.50
6003.00,1.50
6002.00,1.50
6001.00,1.50
6000.00,1.50
5999.00,1.50
5998.00,1.50
5997.00,1.50
5996.00,1.50
5995.00,1.49
5994.00,1.49
5993.00,1.49
5992.00,1.49
5991.00,1.49
5990.00,1.49
5989.00,1.49
5988.00,1.48
5987.00,1.48
5986.00,1.48
5985.00,1.48
5984.00,1.47
5983.00,1.47
5982.00,1.47
5981.00,1.46
5980.00,1.46
5979.00,1.46
5978.00,1.45
5977.00,1.45
5976.00,1.44
5975.00,1.44
5974.00,1.43
5973.00,1.42
5972.00,1.42
5971.00,1.41
5970.00,1.40
5969.00,1.39
5968.00,1.39
5967.00,1.38
5966.00,1.37
5965.00,1.36
5964.00,1.35
5963.00,1.35
5962.00,1.34
5961.00,1.33
5960.00,1.32
5959.00,1.31
5958.00,1.30
5957.00,1.30
5956.00,1.29
5955.00,1.28
5954.00,1.28
5953.00,1.27
5952.00,1.27
5951.00,1.26
5950.00,1.26
5949.00,1.25
5948.00,1.25
5947.00,1.24
5946.00,1.24
5945.00,1.24
5944.00,1.24
5943.00,1.23
5942.00,1.23
5941.00,1.23
5940.00,1.23
5939.00,1.23
5938.00,1.22
5937.00,1.22
5936.00,1.22
5935.00,1.22
5934.00,1.22
5933.00,1.22
5932.00,1.21
5931.00,1.21
5930.00,1.21
5929.00,1.21
5928.00,1.21
5927.00,1.21
5926.00,1.20
5925.00,1.20
5924.00,1.20
5923.00,1.20
5922.00,1.20
5921.00,1.19
5920.00,1.19
5919.00,1.19
5918.00,1.19
5917.00,1.18
5916.00,1.18
5915.00,1.18
5914.00,1.17
5913.00,1.17
5912.00,1.17
5911.00,1.16
5910.00,1.16
5909.00,1.16
5908.00,1.16
5907.00,1.16
5906.00,1.15
5905.00,1.15
5904.00,1.15
5903.00,1.15
5902.00,1.15
5901.00,1.15
5900.00,1.15
5899.00,1.15
5898.00,1.15
5897.00,1.16
5896.00,1.16
5895.00,1.16
5894.00,1.16
5893.00,1.17
5892.00,1.17
5891.00,1.17
5890.00,1.17
5889.00,1.18
5888.00,1.18
5887.00,1.18
5886.00,1.19
5885.00,1.19
5884.00,1.19
5883.00,1.20
5882.00,1.20
5881.00,1.20
5880.00,1.21
5879.00,1.21
5878.00,1.21
5877.00,1.22
5876.00,1.22
5875.00,1.22
5874.00,1.23
5873.00,1.23
5872.00,1.23
5871.00,1.23
5870.00,1.24
5869.00,1.24
5868.00,1.24
5867.00,1.24
5866.00,1.25
5865.00,1.25
5864.00,1.25
5863.00,1.25
5862.00,1.25
5861.00,1.25
5860.00,1.26
5859.00,1.26
5858.00,1.26
5857.00,1.26
5856.00,1.26
5855.00,1.26
5854.00,1.26
5853.00,1.26
5852.00,1.26
5851.00,1.26
5850.00,1.26
5849.00,1.27
5848.00,1.27
5847.00,1.26
5846.00,1.26
5845.00,1.26
5844.00,1.26
5843.00,1.26
5842.00,1.26
5841.00,1.26
5840.00,1.26
5839.00,1.26
5838.00,1.26
5837.00,1.26
5836.00,1.26
5835.00,1.26
5834.00,1.26
5833.00,1.26
5832.00,1.26
5831.00,1.26
5830.00,1.26
5829.00,1.26
5828.00,1.26
5827.00,1.26
5826.00,1.26
5825.00,1.26
5824.00,1.26
5823.00,1.26
5822.00,1.27
5821.00,1.27
5820.00,1.27
5819.00,1.27
5818.00,1.27
5817.00,1.27
5816.00,1.27
5815.00,1.27
5814.00,1.27
5813.00,1.27
5812.00,1.27
5811.00,1.27
5810.00,1.27
5809.00,1.27
5808.00,1.27
5807.00,1.27
5806.00,1.27
5805.00,1.27
5804.00,1.27
5803.00,1.27
5802.00,1.27
5801.00,1.27
5800.00,1.27
5799.00,1.26
5798.00,1.26
5797.00,1.26
5796.00,1.26
5795.00,1.26
5794.00,1.26
5793.00,1.25
5792.00,1.25
5791.00,1.25
5790.00,1.25
5789.00,1.24
5788.00,1.24
5787.00,1.24
5786.00,1.24
5785.00,1.23
5784.00,1.23
5783.00,1.23
5782.00,1.23
5781.00,1.23
5780.00,1.23
5779.00,1.22
5778.00,1.22
5777.00,1.22
5776.00,1.22
5775.00,1.22
5774.00,1.22
5773.00,1.22
5772.00,1.22
5771.00,1.22
5770.00,1.22
5769.00,1.22
5768.00,1.23
5767.00,1.23
5766.00,1.23
5765.00,1.23
5764.00,1.23
5763.00,1.23
5762.00,1.24
5761.00,1.24
5760.00,1.24
5759.00,1.25
5758.00,1.25
5757.00,1.25
5756.00,1.26
5755.00,1.26
5754.00,1.26
5753.00,1.27
5752.00,1.27
5751.00,1.27
5750.00,1.28
5749.00,1.28
5748.00,1.28
5747.00,1.29
5746.00,1.29
5745.00,1.29
5744.00,1.30
5743.00,1.30
5742.00,1.30
5741.00,1.30
5740.00,1.31
5739.00,1.31
5738.00,1.31
5737.00,1.31
5736.00,1.32
5735.00,1.32
5734.00,1.32
5733.00,1.32
5732.00,1.32
5731.00,1.33
5730.00,1.33
5729.00,1.33
5728.00,1.33
5727.00,1.33
5726.00,1.33
5725.00,1.34
5724.00,1.34
5723.00,1.34
5722.00,1.34
5721.00,1.34
5720.00,1.34
5719.00,1.34
5718.00,1.34
5717.00,1.34
5716.00,1.34
5715.00,1.34
5714.00,1.34
5713.00,1.34
5712.00,1.34
5711.00,1.34
5710.00,1.34
5709.00,1.33
5708.00,1.33
5707.00,1.33
5706.00,1.33
5705.00,1.33
5704.00,1.33
5703.00,1.33
5702.00,1.33
5701.00,1.33
5700.00,1.33
5699.00,1.33
5698.00,1.33
5697.00,1.33
5696.00,1.32
5695.00,1.32
5694.00,1.32
5693.00,1.32
5692.00,1.32
5691.00,1.32
5690.00,1.31
5689.00,1.31
5688.00,1.31
5687.00,1.31
5686.00,1.31
5685.00,1.31
5684.00,1.31
5683.00,1.30
5682.00,1.30
5681.00,1.30
5680.00,1.30
5679.00,1.30
5678.00,1.30
5677.00,1.30
5676.00,1.30
5675.00,1.30
5674.00,1.30
5673.00,1.30
5672.00,1.30
5671.00,1.30
5670.00,1.30
5669.00,1.30
5668.00,1.30
5667.00,1.30
5666.00,1.31
5665.00,1.31
5664.00,1.31
5663.00,1.31
5662.00,1.31
5661.00,1.31
5660.00,1.31
5659.00,1.32
5658.00,1.32
5657.00,1.32
5656.00,1.32
5655.00,1.32
5654.00,1.32
5653.00,1.33
5652.00,1.33
5651.00,1.33
5650.00,1.33
5649.00,1.33
5648.00,1.33
5647.00,1.34
5646.00,1.34
5645.00,1.34
5644.00,1.34
5643.00,1.34
5642.00,1.35
5641.00,1.35
5640.00,1.35
5639.00,1.35
5638.00,1.35
5637.00,1.36
5636.00,1.36
5635.00,1.36
5634.00,1.36
5633.00,1.36
5632.00,1.37
5631.00,1.37
5630.00,1.37
5629.00,1.37
5628.00,1.37
5627.00,1.38
5626.00,1.38
5625.00,1.38
5624.00,1.38
5623.00,1.39
5622.00,1.39
5621.00,1.39
5620.00,1.39
5619.00,1.39
5618.00,1.40
5617.00,1.40
5616.00,1.40
5615.00,1.40
5614.00,1.41
5613.00,1.41
5612.00,1.41
5611.00,1.41
5610.00,1.42
5609.00,1.42
5608.00,1.42
5607.00,1.42
5606.00,1.43
5605.00,1.43
5604.00,1.43
5603.00,1.43
5602.00,1.43
5601.00,1.44
5600.00,1.44
5599.00,1.44
5598.00,1.44
5597.00,1.44
5596.00,1.44
5595.00,1.44
5594.00,1.44
5593.00,1.45
5592.00,1.45
5591.00,1.45
5590.00,1.45
5589.00,1.45
5588.00,1.45
5587.00,1.45
5586.00,1.46
5585.00,1.46
5584.00,1.46
5583.00,1.46
5582.00,1.46
5581.00,1.47
5580.00,1.47
5579.00,1.47
5578.00,1.47
5577.00,1.47
5576.00,1.47
5575.00,1.48
5574.00,1.48
5573.00,1.48
5572.00,1.48
5571.00,1.48
5570.00,1.49
5569.00,1.49
5568.00,1.49
5567.00,1.49
5566.00,1.49
5565.00,1.49
5564.00,1.49
5563.00,1.50
5562.00,1.50
5561.00,1.50
5560.00,1.50
5559.00,1.50
5558.00,1.50
5557.00,1.50
5556.00,1.50
5555.00,1.50
5554.00,1.50
5553.00,1.51
5552.00,1.51
5551.00,1.51
5550.00,1.51
5549.00,1.51
5548.00,1.51
5547.00,1.51
5546.00,1.52
5545.00,1.52
5544.00,1.52
5543.00,1.52
5542.00,1.52
5541.00,1.52
5540.00,1.53
5539.00,1.53
5538.00,1.53
5537.00,1.53
5536.00,1.53
5535.00,1.53
5534.00,1.54
5533.00,1.54
5532.00,1.54
5531.00,1.54
5530.00,1.54
5529.00,1.54
5528.00,1.54
5527.00,1.54
5526.00,1.54
5525.00,1.55
5524.00,1.55
5523.00,1.55
5522.00,1.55
5521.00,1.55
5520.00,1.55
5519.00,1.55
5518.00,1.55
5517.00,1.55
5516.00,1.55
5515.00,1.56
5514.00,1.56
5513.00,1.56
5512.00,1.56
5511.00,1.56
5510.00,1.56
5509.00,1.56
5508.00,1.56
5507.00,1.56
5506.00,1.56
5505.00,1.56
5504.00,1.56
5503.00,1.56
5502.00,1.56
5501.00,1.56
5500.00,1.56
5499.00,1.56
5498.00,1.56
5497.00,1.56
5496.00,1.56
5495.00,1.56
5494.00,1.56
5493.00,1.57
5492.00,1.57
5491.00,1.57
5490.00,1.57
5489.00,1.57
5488.00,1.57
5487.00,1.57
5486.00,1.58
5485.00,1.58
5484.00,1.58
5483.00,1.58
5482.00,1.58
5481.00,1.58
5480.00,1.58
5479.00,1.59
5478.00,1.59
5477.00,1.59
5476.00,1.59
5475.00,1.59
5474.00,1.59
5473.00,1.59
5472.00,1.59
5471.00,1.60
5470.00,1.60
5469.00,1.60
5468.00,1.60
5467.00,1.60
5466.00,1.61
5465.00,1.61
5464.00,1.61
5463.00,1.61
5462.00,1.61
5461.00,1.61
5460.00,1.62
5459.00,1.62
5458.00,1.62
5457.00,1.62
5456.00,1.62
5455.00,1.62
5454.00,1.62
5453.00,1.62
5452.00,1.62
5451.00,1.62
5450.00,1.62
5449.00,1.62
5448.00,1.62
5447.00,1.62
5446.00,1.62
5445.00,1.62
5444.00,1.62
5443.00,1.62
5442.00,1.62
5441.00,1.62
5440.00,1.62
5439.00,1.62
5438.00,1.62
5437.00,1.62
5436.00,1.62
5435.00,1.62
5434.00,1.62
5433.00,1.63
5432.00,1.63
5431.00,1.63
5430.00,1.63
5429.00,1.63
5428.00,1.63
5427.00,1.63
5426.00,1.63
5425.00,1.63
5424.00,1.63
5423.00,1.63
5422.00,1.63
5421.00,1.63
5420.00,1.63
5419.00,1.63
5418.00,1.63
5417.00,1.63
5416.00,1.63
5415.00,1.63
5414.00,1.63
5413.00,1.63
5412.00,1.63
5411.00,1.63
5410.00,1.63
5409.00,1.63
5408.00,1.63
5407.00,1.63
5406.00,1.63
5405.00,1.63
5404.00,1.63
5403.00,1.63
5402.00,1.63
5401.00,1.63
5400.00,1.63
5399.00,1.63
5398.00,1.63
5397.00,1.63
5396.00,1.62
5395.00,1.62
5394.00,1.62
5393.00,1.62
5392.00,1.61
5391.00,1.61
5390.00,1.61
5389.00,1.60
5388.00,1.60
5387.00,1.60
5386.00,1.59
5385.00,1.59
5384.00,1.59
5383.00,1.58
5382.00,1.58
5381.00,1.57
5380.00,1.57
5379.00,1.57
5378.00,1.56
5377.00,1.56
5376.00,1.55
5375.00,1.55
5374.00,1.54
5373.00,1.54
5372.00,1.53
5371.00,1.53
5370.00,1.52
5369.00,1.52
5368.00,1.51
5367.00,1.50
5366.00,1.50
5365.00,1.49
5364.00,1.48
5363.00,1.48
5362.00,1.47
5361.00,1.46
5360.00,1.45
5359.00,1.45
5358.00,1.44
5357.00,1.43
5356.00,1.42
5355.00,1.41
5354.00,1.40
5353.00,1.39
5352.00,1.38
5351.00,1.37
5350.00,1.37
5349.00,1.36
5348.00,1.35
5347.00,1.34
5346.00,1.33
5345.00,1.32
5344.00,1.31
5343.00,1.30
5342.00,1.29
5341.00,1.28
5340.00,1.27
5339.00,1.26
5338.00,1.25
5337.00,1.24
5336.00,1.23
5335.00,1.22
5334.00,1.21
5333.00,1.20
5332.00,1.20
5331.00,1.19
5330.00,1.18
5329.00,1.17
5328.00,1.16
5327.00,1.16
5326.00,1.15
5325.00,1.14
5324.00,1.13
5323.00,1.13
5322.00,1.12
5321.00,1.11
5320.00,1.11
5319.00,1.10
5318.00,1.09
5317.00,1.09
5316.00,1.08
5315.00,1.08
5314.00,1.07
5313.00,1.06
5312.00,1.06
5311.00,1.05
5310.00,1.05
5309.00,1.04
5308.00,1.04
5307.00,1.04
5306.00,1.03
5305.00,1.03
5304.00,1.03
5303.00,1.02
5302.00,1.02
5301.00,1.02
5300.00,1.01
5299.00,1.01
5298.00,1.01
5297.00,1.01
5296.00,1.00
5295.00,1.00
5294.00,1.00
5293.00,1.00
5292.00,1.00
5291.00,1.00
5290.00,0.99
5289.00,0.99
5288.00,0.99
5287.00,0.99
5286.00,0.99
5285.00,0.99
5284.00,0.99
5283.00,0.99
5282.00,0.99
5281.00,0.99
5280.00,0.99
5279.00,0.99
5278.00,0.99
5277.00,0.99
5276.00,0.99
5275.00,0.99
5274.00,0.99
5273.00,0.99
5272.00,0.98
5271.00,0.98
5270.00,0.98
5269.00,0.98
5268.00,0.98
5267.00,0.98
5266.00,0.98
5265.00,0.98
5264.00,0.98
5263.00,0.98
5262.00,0.98
5261.00,0.98
5260.00,0.98
5259.00,0.98
5258.00,0.98
5257.00,0.98
5256.00,0.98
5255.00,0.98
5254.00,0.98
5253.00,0.98
5252.00,0.98
5251.00,0.98
5250.00,0.98
5249.00,0.98
5248.00,0.98
5247.00,0.98
5246.00,0.99
5245.00,0.99
5244.00,0.99
5243.00,0.99
5242.00,0.99
5241.00,0.99
5240.00,0.99
5239.00,0.99
5238.00,0.99
5237.00,0.99
5236.00,0.99
5235.00,0.99
5234.00,0.99
5233.00,0.99
5232.00,0.99
5231.00,0.99
5230.00,0.99
5229.00,0.99
5228.00,0.99
5227.00,0.99
5226.00,0.99
5225.00,0.99
5224.00,0.99
5223.00,0.99
5222.00,0.99
5221.00,0.99
5220.00,1.00
5219.00,1.00
5218.00,1.00
5217.00,1.00
5216.00,1.00
5215.00,1.00
5214.00,1.00
5213.00,1.00
5212.00,1.00
5211.00,1.00
5210.00,1.00
5209.00,1.00
5208.00,1.00
5207.00,1.00
5206.00,1.00
5205.00,1.00
5204.00,1.00
5203.00,1.00
5202.00,1.00
5201.00,1.00
5200.00,1.00
5199.00,1.00
5198.00,1.00
5197.00,1.00
5196.00,1.00
5195.00,1.00
5194.00,1.00
5193.00,1.00
5192.00,1.00
5191.00,1.00
5190.00,1.00
5189.00,1.00
5188.00,1.00
5187.00,1.01
5186.00,1.01
5185.00,1.01
5184.00,1.01
5183.00,1.01
5182.00,1.01
5181.00,1.01
5180.00,1.01
5179.00,1.01
5178.00,1.01
5177.00,1.01
5176.00,1.01
5175.00,1.01
5174.00,1.01
5173.00,1.01
5172.00,1.01
5171.00,1.01
5170.00,1.02
5169.00,1.02
5168.00,1.02
5167.00,1.02
5166.00,1.02
5165.00,1.02
5164.00,1.02
5163.00,1.02
5162.00,1.02
5161.00,1.02
5160.00,1.02
5159.00,1.02
5158.00,1.02
5157.00,1.03
5156.00,1.03
5155.00,1.03
5154.00,1.03
5153.00,1.03
5152.00,1.03
5151.00,1.03
5150.00,1.03
5149.00,1.03
5148.00,1.03
5147.00,1.03
5146.00,1.03
5145.00,1.03
5144.00,1.04
5143.00,1.04
5142.00,1.04
5141.00,1.04
5140.00,1.04
5139.00,1.04
5138.00,1.04
5137.00,1.04
5136.00,1.04
5135.00,1.04
5134.00,1.04
5133.00,1.04
5132.00,1.04
5131.00,1.04
5130.00,1.04
5129.00,1.04
5128.00,1.04
5127.00,1.04
5126.00,1.04
5125.00,1.04
5124.00,1.04
5123.00,1.04
5122.00,1.04
5121.00,1.04
5120.00,1.04
5119.00,1.04
5118.00,1.04
5117.00,1.04
5116.00,1.04
5115.00,1.04
5114.00,1.04
5113.00,1.05
5112.00,1.05
5111.00,1.05
5110.00,1.05
5109.00,1.05
5108.00,1.05
5107.00,1.05
5106.00,1.05
5105.00,1.05
5104.00,1.05
5103.00,1.05
5102.00,1.05
5101.00,1.05
5100.00,1.05
5099.00,1.05
5098.00,1.05
5097.00,1.06
5096.00,1.06
5095.00,1.06
5094.00,1.06
5093.00,1.06
5092.00,1.06
5091.00,1.06
5090.00,1.06
5089.00,1.06
5088.00,1.06
5087.00,1.06
5086.00,1.06
5085.00,1.06
5084.00,1.06
5083.00,1.06
5082.00,1.07
5081.00,1.07
5080.00,1.07
5079.00,1.07
5078.00,1.07
5077.00,1.07
5076.00,1.07
5075.00,1.07
5074.00,1.07
5073.00,1.07
5072.00,1.07
5071.00,1.07
5070.00,1.07
5069.00,1.07
5068.00,1.08
5067.00,1.08
5066.00,1.08
5065.00,1.08
5064.00,1.08
5063.00,1.08
5062.00,1.07
5061.00,1.07
5060.00,1.07
5059.00,1.07
5058.00,1.07
5057.00,1.08
5056.00,1.08
5055.00,1.08
5054.00,1.08
5053.00,1.08
5052.00,1.08
5051.00,1.08
5050.00,1.08
5049.00,1.08
5048.00,1.08
5047.00,1.08
5046.00,1.08
5045.00,1.08
5044.00,1.08
5043.00,1.08
5042.00,1.08
5041.00,1.08
5040.00,1.08
5039.00,1.08
5038.00,1.08
5037.00,1.08
5036.00,1.08
5035.00,1.09
5034.00,1.09
5033.00,1.09
5032.00,1.09
5031.00,1.09
5030.00,1.09
5029.00,1.09
5028.00,1.09
5027.00,1.09
5026.00,1.09
5025.00,1.10
5024.00,1.10
5023.00,1.10
5022.00,1.10
5021.00,1.10
5020.00,1.10
5019.00,1.10
5018.00,1.10
5017.00,1.10
5016.00,1.10
5015.00,1.10
5014.00,1.10
5013.00,1.10
5012.00,1.10
5011.00,1.10
5010.00,1.10
5009.00,1.10
5008.00,1.11
5007.00,1.11
5006.00,1.11
5005.00,1.11
5004.00,1.11
5003.00,1.11
5002.00,1.11
5001.00,1.11
5000.00,1.12
4999.00,1.12
4998.00,1.12
4997.00,1.12
4996.00,1.12
4995.00,1.12
4994.00,1.12
4993.00,1.12
4992.00,1.12
4991.00,1.12
4990.00,1.12
4989.00,1.12
4988.00,1.12
4987.00,1.12
4986.00,1.12
4985.00,1.12
4984.00,1.12
4983.00,1.12
4982.00,1.12
4981.00,1.12
4980.00,1.12
4979.00,1.12
4978.00,1.12
4977.00,1.12
4976.00,1.12
4975.00,1.12
4974.00,1.12
4973.00,1.12
4972.00,1.12
4971.00,1.12
4970.00,1.12
4969.00,1.12
4968.00,1.12
4967.00,1.13
4966.00,1.13
4965.00,1.13
4964.00,1.13
4963.00,1.13
4962.00,1.13
4961.00,1.13
4960.00,1.13
4959.00,1.13
4958.00,1.13
4957.00,1.13
4956.00,1.13
4955.00,1.13
4954.00,1.13
4953.00,1.13
4952.00,1.13
4951.00,1.13
4950.00,1.13
4949.00,1.13
4948.00,1.13
4947.00,1.13
4946.00,1.13
4945.00,1.13
4944.00,1.13
4943.00,1.13
4942.00,1.14
4941.00,1.14
4940.00,1.14
4939.00,1.14
4938.00,1.14
4937.00,1.14
4936.00,1.14
4935.00,1.14
4934.00,1.14
4933.00,1.14
4932.00,1.14
4931.00,1.14
4930.00,1.14
4929.00,1.14
4928.00,1.14
4927.00,1.14
4926.00,1.14
4925.00,1.14
4924.00,1.15
4923.00,1.15
4922.00,1.15
4921.00,1.15
4920.00,1.15
4919.00,1.15
4918.00,1.15
4917.00,1.15
4916.00,1.15
4915.00,1.15
4914.00,1.15
4913.00,1.16
4912.00,1.16
4911.00,1.16
4910.00,1.16
4909.00,1.16
4908.00,1.16
4907.00,1.16
4906.00,1.16
4905.00,1.16
4904.00,1.17
4903.00,1.17
4902.00,1.17
4901.00,1.17
4900.00,1.17
4899.00,1.17
4898.00,1.17
4897.00,1.17
4896.00,1.17
4895.00,1.17
4894.00,1.17
4893.00,1.17
4892.00,1.17
4891.00,1.17
4890.00,1.17
4889.00,1.17
4888.00,1.17
4887.00,1.17
4886.00,1.18
4885.00,1.18
4884.00,1.18
4883.00,1.18
4882.00,1.18
4881.00,1.18
4880.00,1.18
4879.00,1.18
4878.00,1.18
4877.00,1.18
4876.00,1.19
4875.00,1.19
4874.00,1.19
4873.00,1.19
4872.00,1.19
4871.00,1.19
4870.00,1.19
4869.00,1.19
4868.00,1.18
4867.00,1.18
4866.00,1.18
4865.00,1.18
4864.00,1.18
4863.00,1.18
4862.00,1.18
4861.00,1.18
4860.00,1.18
4859.00,1.18
4858.00,1.18
4857.00,1.18
4856.00,1.18
4855.00,1.18
4854.00,1.18
4853.00,1.19
4852.00,1.19
4851.00,1.19
4850.00,1.19
4849.00,1.19
4848.00,1.19
4847.00,1.19
4846.00,1.19
4845.00,1.19
4844.00,1.19
4843.00,1.19
4842.00,1.19
4841.00,1.19
4840.00,1.19
4839.00,1.19
4838.00,1.19
4837.00,1.19
4836.00,1.19
4835.00,1.20
4834.00,1.20
4833.00,1.20
4832.00,1.20
4831.00,1.20
4830.00,1.20
4829.00,1.20
4828.00,1.20
4827.00,1.20
4826.00,1.20
4825.00,1.20
4824.00,1.20
4823.00,1.20
4822.00,1.21
4821.00,1.21
4820.00,1.21
4819.00,1.21
4818.00,1.21
4817.00,1.21
4816.00,1.21
4815.00,1.21
4814.00,1.21
4813.00,1.21
4812.00,1.21
4811.00,1.21
4810.00,1.21
4809.00,1.21
4808.00,1.22
4807.00,1.22
4806.00,1.22
4805.00,1.22
4804.00,1.22
4803.00,1.22
4802.00,1.22
4801.00,1.22
4800.00,1.22
4799.00,1.22
4798.00,1.22
4797.00,1.23
4796.00,1.23
4795.00,1.23
4794.00,1.23
4793.00,1.23
4792.00,1.23
4791.00,1.23
4790.00,1.23
4789.00,1.23
4788.00,1.23
4787.00,1.24
4786.00,1.24
4785.00,1.24
4784.00,1.24
4783.00,1.24
4782.00,1.24
4781.00,1.24
4780.00,1.24
4779.00,1.24
4778.00,1.24
4777.00,1.24
4776.00,1.24
4775.00,1.24
4774.00,1.24
4773.00,1.25
4772.00,1.25
4771.00,1.25
4770.00,1.25
4769.00,1.25
4768.00,1.25
4767.00,1.25
4766.00,1.25
4765.00,1.25
4764.00,1.25
4763.00,1.25
4762.00,1.26
4761.00,1.26
4760.00,1.26
4759.00,1.26
4758.00,1.26
4757.00,1.26
4756.00,1.26
4755.00,1.26
4754.00,1.26
4753.00,1.26
4752.00,1.26
4751.00,1.26
4750.00,1.26
4749.00,1.26
4748.00,1.27
4747.00,1.27
4746.00,1.27
4745.00,1.27
4744.00,1.27
4743.00,1.27
4742.00,1.27
4741.00,1.27
4740.00,1.27
4739.00,1.27
4738.00,1.27
4737.00,1.27
4736.00,1.28
4735.00,1.28
4734.00,1.28
4733.00,1.28
4732.00,1.28
4731.00,1.28
4730.00,1.28
4729.00,1.28
4728.00,1.28
4727.00,1.28
4726.00,1.28
4725.00,1.29
4724.00,1.29
4723.00,1.29
4722.00,1.29
4721.00,1.29
4720.00,1.29
4719.00,1.29
4718.00,1.30
4717.00,1.30
4716.00,1.30
4715.00,1.30
4714.00,1.30
4713.00,1.30
4712.00,1.30
4711.00,1.30
4710.00,1.30
4709.00,1.31
4708.00,1.31
4707.00,1.31
4706.00,1.31
4705.00,1.31
4704.00,1.31
4703.00,1.31
4702.00,1.31
4701.00,1.31
4700.00,1.32
4699.00,1.32
4698.00,1.32
4697.00,1.32
4696.00,1.32
4695.00,1.32
4694.00,1.32
4693.00,1.32
4692.00,1.33
4691.00,1.33
4690.00,1.33
4689.00,1.33
4688.00,1.33
4687.00,1.33
4686.00,1.33
4685.00,1.33
4684.00,1.33
4683.00,1.33
4682.00,1.33
4681.00,1.33
4680.00,1.33
4679.00,1.33
4678.00,1.34
4677.00,1.34
4676.00,1.34
4675.00,1.34
4674.00,1.34
4673.00,1.34
4672.00,1.34
4671.00,1.34
4670.00,1.34
4669.00,1.35
4668.00,1.35
4667.00,1.35
4666.00,1.35
4665.00,1.35
4664.00,1.35
4663.00,1.35
4662.00,1.35
4661.00,1.35
4660.00,1.35
4659.00,1.36
4658.00,1.36
4657.00,1.36
4656.00,1.36
4655.00,1.36
4654.00,1.36
4653.00,1.36
4652.00,1.36
4651.00,1.36
4650.00,1.36
4649.00,1.37
4648.00,1.37
4647.00,1.37
4646.00,1.37
4645.00,1.37
4644.00,1.37
4643.00,1.37
4642.00,1.37
4641.00,1.37
4640.00,1.38
4639.00,1.38
4638.00,1.38
4637.00,1.38
4636.00,1.38
4635.00,1.38
4634.00,1.38
4633.00,1.38
4632.00,1.38
4631.00,1.38
4630.00,1.38
4629.00,1.38
4628.00,1.38
4627.00,1.38
4626.00,1.38
4625.00,1.38
4624.00,1.38
4623.00,1.38
4622.00,1.38
4621.00,1.38
4620.00,1.38
4619.00,1.38
4618.00,1.38
4617.00,1.38
4616.00,1.39
4615.00,1.39
4614.00,1.39
4613.00,1.39
4612.00,1.39
4611.00,1.39
4610.00,1.39
4609.00,1.39
4608.00,1.39
4607.00,1.40
4606.00,1.40
4605.00,1.40
4604.00,1.40
4603.00,1.40
4602.00,1.40
4601.00,1.40
4600.00,1.40
4599.00,1.40
4598.00,1.40
4597.00,1.40
4596.00,1.40
4595.00,1.40
4594.00,1.41
4593.00,1.41
4592.00,1.41
4591.00,1.41
4590.00,1.41
4589.00,1.41
4588.00,1.41
4587.00,1.41
4586.00,1.41
4585.00,1.41
4584.00,1.41
4583.00,1.42
4582.00,1.42
4581.00,1.42
4580.00,1.42
4579.00,1.42
4578.00,1.42
4577.00,1.42
4576.00,1.43
4575.00,1.43
4574.00,1.43
4573.00,1.43
4572.00,1.43
4571.00,1.43
4570.00,1.43
4569.00,1.43
4568.00,1.43
4567.00,1.43
4566.00,1.43
4565.00,1.42
4564.00,1.42
4563.00,1.42
4562.00,1.42
4561.00,1.42
4560.00,1.42
4559.00,1.42
4558.00,1.42
4557.00,1.42
4556.00,1.42
4555.00,1.42
4554.00,1.42
4553.00,1.42
4552.00,1.42
4551.00,1.42
4550.00,1.42
4549.00,1.43
4548.00,1.43
4547.00,1.43
4546.00,1.43
4545.00,1.43
4544.00,1.43
4543.00,1.43
4542.00,1.43
4541.00,1.43
4540.00,1.43
4539.00,1.43
4538.00,1.43
4537.00,1.43
4536.00,1.43
4535.00,1.43
4534.00,1.44
4533.00,1.44
4532.00,1.44
4531.00,1.44
4530.00,1.44
4529.00,1.44
4528.00,1.44
4527.00,1.45
4526.00,1.45
4525.00,1.45
4524.00,1.45
4523.00,1.45
4522.00,1.45
4521.00,1.45
4520.00,1.45
4519.00,1.45
4518.00,1.45
4517.00,1.45
4516.00,1.45
4515.00,1.45
4514.00,1.45
4513.00,1.44
4512.00,1.44
4511.00,1.44
4510.00,1.44
4509.00,1.44
4508.00,1.44
4507.00,1.44
4506.00,1.44
4505.00,1.44
4504.00,1.44
4503.00,1.44
4502.00,1.44
4501.00,1.44
4500.00,1.44
4499.00,1.44
4498.00,1.44
4497.00,1.44
4496.00,1.45
4495.00,1.45
4494.00,1.45
4493.00,1.45
4492.00,1.45
4491.00,1.45
4490.00,1.45
4489.00,1.45
4488.00,1.44
4487.00,1.44
4486.00,1.44
4485.00,1.44
4484.00,1.44
4483.00,1.44
4482.00,1.44
4481.00,1.44
4480.00,1.44
4479.00,1.44
4478.00,1.44
4477.00,1.44
4476.00,1.43
4475.00,1.43
4474.00,1.43
4473.00,1.43
4472.00,1.43
4471.00,1.43
4470.00,1.43
4469.00,1.43
4468.00,1.42
4467.00,1.42
4466.00,1.42
4465.00,1.42
4464.00,1.42
4463.00,1.42
4462.00,1.41
4461.00,1.41
4460.00,1.41
4459.00,1.41
4458.00,1.41
4457.00,1.41
4456.00,1.41
4455.00,1.40
4454.00,1.40
4453.00,1.40
4452.00,1.40
4451.00,1.40
4450.00,1.40
4449.00,1.40
4448.00,1.40
4447.00,1.40
4446.00,1.40
4445.00,1.40
4444.00,1.40
4443.00,1.40
4442.00,1.39
4441.00,1.39
4440.00,1.39
4439.00,1.39
4438.00,1.39
4437.00,1.39
4436.00,1.39
4435.00,1.39
4434.00,1.39
4433.00,1.39
4432.00,1.39
4431.00,1.39
4430.00,1.39
4429.00,1.38
4428.00,1.38
4427.00,1.38
4426.00,1.38
4425.00,1.38
4424.00,1.38
4423.00,1.38
4422.00,1.38
4421.00,1.38
4420.00,1.38
4419.00,1.38
4418.00,1.38
4417.00,1.38
4416.00,1.38
4415.00,1.38
4414.00,1.38
4413.00,1.38
4412.00,1.38
4411.00,1.38
4410.00,1.38
4409.00,1.38
4408.00,1.38
4407.00,1.38
4406.00,1.38
4405.00,1.38
4404.00,1.38
4403.00,1.38
4402.00,1.38
4401.00,1.38
4400.00,1.37
4399.00,1.37
4398.00,1.37
4397.00,1.37
4396.00,1.37
4395.00,1.37
4394.00,1.37
4393.00,1.37
4392.00,1.37
4391.00,1.37
4390.00,1.37
4389.00,1.37
4388.00,1.37
4387.00,1.38
4386.00,1.38
4385.00,1.38
4384.00,1.38
4383.00,1.38
4382.00,1.38
4381.00,1.38
4380.00,1.38
4379.00,1.38
4378.00,1.39
4377.00,1.39
4376.00,1.39
4375.00,1.39
4374.00,1.39
4373.00,1.39
4372.00,1.39
4371.00,1.40
4370.00,1.40
4369.00,1.40
4368.00,1.40
4367.00,1.40
4366.00,1.40
4365.00,1.40
4364.00,1.40
4363.00,1.41
4362.00,1.41
4361.00,1.41
4360.00,1.41
4359.00,1.41
4358.00,1.41
4357.00,1.41
4356.00,1.41
4355.00,1.41
4354.00,1.41
4353.00,1.41
4352.00,1.41
4351.00,1.42
4350.00,1.42
4349.00,1.42
4348.00,1.42
4347.00,1.41
4346.00,1.41
4345.00,1.41
4344.00,1.41
4343.00,1.41
4342.00,1.41
4341.00,1.41
4340.00,1.41
4339.00,1.41
4338.00,1.41
4337.00,1.41
4336.00,1.41
4335.00,1.42
4334.00,1.42
4333.00,1.42
4332.00,1.42
4331.00,1.42
4330.00,1.42
4329.00,1.42
4328.00,1.42
4327.00,1.42
4326.00,1.43
4325.00,1.43
4324.00,1.43
4323.00,1.43
4322.00,1.43
4321.00,1.43
4320.00,1.43
4319.00,1.43
4318.00,1.43
4317.00,1.43
4316.00,1.44
4315.00,1.44
4314.00,1.44
4313.00,1.44
4312.00,1.44
4311.00,1.44
4310.00,1.44
4309.00,1.44
4308.00,1.44
4307.00,1.44
4306.00,1.44
4305.00,1.45
4304.00,1.45
4303.00,1.45
4302.00,1.45
4301.00,1.45
4300.00,1.46
4299.00,1.46
4298.00,1.46
4297.00,1.46
4296.00,1.47
4295.00,1.47
4294.00,1.47
4293.00,1.47
4292.00,1.47
4291.00,1.47
4290.00,1.47
4289.00,1.47
4288.00,1.47
4287.00,1.47
4286.00,1.47
4285.00,1.47
4284.00,1.47
4283.00,1.47
4282.00,1.47
4281.00,1.47
4280.00,1.47
4279.00,1.47
4278.00,1.47
4277.00,1.47
4276.00,1.47
4275.00,1.47
4274.00,1.47
4273.00,1.47
4272.00,1.47
4271.00,1.47
4270.00,1.48
4269.00,1.48
4268.00,1.48
4267.00,1.48
4266.00,1.48
4265.00,1.48
4264.00,1.48
4263.00,1.48
4262.00,1.48
4261.00,1.48
4260.00,1.48
4259.00,1.47
4258.00,1.47
4257.00,1.47
4256.00,1.47
4255.00,1.47
4254.00,1.47
4253.00,1.47
4252.00,1.47
4251.00,1.48
4250.00,1.48
4249.00,1.48
4248.00,1.48
4247.00,1.48
4246.00,1.48
4245.00,1.49
4244.00,1.49
4243.00,1.49
4242.00,1.49
4241.00,1.49
4240.00,1.50
4239.00,1.50
4238.00,1.50
4237.00,1.50
4236.00,1.50
4235.00,1.50
4234.00,1.50
4233.00,1.50
4232.00,1.50
4231.00,1.50
4230.00,1.50
4229.00,1.50
4228.00,1.50
4227.00,1.50
4226.00,1.50
4225.00,1.50
4224.00,1.50
4223.00,1.50
4222.00,1.50
4221.00,1.50
4220.00,1.51
4219.00,1.51
4218.00,1.51
4217.00,1.51
4216.00,1.51
4215.00,1.51
4214.00,1.51
4213.00,1.51
4212.00,1.51
4211.00,1.51
4210.00,1.52
4209.00,1.52
4208.00,1.52
4207.00,1.52
4206.00,1.52
4205.00,1.52
4204.00,1.52
4203.00,1.52
4202.00,1.52
4201.00,1.52
4200.00,1.52
4199.00,1.52
4198.00,1.52
4197.00,1.52
4196.00,1.52
4195.00,1.53
4194.00,1.53
4193.00,1.53
4192.00,1.53
4191.00,1.53
4190.00,1.53
4189.00,1.53
4188.00,1.53
4187.00,1.53
4186.00,1.53
4185.00,1.53
4184.00,1.53
4183.00,1.53
4182.00,1.53
4181.00,1.53
4180.00,1.53
4179.00,1.53
4178.00,1.53
4177.00,1.53
4176.00,1.53
4175.00,1.53
4174.00,1.53
4173.00,1.53
4172.00,1.53
4171.00,1.53
4170.00,1.53
4169.00,1.53
4168.00,1.53
4167.00,1.53
4166.00,1.53
4165.00,1.53
4164.00,1.53
4163.00,1.53
4162.00,1.53
4161.00,1.53
4160.00,1.53
4159.00,1.53
4158.00,1.53
4157.00,1.53
4156.00,1.53
4155.00,1.53
4154.00,1.53
4153.00,1.53
4152.00,1.53
4151.00,1.53
4150.00,1.53
4149.00,1.54
4148.00,1.54
4147.00,1.54
4146.00,1.54
4145.00,1.54
4144.00,1.54
4143.00,1.55
4142.00,1.55
4141.00,1.55
4140.00,1.55
4139.00,1.55
4138.00,1.55
4137.00,1.55
4136.00,1.55
4135.00,1.55
4134.00,1.55
4133.00,1.55
4132.00,1.55
4131.00,1.55
4130.00,1.55
4129.00,1.55
4128.00,1.55
4127.00,1.55
4126.00,1.55
4125.00,1.55
4124.00,1.55
4123.00,1.55
4122.00,1.55
4121.00,1.55
4120.00,1.55
4119.00,1.55
4118.00,1.55
4117.00,1.55
4116.00,1.55
4115.00,1.55
4114.00,1.55
4113.00,1.55
4112.00,1.55
4111.00,1.55
4110.00,1.55
4109.00,1.55
4108.00,1.55
4107.00,1.55
4106.00,1.55
4105.00,1.55
4104.00,1.55
4103.00,1.55
4102.00,1.55
4101.00,1.55
4100.00,1.55
4099.00,1.55
4098.00,1.55
4097.00,1.56
4096.00,1.56
4095.00,1.56
4094.00,1.56
4093.00,1.56
4092.00,1.56
4091.00,1.56
4090.00,1.56
4089.00,1.56
4088.00,1.56
4087.00,1.56
4086.00,1.56
4085.00,1.56
4084.00,1.57
4083.00,1.57
4082.00,1.57
4081.00,1.57
4080.00,1.57
4079.00,1.57
4078.00,1.57
4077.00,1.57
4076.00,1.57
4075.00,1.57
4074.00,1.57
4073.00,1.57
4072.00,1.57
4071.00,1.57
4070.00,1.57
4069.00,1.57
4068.00,1.57
4067.00,1.57
4066.00,1.57
4065.00,1.57
4064.00,1.58
4063.00,1.58
4062.00,1.58
4061.00,1.58
4060.00,1.58
4059.00,1.58
4058.00,1.58
4057.00,1.58
4056.00,1.58
4055.00,1.58
4054.00,1.58
4053.00,1.58
4052.00,1.58
4051.00,1.58
4050.00,1.57
4049.00,1.57
4048.00,1.57
4047.00,1.57
4046.00,1.57
4045.00,1.57
4044.00,1.57
4043.00,1.57
4042.00,1.57
4041.00,1.57
4040.00,1.56
4039.00,1.56
4038.00,1.57
4037.00,1.57
4036.00,1.57
4035.00,1.57
4034.00,1.57
4033.00,1.57
4032.00,1.57
4031.00,1.57
4030.00,1.57
4029.00,1.57
4028.00,1.57
4027.00,1.57
4026.00,1.58
4025.00,1.58
4024.00,1.58
4023.00,1.58
4022.00,1.58
4021.00,1.59
4020.00,1.59
4019.00,1.59
4018.00,1.59
4017.00,1.60
4016.00,1.60
4015.00,1.60
4014.00,1.61
4013.00,1.61
4012.00,1.61
4011.00,1.62
4010.00,1.62
4009.00,1.62
4008.00,1.62
4007.00,1.62
4006.00,1.63
4005.00,1.63
4004.00,1.63
4003.00,1.63
4002.00,1.63
4001.00,1.63
4000.00,1.63
