创建为新数据集,样品 204 用户 Administrator 日期 星期六, 七月 21 2018
cm-1,%T
10000.00,1.32
9999.00,1.32
9998.00,1.32
9997.00,1.32
9996.00,1.32
9995.00,1.32
9994.00,1.32
9993.00,1.32
9992.00,1.32
9991.00,1.31
9990.00,1.31
9989.00,1.31
9988.00,1.31
9987.00,1.31
9986.00,1.31
9985.00,1.31
9984.00,1.30
9983.00,1.30
9982.00,1.30
9981.00,1.30
9980.00,1.30
9979.00,1.30
9978.00,1.30
9977.00,1.30
9976.00,1.30
9975.00,1.31
9974.00,1.31
9973.00,1.31
9972.00,1.31
9971.00,1.31
9970.00,1.31
9969.00,1.31
9968.00,1.31
9967.00,1.31
9966.00,1.31
9965.00,1.30
9964.00,1.30
9963.00,1.30
9962.00,1.30
9961.00,1.30
9960.00,1.30
9959.00,1.30
9958.00,1.30
9957.00,1.30
9956.00,1.30
9955.00,1.30
9954.00,1.30
9953.00,1.30
9952.00,1.30
9951.00,1.30
9950.00,1.31
9949.00,1.31
9948.00,1.31
9947.00,1.31
9946.00,1.31
9945.00,1.31
9944.00,1.31
9943.00,1.31
9942.00,1.31
9941.00,1.31
9940.00,1.31
9939.00,1.31
9938.00,1.31
9937.00,1.31
9936.00,1.31
9935.00,1.31
9934.00,1.31
9933.00,1.31
9932.00,1.31
9931.00,1.31
9930.00,1.31
9929.00,1.31
9928.00,1.31
9927.00,1.32
9926.00,1.32
9925.00,1.32
9924.00,1.32
9923.00,1.32
9922.00,1.32
9921.00,1.32
9920.00,1.32
9919.00,1.32
9918.00,1.32
9917.00,1.32
9916.00,1.32
9915.00,1.32
9914.00,1.31
9913.00,1.31
9912.00,1.31
9911.00,1.31
9910.00,1.31
9909.00,1.31
9908.00,1.31
9907.00,1.31
9906.00,1.31
9905.00,1.31
9904.00,1.31
9903.00,1.30
9902.00,1.30
9901.00,1.30
9900.00,1.30
9899.00,1.30
9898.00,1.30
9897.00,1.30
9896.00,1.30
9895.00,1.30
9894.00,1.30
9893.00,1.30
9892.00,1.30
9891.00,1.30
9890.00,1.30
9889.00,1.30
9888.00,1.30
9887.00,1.30
9886.00,1.30
9885.00,1.30
9884.00,1.30
9883.00,1.30
9882.00,1.30
9881.00,1.30
9880.00,1.29
9879.00,1.29
9878.00,1.29
9877.00,1.29
9876.00,1.29
9875.00,1.29
9874.00,1.29
9873.00,1.29
9872.00,1.29
9871.00,1.29
9870.00,1.29
9869.00,1.29
9868.00,1.29
9867.00,1.30
9866.00,1.30
9865.00,1.30
9864.00,1.30
9863.00,1.30
9862.00,1.31
9861.00,1.31
9860.00,1.31
9859.00,1.31
9858.00,1.31
9857.00,1.32
9856.00,1.32
9855.00,1.32
9854.00,1.32
9853.00,1.32
9852.00,1.32
9851.00,1.32
9850.00,1.32
9849.00,1.32
9848.00,1.32
9847.00,1.32
9846.00,1.32
9845.00,1.32
9844.00,1.32
9843.00,1.32
9842.00,1.32
9841.00,1.32
9840.00,1.32
9839.00,1.32
9838.00,1.32
9837.00,1.31
9836.00,1.31
9835.00,1.31
9834.00,1.31
9833.00,1.31
9832.00,1.31
9831.00,1.31
9830.00,1.31
9829.00,1.30
9828.00,1.30
9827.00,1.30
9826.00,1.30
9825.00,1.30
9824.00,1.29
9823.00,1.29
9822.00,1.29
9821.00,1.29
9820.00,1.28
9819.00,1.28
9818.00,1.28
9817.00,1.28
9816.00,1.28
9815.00,1.28
9814.00,1.28
9813.00,1.27
9812.00,1.27
9811.00,1.27
9810.00,1.27
9809.00,1.27
9808.00,1.27
9807.00,1.27
9806.00,1.27
9805.00,1.27
9804.00,1.27
9803.00,1.27
9802.00,1.27
9801.00,1.27
9800.00,1.27
9799.00,1.27
9798.00,1.27
9797.00,1.27
9796.00,1.27
9795.00,1.28
9794.00,1.28
9793.00,1.28
9792.00,1.28
9791.00,1.28
9790.00,1.28
9789.00,1.29
9788.00,1.29
9787.00,1.29
9786.00,1.29
9785.00,1.29
9784.00,1.29
9783.00,1.29
9782.00,1.29
9781.00,1.29
9780.00,1.29
9779.00,1.29
9778.00,1.29
9777.00,1.29
9776.00,1.29
9775.00,1.29
9774.00,1.29
9773.00,1.29
9772.00,1.29
9771.00,1.29
9770.00,1.29
9769.00,1.29
9768.00,1.29
9767.00,1.29
9766.00,1.29
9765.00,1.30
9764.00,1.30
9763.00,1.30
9762.00,1.30
9761.00,1.30
9760.00,1.30
9759.00,1.30
9758.00,1.30
9757.00,1.31
9756.00,1.31
9755.00,1.31
9754.00,1.31
9753.00,1.31
9752.00,1.31
9751.00,1.31
9750.00,1.31
9749.00,1.31
9748.00,1.30
9747.00,1.30
9746.00,1.30
9745.00,1.30
9744.00,1.30
9743.00,1.30
9742.00,1.30
9741.00,1.29
9740.00,1.29
9739.00,1.29
9738.00,1.29
9737.00,1.29
9736.00,1.29
9735.00,1.29
9734.00,1.28
9733.00,1.28
9732.00,1.28
9731.00,1.28
9730.00,1.28
9729.00,1.28
9728.00,1.28
9727.00,1.28
9726.00,1.28
9725.00,1.28
9724.00,1.28
9723.00,1.28
9722.00,1.28
9721.00,1.28
9720.00,1.28
9719.00,1.28
9718.00,1.28
9717.00,1.27
9716.00,1.27
9715.00,1.27
9714.00,1.27
9713.00,1.27
9712.00,1.27
9711.00,1.27
9710.00,1.27
9709.00,1.27
9708.00,1.27
9707.00,1.27
9706.00,1.27
9705.00,1.27
9704.00,1.27
9703.00,1.27
9702.00,1.27
9701.00,1.27
9700.00,1.27
9699.00,1.27
9698.00,1.27
9697.00,1.27
9696.00,1.27
9695.00,1.27
9694.00,1.27
9693.00,1.27
9692.00,1.27
9691.00,1.27
9690.00,1.27
9689.00,1.27
9688.00,1.27
9687.00,1.27
9686.00,1.27
9685.00,1.27
9684.00,1.27
9683.00,1.27
9682.00,1.27
9681.00,1.27
9680.00,1.27
9679.00,1.27
9678.00,1.27
9677.00,1.27
9676.00,1.27
9675.00,1.27
9674.00,1.27
9673.00,1.27
9672.00,1.27
9671.00,1.27
9670.00,1.27
9669.00,1.28
9668.00,1.28
9667.00,1.28
9666.00,1.28
9665.00,1.28
9664.00,1.28
9663.00,1.28
9662.00,1.28
9661.00,1.28
9660.00,1.28
9659.00,1.28
9658.00,1.28
9657.00,1.28
9656.00,1.28
9655.00,1.28
9654.00,1.28
9653.00,1.28
9652.00,1.28
9651.00,1.28
9650.00,1.28
9649.00,1.28
9648.00,1.28
9647.00,1.28
9646.00,1.28
9645.00,1.28
9644.00,1.28
9643.00,1.28
9642.00,1.29
9641.00,1.29
9640.00,1.29
9639.00,1.29
9638.00,1.29
9637.00,1.30
9636.00,1.30
9635.00,1.30
9634.00,1.30
9633.00,1.30
9632.00,1.30
9631.00,1.30
9630.00,1.30
9629.00,1.30
9628.00,1.30
9627.00,1.30
9626.00,1.30
9625.00,1.29
9624.00,1.29
9623.00,1.29
9622.00,1.29
9621.00,1.29
9620.00,1.29
9619.00,1.29
9618.00,1.29
9617.00,1.29
9616.00,1.29
9615.00,1.29
9614.00,1.29
9613.00,1.29
9612.00,1.29
9611.00,1.29
9610.00,1.29
9609.00,1.29
9608.00,1.29
9607.00,1.30
9606.00,1.30
9605.00,1.30
9604.00,1.30
9603.00,1.30
9602.00,1.30
9601.00,1.30
9600.00,1.30
9599.00,1.30
9598.00,1.30
9597.00,1.30
9596.00,1.30
9595.00,1.30
9594.00,1.30
9593.00,1.30
9592.00,1.30
9591.00,1.30
9590.00,1.30
9589.00,1.30
9588.00,1.30
9587.00,1.30
9586.00,1.30
9585.00,1.30
9584.00,1.30
9583.00,1.30
9582.00,1.30
9581.00,1.31
9580.00,1.31
9579.00,1.31
9578.00,1.31
9577.00,1.31
9576.00,1.31
9575.00,1.31
9574.00,1.31
9573.00,1.32
9572.00,1.32
9571.00,1.32
9570.00,1.32
9569.00,1.32
9568.00,1.32
9567.00,1.32
9566.00,1.32
9565.00,1.32
9564.00,1.32
9563.00,1.31
9562.00,1.31
9561.00,1.31
9560.00,1.31
9559.00,1.31
9558.00,1.31
9557.00,1.31
9556.00,1.30
9555.00,1.30
9554.00,1.30
9553.00,1.30
9552.00,1.30
9551.00,1.30
9550.00,1.30
9549.00,1.30
9548.00,1.30
9547.00,1.29
9546.00,1.29
9545.00,1.29
9544.00,1.29
9543.00,1.29
9542.00,1.29
9541.00,1.29
9540.00,1.29
9539.00,1.29
9538.00,1.29
9537.00,1.29
9536.00,1.29
9535.00,1.29
9534.00,1.29
9533.00,1.29
9532.00,1.29
9531.00,1.29
9530.00,1.29
9529.00,1.29
9528.00,1.29
9527.00,1.29
9526.00,1.29
9525.00,1.29
9524.00,1.29
9523.00,1.28
9522.00,1.28
9521.00,1.28
9520.00,1.28
9519.00,1.28
9518.00,1.27
9517.00,1.27
9516.00,1.27
9515.00,1.27
9514.00,1.27
9513.00,1.26
9512.00,1.26
9511.00,1.26
9510.00,1.26
9509.00,1.26
9508.00,1.26
9507.00,1.26
9506.00,1.26
9505.00,1.26
9504.00,1.26
9503.00,1.26
9502.00,1.27
9501.00,1.27
9500.00,1.27
9499.00,1.27
9498.00,1.27
9497.00,1.27
9496.00,1.28
9495.00,1.28
9494.00,1.28
9493.00,1.28
9492.00,1.28
9491.00,1.28
9490.00,1.28
9489.00,1.28
9488.00,1.28
9487.00,1.29
9486.00,1.29
9485.00,1.29
9484.00,1.29
9483.00,1.29
9482.00,1.29
9481.00,1.29
9480.00,1.29
9479.00,1.29
9478.00,1.29
9477.00,1.29
9476.00,1.29
9475.00,1.29
9474.00,1.29
9473.00,1.29
9472.00,1.29
9471.00,1.28
9470.00,1.28
9469.00,1.28
9468.00,1.28
9467.00,1.28
9466.00,1.29
9465.00,1.29
9464.00,1.29
9463.00,1.29
9462.00,1.29
9461.00,1.29
9460.00,1.29
9459.00,1.29
9458.00,1.29
9457.00,1.28
9456.00,1.28
9455.00,1.28
9454.00,1.28
9453.00,1.28
9452.00,1.28
9451.00,1.28
9450.00,1.28
9449.00,1.27
9448.00,1.27
9447.00,1.27
9446.00,1.27
9445.00,1.27
9444.00,1.27
9443.00,1.27
9442.00,1.27
9441.00,1.27
9440.00,1.27
9439.00,1.27
9438.00,1.27
9437.00,1.27
9436.00,1.27
9435.00,1.27
9434.00,1.27
9433.00,1.27
9432.00,1.27
9431.00,1.27
9430.00,1.28
9429.00,1.28
9428.00,1.28
9427.00,1.28
9426.00,1.28
9425.00,1.28
9424.00,1.28
9423.00,1.28
9422.00,1.28
9421.00,1.28
9420.00,1.28
9419.00,1.28
9418.00,1.28
9417.00,1.29
9416.00,1.29
9415.00,1.29
9414.00,1.29
9413.00,1.29
9412.00,1.29
9411.00,1.29
9410.00,1.29
9409.00,1.29
9408.00,1.29
9407.00,1.29
9406.00,1.29
9405.00,1.29
9404.00,1.29
9403.00,1.29
9402.00,1.29
9401.00,1.29
9400.00,1.29
9399.00,1.29
9398.00,1.29
9397.00,1.29
9396.00,1.29
9395.00,1.29
9394.00,1.29
9393.00,1.29
9392.00,1.29
9391.00,1.29
9390.00,1.29
9389.00,1.29
9388.00,1.29
9387.00,1.29
9386.00,1.29
9385.00,1.29
9384.00,1.29
9383.00,1.29
9382.00,1.29
9381.00,1.29
9380.00,1.29
9379.00,1.29
9378.00,1.29
9377.00,1.29
9376.00,1.29
9375.00,1.29
9374.00,1.29
9373.00,1.29
9372.00,1.29
9371.00,1.29
9370.00,1.30
9369.00,1.30
9368.00,1.30
9367.00,1.30
9366.00,1.30
9365.00,1.30
9364.00,1.30
9363.00,1.30
9362.00,1.30
9361.00,1.30
9360.00,1.30
9359.00,1.30
9358.00,1.30
9357.00,1.30
9356.00,1.30
9355.00,1.31
9354.00,1.31
9353.00,1.31
9352.00,1.31
9351.00,1.31
9350.00,1.31
9349.00,1.31
9348.00,1.31
9347.00,1.32
9346.00,1.32
9345.00,1.32
9344.00,1.32
9343.00,1.31
9342.00,1.31
9341.00,1.31
9340.00,1.31
9339.00,1.31
9338.00,1.31
9337.00,1.30
9336.00,1.30
9335.00,1.30
9334.00,1.30
9333.00,1.29
9332.00,1.29
9331.00,1.29
9330.00,1.29
9329.00,1.29
9328.00,1.28
9327.00,1.28
9326.00,1.28
9325.00,1.28
9324.00,1.28
9323.00,1.28
9322.00,1.28
9321.00,1.28
9320.00,1.28
9319.00,1.28
9318.00,1.28
9317.00,1.28
9316.00,1.28
9315.00,1.28
9314.00,1.28
9313.00,1.28
9312.00,1.28
9311.00,1.28
9310.00,1.28
9309.00,1.28
9308.00,1.28
9307.00,1.28
9306.00,1.27
9305.00,1.27
9304.00,1.27
9303.00,1.27
9302.00,1.27
9301.00,1.28
9300.00,1.28
9299.00,1.28
9298.00,1.28
9297.00,1.28
9296.00,1.28
9295.00,1.28
9294.00,1.28
9293.00,1.28
9292.00,1.28
9291.00,1.28
9290.00,1.28
9289.00,1.29
9288.00,1.29
9287.00,1.29
9286.00,1.29
9285.00,1.29
9284.00,1.30
9283.00,1.30
9282.00,1.30
9281.00,1.30
9280.00,1.30
9279.00,1.31
9278.00,1.31
9277.00,1.31
9276.00,1.31
9275.00,1.31
9274.00,1.31
9273.00,1.31
9272.00,1.31
9271.00,1.31
9270.00,1.31
9269.00,1.32
9268.00,1.32
9267.00,1.32
9266.00,1.32
9265.00,1.32
9264.00,1.32
9263.00,1.32
9262.00,1.32
9261.00,1.32
9260.00,1.32
9259.00,1.32
9258.00,1.32
9257.00,1.32
9256.00,1.32
9255.00,1.32
9254.00,1.32
9253.00,1.31
9252.00,1.31
9251.00,1.31
9250.00,1.31
9249.00,1.31
9248.00,1.31
9247.00,1.31
9246.00,1.31
9245.00,1.31
9244.00,1.31
9243.00,1.31
9242.00,1.30
9241.00,1.30
9240.00,1.30
9239.00,1.30
9238.00,1.30
9237.00,1.31
9236.00,1.31
9235.00,1.31
9234.00,1.31
9233.00,1.31
9232.00,1.31
9231.00,1.31
9230.00,1.31
9229.00,1.31
9228.00,1.31
9227.00,1.31
9226.00,1.31
9225.00,1.31
9224.00,1.31
9223.00,1.31
9222.00,1.31
9221.00,1.31
9220.00,1.31
9219.00,1.31
9218.00,1.31
9217.00,1.31
9216.00,1.31
9215.00,1.31
9214.00,1.31
9213.00,1.31
9212.00,1.31
9211.00,1.31
9210.00,1.31
9209.00,1.31
9208.00,1.31
9207.00,1.31
9206.00,1.31
9205.00,1.31
9204.00,1.30
9203.00,1.30
9202.00,1.30
9201.00,1.30
9200.00,1.30
9199.00,1.30
9198.00,1.30
9197.00,1.30
9196.00,1.30
9195.00,1.29
9194.00,1.29
9193.00,1.29
9192.00,1.29
9191.00,1.29
9190.00,1.29
9189.00,1.29
9188.00,1.29
9187.00,1.29
9186.00,1.29
9185.00,1.29
9184.00,1.29
9183.00,1.29
9182.00,1.29
9181.00,1.29
9180.00,1.29
9179.00,1.29
9178.00,1.29
9177.00,1.29
9176.00,1.29
9175.00,1.29
9174.00,1.29
9173.00,1.29
9172.00,1.29
9171.00,1.29
9170.00,1.29
9169.00,1.29
9168.00,1.29
9167.00,1.29
9166.00,1.29
9165.00,1.29
9164.00,1.29
9163.00,1.29
9162.00,1.29
9161.00,1.29
9160.00,1.28
9159.00,1.28
9158.00,1.28
9157.00,1.29
9156.00,1.29
9155.00,1.29
9154.00,1.29
9153.00,1.29
9152.00,1.29
9151.00,1.29
9150.00,1.29
9149.00,1.29
9148.00,1.29
9147.00,1.30
9146.00,1.30
9145.00,1.30
9144.00,1.30
9143.00,1.30
9142.00,1.30
9141.00,1.30
9140.00,1.30
9139.00,1.30
9138.00,1.30
9137.00,1.30
9136.00,1.30
9135.00,1.30
9134.00,1.30
9133.00,1.29
9132.00,1.29
9131.00,1.29
9130.00,1.29
9129.00,1.29
9128.00,1.29
9127.00,1.29
9126.00,1.29
9125.00,1.28
9124.00,1.28
9123.00,1.28
9122.00,1.28
9121.00,1.28
9120.00,1.28
9119.00,1.29
9118.00,1.29
9117.00,1.29
9116.00,1.29
9115.00,1.29
9114.00,1.29
9113.00,1.29
9112.00,1.29
9111.00,1.29
9110.00,1.30
9109.00,1.30
9108.00,1.30
9107.00,1.30
9106.00,1.30
9105.00,1.30
9104.00,1.30
9103.00,1.30
9102.00,1.30
9101.00,1.30
9100.00,1.30
9099.00,1.30
9098.00,1.30
9097.00,1.30
9096.00,1.30
9095.00,1.30
9094.00,1.29
9093.00,1.29
9092.00,1.29
9091.00,1.29
9090.00,1.29
9089.00,1.29
9088.00,1.29
9087.00,1.29
9086.00,1.29
9085.00,1.29
9084.00,1.29
9083.00,1.29
9082.00,1.29
9081.00,1.29
9080.00,1.29
9079.00,1.29
9078.00,1.29
9077.00,1.29
9076.00,1.29
9075.00,1.29
9074.00,1.29
9073.00,1.30
9072.00,1.30
9071.00,1.30
9070.00,1.30
9069.00,1.30
9068.00,1.30
9067.00,1.30
9066.00,1.30
9065.00,1.30
9064.00,1.30
9063.00,1.30
9062.00,1.30
9061.00,1.30
9060.00,1.30
9059.00,1.30
9058.00,1.31
9057.00,1.31
9056.00,1.31
9055.00,1.31
9054.00,1.31
9053.00,1.31
9052.00,1.31
9051.00,1.31
9050.00,1.31
9049.00,1.31
9048.00,1.32
9047.00,1.32
9046.00,1.32
9045.00,1.32
9044.00,1.32
9043.00,1.32
9042.00,1.32
9041.00,1.32
9040.00,1.32
9039.00,1.32
9038.00,1.32
9037.00,1.32
9036.00,1.32
9035.00,1.32
9034.00,1.32
9033.00,1.32
9032.00,1.32
9031.00,1.32
9030.00,1.32
9029.00,1.31
9028.00,1.31
9027.00,1.31
9026.00,1.31
9025.00,1.31
9024.00,1.31
9023.00,1.30
9022.00,1.30
9021.00,1.30
9020.00,1.30
9019.00,1.30
9018.00,1.30
9017.00,1.30
9016.00,1.30
9015.00,1.30
9014.00,1.30
9013.00,1.30
9012.00,1.30
9011.00,1.30
9010.00,1.30
9009.00,1.30
9008.00,1.30
9007.00,1.30
9006.00,1.30
9005.00,1.30
9004.00,1.30
9003.00,1.30
9002.00,1.30
9001.00,1.30
9000.00,1.30
8999.00,1.30
8998.00,1.29
8997.00,1.29
8996.00,1.29
8995.00,1.29
8994.00,1.29
8993.00,1.29
8992.00,1.29
8991.00,1.29
8990.00,1.29
8989.00,1.29
8988.00,1.29
8987.00,1.29
8986.00,1.29
8985.00,1.29
8984.00,1.29
8983.00,1.29
8982.00,1.29
8981.00,1.29
8980.00,1.29
8979.00,1.29
8978.00,1.29
8977.00,1.29
8976.00,1.30
8975.00,1.30
8974.00,1.30
8973.00,1.30
8972.00,1.30
8971.00,1.30
8970.00,1.30
8969.00,1.30
8968.00,1.30
8967.00,1.30
8966.00,1.31
8965.00,1.31
8964.00,1.31
8963.00,1.31
8962.00,1.31
8961.00,1.30
8960.00,1.30
8959.00,1.30
8958.00,1.30
8957.00,1.30
8956.00,1.30
8955.00,1.30
8954.00,1.30
8953.00,1.30
8952.00,1.30
8951.00,1.30
8950.00,1.30
8949.00,1.30
8948.00,1.30
8947.00,1.30
8946.00,1.30
8945.00,1.30
8944.00,1.30
8943.00,1.30
8942.00,1.30
8941.00,1.30
8940.00,1.30
8939.00,1.30
8938.00,1.30
8937.00,1.30
8936.00,1.30
8935.00,1.30
8934.00,1.30
8933.00,1.30
8932.00,1.30
8931.00,1.30
8930.00,1.30
8929.00,1.30
8928.00,1.30
8927.00,1.30
8926.00,1.30
8925.00,1.30
8924.00,1.30
8923.00,1.30
8922.00,1.30
8921.00,1.30
8920.00,1.30
8919.00,1.30
8918.00,1.30
8917.00,1.30
8916.00,1.30
8915.00,1.30
8914.00,1.30
8913.00,1.30
8912.00,1.30
8911.00,1.30
8910.00,1.30
8909.00,1.30
8908.00,1.30
8907.00,1.30
8906.00,1.30
8905.00,1.30
8904.00,1.30
8903.00,1.30
8902.00,1.30
8901.00,1.31
8900.00,1.31
8899.00,1.31
8898.00,1.31
8897.00,1.31
8896.00,1.31
8895.00,1.31
8894.00,1.31
8893.00,1.31
8892.00,1.30
8891.00,1.30
8890.00,1.30
8889.00,1.30
8888.00,1.30
8887.00,1.30
8886.00,1.30
8885.00,1.30
8884.00,1.30
8883.00,1.30
8882.00,1.30
8881.00,1.30
8880.00,1.30
8879.00,1.31
8878.00,1.31
8877.00,1.31
8876.00,1.31
8875.00,1.31
8874.00,1.31
8873.00,1.31
8872.00,1.31
8871.00,1.31
8870.00,1.31
8869.00,1.31
8868.00,1.31
8867.00,1.30
8866.00,1.30
8865.00,1.30
8864.00,1.30
8863.00,1.30
8862.00,1.30
8861.00,1.30
8860.00,1.29
8859.00,1.29
8858.00,1.29
8857.00,1.29
8856.00,1.29
8855.00,1.29
8854.00,1.29
8853.00,1.29
8852.00,1.29
8851.00,1.29
8850.00,1.29
8849.00,1.29
8848.00,1.29
8847.00,1.29
8846.00,1.29
8845.00,1.29
8844.00,1.29
8843.00,1.29
8842.00,1.29
8841.00,1.29
8840.00,1.29
8839.00,1.29
8838.00,1.29
8837.00,1.29
8836.00,1.29
8835.00,1.29
8834.00,1.29
8833.00,1.29
8832.00,1.28
8831.00,1.28
8830.00,1.28
8829.00,1.28
8828.00,1.28
8827.00,1.28
8826.00,1.28
8825.00,1.27
8824.00,1.27
8823.00,1.27
8822.00,1.27
8821.00,1.27
8820.00,1.27
8819.00,1.27
8818.00,1.27
8817.00,1.27
8816.00,1.27
8815.00,1.27
8814.00,1.27
8813.00,1.27
8812.00,1.28
8811.00,1.28
8810.00,1.28
8809.00,1.28
8808.00,1.28
8807.00,1.28
8806.00,1.28
8805.00,1.29
8804.00,1.29
8803.00,1.29
8802.00,1.29
8801.00,1.29
8800.00,1.29
8799.00,1.29
8798.00,1.29
8797.00,1.29
8796.00,1.29
8795.00,1.28
8794.00,1.28
8793.00,1.28
8792.00,1.28
8791.00,1.28
8790.00,1.28
8789.00,1.28
8788.00,1.28
8787.00,1.27
8786.00,1.27
8785.00,1.27
8784.00,1.27
8783.00,1.27
8782.00,1.27
8781.00,1.27
8780.00,1.27
8779.00,1.27
8778.00,1.27
8777.00,1.27
8776.00,1.27
8775.00,1.27
8774.00,1.27
8773.00,1.27
8772.00,1.27
8771.00,1.27
8770.00,1.27
8769.00,1.27
8768.00,1.27
8767.00,1.27
8766.00,1.27
8765.00,1.27
8764.00,1.27
8763.00,1.27
8762.00,1.27
8761.00,1.27
8760.00,1.27
8759.00,1.27
8758.00,1.27
8757.00,1.27
8756.00,1.27
8755.00,1.27
8754.00,1.27
8753.00,1.27
8752.00,1.27
8751.00,1.27
8750.00,1.27
8749.00,1.27
8748.00,1.27
8747.00,1.27
8746.00,1.27
8745.00,1.27
8744.00,1.27
8743.00,1.27
8742.00,1.27
8741.00,1.26
8740.00,1.26
8739.00,1.26
8738.00,1.26
8737.00,1.26
8736.00,1.26
8735.00,1.26
8734.00,1.26
8733.00,1.26
8732.00,1.26
8731.00,1.25
8730.00,1.25
8729.00,1.25
8728.00,1.25
8727.00,1.25
8726.00,1.25
8725.00,1.25
8724.00,1.25
8723.00,1.25
8722.00,1.24
8721.00,1.24
8720.00,1.24
8719.00,1.24
8718.00,1.24
8717.00,1.24
8716.00,1.24
8715.00,1.24
8714.00,1.24
8713.00,1.24
8712.00,1.24
8711.00,1.24
8710.00,1.24
8709.00,1.24
8708.00,1.24
8707.00,1.25
8706.00,1.25
8705.00,1.25
8704.00,1.25
8703.00,1.25
8702.00,1.25
8701.00,1.25
8700.00,1.25
8699.00,1.25
8698.00,1.25
8697.00,1.25
8696.00,1.25
8695.00,1.24
8694.00,1.24
8693.00,1.24
8692.00,1.24
8691.00,1.24
8690.00,1.24
8689.00,1.24
8688.00,1.23
8687.00,1.23
8686.00,1.23
8685.00,1.23
8684.00,1.23
8683.00,1.23
8682.00,1.23
8681.00,1.23
8680.00,1.23
8679.00,1.23
8678.00,1.23
8677.00,1.23
8676.00,1.23
8675.00,1.23
8674.00,1.23
8673.00,1.23
8672.00,1.23
8671.00,1.23
8670.00,1.23
8669.00,1.23
8668.00,1.23
8667.00,1.23
8666.00,1.23
8665.00,1.23
8664.00,1.24
8663.00,1.24
8662.00,1.24
8661.00,1.24
8660.00,1.24
8659.00,1.24
8658.00,1.24
8657.00,1.24
8656.00,1.24
8655.00,1.24
8654.00,1.24
8653.00,1.24
8652.00,1.24
8651.00,1.24
8650.00,1.24
8649.00,1.23
8648.00,1.23
8647.00,1.23
8646.00,1.23
8645.00,1.23
8644.00,1.23
8643.00,1.23
8642.00,1.22
8641.00,1.22
8640.00,1.22
8639.00,1.22
8638.00,1.22
8637.00,1.22
8636.00,1.22
8635.00,1.22
8634.00,1.22
8633.00,1.22
8632.00,1.23
8631.00,1.23
8630.00,1.23
8629.00,1.23
8628.00,1.23
8627.00,1.23
8626.00,1.23
8625.00,1.23
8624.00,1.23
8623.00,1.22
8622.00,1.22
8621.00,1.22
8620.00,1.22
8619.00,1.22
8618.00,1.22
8617.00,1.22
8616.00,1.22
8615.00,1.22
8614.00,1.22
8613.00,1.22
8612.00,1.22
8611.00,1.22
8610.00,1.22
8609.00,1.22
8608.00,1.22
8607.00,1.22
8606.00,1.22
8605.00,1.22
8604.00,1.22
8603.00,1.21
8602.00,1.21
8601.00,1.21
8600.00,1.21
8599.00,1.21
8598.00,1.21
8597.00,1.21
8596.00,1.21
8595.00,1.21
8594.00,1.21
8593.00,1.21
8592.00,1.21
8591.00,1.21
8590.00,1.21
8589.00,1.21
8588.00,1.21
8587.00,1.21
8586.00,1.21
8585.00,1.21
8584.00,1.21
8583.00,1.21
8582.00,1.21
8581.00,1.21
8580.00,1.21
8579.00,1.21
8578.00,1.21
8577.00,1.21
8576.00,1.21
8575.00,1.21
8574.00,1.21
8573.00,1.21
8572.00,1.21
8571.00,1.21
8570.00,1.21
8569.00,1.21
8568.00,1.21
8567.00,1.21
8566.00,1.20
8565.00,1.20
8564.00,1.20
8563.00,1.20
8562.00,1.20
8561.00,1.20
8560.00,1.20
8559.00,1.20
8558.00,1.20
8557.00,1.20
8556.00,1.19
8555.00,1.19
8554.00,1.19
8553.00,1.19
8552.00,1.19
8551.00,1.19
8550.00,1.18
8549.00,1.18
8548.00,1.18
8547.00,1.18
8546.00,1.18
8545.00,1.18
8544.00,1.18
8543.00,1.18
8542.00,1.17
8541.00,1.17
8540.00,1.17
8539.00,1.17
8538.00,1.17
8537.00,1.17
8536.00,1.17
8535.00,1.17
8534.00,1.17
8533.00,1.17
8532.00,1.18
8531.00,1.18
8530.00,1.18
8529.00,1.18
8528.00,1.18
8527.00,1.18
8526.00,1.18
8525.00,1.18
8524.00,1.18
8523.00,1.18
8522.00,1.18
8521.00,1.19
8520.00,1.19
8519.00,1.19
8518.00,1.19
8517.00,1.19
8516.00,1.19
8515.00,1.19
8514.00,1.19
8513.00,1.19
8512.00,1.19
8511.00,1.18
8510.00,1.18
8509.00,1.18
8508.00,1.18
8507.00,1.18
8506.00,1.18
8505.00,1.18
8504.00,1.18
8503.00,1.18
8502.00,1.18
8501.00,1.18
8500.00,1.18
8499.00,1.17
8498.00,1.17
8497.00,1.17
8496.00,1.17
8495.00,1.17
8494.00,1.17
8493.00,1.17
8492.00,1.17
8491.00,1.17
8490.00,1.17
8489.00,1.17
8488.00,1.17
8487.00,1.17
8486.00,1.17
8485.00,1.17
8484.00,1.17
8483.00,1.17
8482.00,1.17
8481.00,1.17
8480.00,1.17
8479.00,1.17
8478.00,1.17
8477.00,1.17
8476.00,1.17
8475.00,1.17
8474.00,1.17
8473.00,1.16
8472.00,1.16
8471.00,1.16
8470.00,1.16
8469.00,1.16
8468.00,1.15
8467.00,1.15
8466.00,1.15
8465.00,1.15
8464.00,1.15
8463.00,1.15
8462.00,1.15
8461.00,1.14
8460.00,1.14
8459.00,1.14
8458.00,1.14
8457.00,1.14
8456.00,1.14
8455.00,1.14
8454.00,1.14
8453.00,1.14
8452.00,1.14
8451.00,1.14
8450.00,1.14
8449.00,1.14
8448.00,1.14
8447.00,1.14
8446.00,1.14
8445.00,1.14
8444.00,1.14
8443.00,1.14
8442.00,1.14
8441.00,1.14
8440.00,1.14
8439.00,1.14
8438.00,1.14
8437.00,1.14
8436.00,1.14
8435.00,1.14
8434.00,1.14
8433.00,1.14
8432.00,1.14
8431.00,1.14
8430.00,1.13
8429.00,1.13
8428.00,1.13
8427.00,1.13
8426.00,1.13
8425.00,1.14
8424.00,1.14
8423.00,1.14
8422.00,1.14
8421.00,1.14
8420.00,1.14
8419.00,1.14
8418.00,1.14
8417.00,1.14
8416.00,1.14
8415.00,1.15
8414.00,1.15
8413.00,1.15
8412.00,1.15
8411.00,1.15
8410.00,1.15
8409.00,1.15
8408.00,1.15
8407.00,1.15
8406.00,1.16
8405.00,1.16
8404.00,1.16
8403.00,1.16
8402.00,1.16
8401.00,1.16
8400.00,1.16
8399.00,1.16
8398.00,1.16
8397.00,1.16
8396.00,1.16
8395.00,1.17
8394.00,1.17
8393.00,1.17
8392.00,1.17
8391.00,1.17
8390.00,1.17
8389.00,1.17
8388.00,1.17
8387.00,1.17
8386.00,1.17
8385.00,1.17
8384.00,1.17
8383.00,1.17
8382.00,1.17
8381.00,1.17
8380.00,1.17
8379.00,1.17
8378.00,1.17
8377.00,1.17
8376.00,1.17
8375.00,1.17
8374.00,1.17
8373.00,1.17
8372.00,1.17
8371.00,1.17
8370.00,1.17
8369.00,1.17
8368.00,1.17
8367.00,1.17
8366.00,1.16
8365.00,1.16
8364.00,1.16
8363.00,1.16
8362.00,1.17
8361.00,1.17
8360.00,1.17
8359.00,1.17
8358.00,1.17
8357.00,1.17
8356.00,1.17
8355.00,1.17
8354.00,1.17
8353.00,1.18
8352.00,1.18
8351.00,1.18
8350.00,1.18
8349.00,1.18
8348.00,1.18
8347.00,1.19
8346.00,1.19
8345.00,1.19
8344.00,1.19
8343.00,1.19
8342.00,1.19
8341.00,1.19
8340.00,1.19
8339.00,1.19
8338.00,1.19
8337.00,1.19
8336.00,1.19
8335.00,1.19
8334.00,1.19
8333.00,1.19
8332.00,1.19
8331.00,1.19
8330.00,1.20
8329.00,1.20
8328.00,1.20
8327.00,1.20
8326.00,1.20
8325.00,1.20
8324.00,1.20
8323.00,1.20
8322.00,1.20
8321.00,1.20
8320.00,1.20
8319.00,1.20
8318.00,1.20
8317.00,1.20
8316.00,1.20
8315.00,1.20
8314.00,1.20
8313.00,1.19
8312.00,1.19
8311.00,1.19
8310.00,1.19
8309.00,1.19
8308.00,1.19
8307.00,1.19
8306.00,1.19
8305.00,1.19
8304.00,1.19
8303.00,1.19
8302.00,1.19
8301.00,1.19
8300.00,1.19
8299.00,1.19
8298.00,1.19
8297.00,1.19
8296.00,1.19
8295.00,1.19
8294.00,1.19
8293.00,1.19
8292.00,1.19
8291.00,1.19
8290.00,1.19
8289.00,1.19
8288.00,1.19
8287.00,1.19
8286.00,1.19
8285.00,1.19
8284.00,1.19
8283.00,1.19
8282.00,1.19
8281.00,1.19
8280.00,1.19
8279.00,1.19
8278.00,1.19
8277.00,1.19
8276.00,1.19
8275.00,1.19
8274.00,1.19
8273.00,1.19
8272.00,1.19
8271.00,1.19
8270.00,1.19
8269.00,1.19
8268.00,1.19
8267.00,1.19
8266.00,1.19
8265.00,1.19
8264.00,1.19
8263.00,1.19
8262.00,1.19
8261.00,1.19
8260.00,1.19
8259.00,1.20
8258.00,1.20
8257.00,1.20
8256.00,1.20
8255.00,1.20
8254.00,1.20
8253.00,1.20
8252.00,1.20
8251.00,1.20
8250.00,1.20
8249.00,1.20
8248.00,1.20
8247.00,1.20
8246.00,1.20
8245.00,1.20
8244.00,1.20
8243.00,1.20
8242.00,1.20
8241.00,1.20
8240.00,1.20
8239.00,1.20
8238.00,1.20
8237.00,1.20
8236.00,1.21
8235.00,1.21
8234.00,1.21
8233.00,1.21
8232.00,1.21
8231.00,1.21
8230.00,1.21
8229.00,1.21
8228.00,1.21
8227.00,1.21
8226.00,1.21
8225.00,1.21
8224.00,1.22
8223.00,1.22
8222.00,1.22
8221.00,1.22
8220.00,1.22
8219.00,1.22
8218.00,1.22
8217.00,1.22
8216.00,1.22
8215.00,1.22
8214.00,1.22
8213.00,1.22
8212.00,1.22
8211.00,1.22
8210.00,1.22
8209.00,1.22
8208.00,1.22
8207.00,1.22
8206.00,1.22
8205.00,1.22
8204.00,1.22
8203.00,1.22
8202.00,1.22
8201.00,1.22
8200.00,1.22
8199.00,1.22
8198.00,1.22
8197.00,1.22
8196.00,1.22
8195.00,1.23
8194.00,1.23
8193.00,1.23
8192.00,1.23
8191.00,1.23
8190.00,1.23
8189.00,1.23
8188.00,1.23
8187.00,1.23
8186.00,1.23
8185.00,1.24
8184.00,1.24
8183.00,1.24
8182.00,1.24
8181.00,1.24
8180.00,1.24
8179.00,1.24
8178.00,1.24
8177.00,1.24
8176.00,1.24
8175.00,1.24
8174.00,1.23
8173.00,1.23
8172.00,1.23
8171.00,1.23
8170.00,1.23
8169.00,1.23
8168.00,1.23
8167.00,1.23
8166.00,1.23
8165.00,1.23
8164.00,1.23
8163.00,1.23
8162.00,1.23
8161.00,1.23
8160.00,1.23
8159.00,1.23
8158.00,1.23
8157.00,1.23
8156.00,1.23
8155.00,1.23
8154.00,1.23
8153.00,1.23
8152.00,1.23
8151.00,1.23
8150.00,1.23
8149.00,1.23
8148.00,1.24
8147.00,1.24
8146.00,1.24
8145.00,1.24
8144.00,1.24
8143.00,1.24
8142.00,1.24
8141.00,1.24
8140.00,1.24
8139.00,1.24
8138.00,1.24
8137.00,1.24
8136.00,1.25
8135.00,1.25
8134.00,1.25
8133.00,1.25
8132.00,1.25
8131.00,1.25
8130.00,1.25
8129.00,1.25
8128.00,1.25
8127.00,1.25
8126.00,1.25
8125.00,1.25
8124.00,1.26
8123.00,1.26
8122.00,1.26
8121.00,1.26
8120.00,1.26
8119.00,1.26
8118.00,1.26
8117.00,1.26
8116.00,1.26
8115.00,1.26
8114.00,1.26
8113.00,1.26
8112.00,1.26
8111.00,1.26
8110.00,1.26
8109.00,1.26
8108.00,1.25
8107.00,1.25
8106.00,1.25
8105.00,1.25
8104.00,1.25
8103.00,1.25
8102.00,1.25
8101.00,1.25
8100.00,1.26
8099.00,1.26
8098.00,1.26
8097.00,1.26
8096.00,1.26
8095.00,1.26
8094.00,1.26
8093.00,1.26
8092.00,1.26
8091.00,1.26
8090.00,1.26
8089.00,1.26
8088.00,1.26
8087.00,1.26
8086.00,1.26
8085.00,1.26
8084.00,1.26
8083.00,1.26
8082.00,1.26
8081.00,1.26
8080.00,1.26
8079.00,1.26
8078.00,1.26
8077.00,1.26
8076.00,1.26
8075.00,1.26
8074.00,1.26
8073.00,1.26
8072.00,1.26
8071.00,1.26
8070.00,1.26
8069.00,1.26
8068.00,1.27
8067.00,1.27
8066.00,1.27
8065.00,1.27
8064.00,1.27
8063.00,1.27
8062.00,1.27
8061.00,1.27
8060.00,1.27
8059.00,1.27
8058.00,1.27
8057.00,1.27
8056.00,1.27
8055.00,1.27
8054.00,1.27
8053.00,1.27
8052.00,1.27
8051.00,1.27
8050.00,1.27
8049.00,1.27
8048.00,1.27
8047.00,1.27
8046.00,1.27
8045.00,1.27
8044.00,1.27
8043.00,1.27
8042.00,1.27
8041.00,1.27
8040.00,1.27
8039.00,1.27
8038.00,1.27
8037.00,1.27
8036.00,1.27
8035.00,1.27
8034.00,1.27
8033.00,1.27
8032.00,1.27
8031.00,1.27
8030.00,1.28
8029.00,1.28
8028.00,1.28
8027.00,1.28
8026.00,1.28
8025.00,1.28
8024.00,1.28
8023.00,1.28
8022.00,1.28
8021.00,1.28
8020.00,1.28
8019.00,1.28
8018.00,1.28
8017.00,1.28
8016.00,1.28
8015.00,1.28
8014.00,1.28
8013.00,1.28
8012.00,1.28
8011.00,1.28
8010.00,1.28
8009.00,1.28
8008.00,1.28
8007.00,1.28
8006.00,1.28
8005.00,1.28
8004.00,1.28
8003.00,1.28
8002.00,1.28
8001.00,1.28
8000.00,1.28
7999.00,1.28
7998.00,1.28
7997.00,1.28
7996.00,1.29
7995.00,1.29
7994.00,1.29
7993.00,1.29
7992.00,1.29
7991.00,1.29
7990.00,1.29
7989.00,1.29
7988.00,1.29
7987.00,1.29
7986.00,1.29
7985.00,1.29
7984.00,1.29
7983.00,1.29
7982.00,1.29
7981.00,1.29
7980.00,1.29
7979.00,1.29
7978.00,1.29
7977.00,1.29
7976.00,1.29
7975.00,1.29
7974.00,1.29
7973.00,1.29
7972.00,1.29
7971.00,1.29
7970.00,1.29
7969.00,1.29
7968.00,1.29
7967.00,1.29
7966.00,1.29
7965.00,1.29
7964.00,1.29
7963.00,1.29
7962.00,1.29
7961.00,1.29
7960.00,1.29
7959.00,1.29
7958.00,1.29
7957.00,1.29
7956.00,1.29
7955.00,1.29
7954.00,1.29
7953.00,1.29
7952.00,1.29
7951.00,1.29
7950.00,1.29
7949.00,1.29
7948.00,1.29
7947.00,1.29
7946.00,1.29
7945.00,1.29
7944.00,1.29
7943.00,1.29
7942.00,1.29
7941.00,1.29
7940.00,1.29
7939.00,1.29
7938.00,1.29
7937.00,1.29
7936.00,1.29
7935.00,1.29
7934.00,1.29
7933.00,1.29
7932.00,1.29
7931.00,1.29
7930.00,1.29
7929.00,1.29
7928.00,1.29
7927.00,1.29
7926.00,1.29
7925.00,1.29
7924.00,1.29
7923.00,1.29
7922.00,1.29
7921.00,1.29
7920.00,1.29
7919.00,1.29
7918.00,1.29
7917.00,1.29
7916.00,1.29
7915.00,1.29
7914.00,1.29
7913.00,1.29
7912.00,1.29
7911.00,1.30
7910.00,1.30
7909.00,1.30
7908.00,1.30
7907.00,1.30
7906.00,1.30
7905.00,1.30
7904.00,1.30
7903.00,1.30
7902.00,1.30
7901.00,1.30
7900.00,1.30
7899.00,1.30
7898.00,1.30
7897.00,1.30
7896.00,1.30
7895.00,1.31
7894.00,1.31
7893.00,1.31
7892.00,1.31
7891.00,1.31
7890.00,1.31
7889.00,1.31
7888.00,1.31
7887.00,1.31
7886.00,1.31
7885.00,1.31
7884.00,1.31
7883.00,1.31
7882.00,1.31
7881.00,1.31
7880.00,1.31
7879.00,1.31
7878.00,1.31
7877.00,1.31
7876.00,1.31
7875.00,1.31
7874.00,1.31
7873.00,1.31
7872.00,1.31
7871.00,1.31
7870.00,1.31
7869.00,1.31
7868.00,1.31
7867.00,1.30
7866.00,1.30
7865.00,1.30
7864.00,1.30
7863.00,1.30
7862.00,1.30
7861.00,1.30
7860.00,1.30
7859.00,1.30
7858.00,1.30
7857.00,1.30
7856.00,1.30
7855.00,1.30
7854.00,1.30
7853.00,1.30
7852.00,1.30
7851.00,1.30
7850.00,1.30
7849.00,1.30
7848.00,1.30
7847.00,1.30
7846.00,1.30
7845.00,1.30
7844.00,1.30
7843.00,1.31
7842.00,1.31
7841.00,1.31
7840.00,1.31
7839.00,1.31
7838.00,1.31
7837.00,1.31
7836.00,1.31
7835.00,1.31
7834.00,1.31
7833.00,1.31
7832.00,1.31
7831.00,1.31
7830.00,1.31
7829.00,1.31
7828.00,1.31
7827.00,1.31
7826.00,1.31
7825.00,1.31
7824.00,1.31
7823.00,1.31
7822.00,1.31
7821.00,1.31
7820.00,1.31
7819.00,1.31
7818.00,1.31
7817.00,1.31
7816.00,1.31
7815.00,1.31
7814.00,1.31
7813.00,1.31
7812.00,1.31
7811.00,1.31
7810.00,1.31
7809.00,1.31
7808.00,1.31
7807.00,1.32
7806.00,1.32
7805.00,1.32
7804.00,1.32
7803.00,1.32
7802.00,1.32
7801.00,1.32
7800.00,1.32
7799.00,1.32
7798.00,1.32
7797.00,1.32
7796.00,1.32
7795.00,1.32
7794.00,1.32
7793.00,1.32
7792.00,1.31
7791.00,1.31
7790.00,1.31
7789.00,1.31
7788.00,1.31
7787.00,1.31
7786.00,1.31
7785.00,1.31
7784.00,1.31
7783.00,1.31
7782.00,1.31
7781.00,1.31
7780.00,1.31
7779.00,1.31
7778.00,1.31
7777.00,1.31
7776.00,1.31
7775.00,1.31
7774.00,1.31
7773.00,1.31
7772.00,1.31
7771.00,1.31
7770.00,1.31
7769.00,1.31
7768.00,1.31
7767.00,1.31
7766.00,1.31
7765.00,1.31
7764.00,1.31
7763.00,1.31
7762.00,1.31
7761.00,1.31
7760.00,1.31
7759.00,1.31
7758.00,1.31
7757.00,1.31
7756.00,1.31
7755.00,1.31
7754.00,1.31
7753.00,1.32
7752.00,1.32
7751.00,1.32
7750.00,1.32
7749.00,1.32
7748.00,1.32
7747.00,1.32
7746.00,1.32
7745.00,1.32
7744.00,1.32
7743.00,1.32
7742.00,1.32
7741.00,1.32
7740.00,1.32
7739.00,1.32
7738.00,1.32
7737.00,1.32
7736.00,1.32
7735.00,1.31
7734.00,1.31
7733.00,1.31
7732.00,1.31
7731.00,1.31
7730.00,1.31
7729.00,1.31
7728.00,1.31
7727.00,1.31
7726.00,1.31
7725.00,1.31
7724.00,1.31
7723.00,1.31
7722.00,1.31
7721.00,1.31
7720.00,1.31
7719.00,1.31
7718.00,1.31
7717.00,1.31
7716.00,1.31
7715.00,1.31
7714.00,1.31
7713.00,1.31
7712.00,1.32
7711.00,1.32
7710.00,1.32
7709.00,1.32
7708.00,1.32
7707.00,1.32
7706.00,1.32
7705.00,1.32
7704.00,1.32
7703.00,1.32
7702.00,1.32
7701.00,1.32
7700.00,1.32
7699.00,1.32
7698.00,1.32
7697.00,1.32
7696.00,1.32
7695.00,1.32
7694.00,1.32
7693.00,1.32
7692.00,1.32
7691.00,1.32
7690.00,1.32
7689.00,1.32
7688.00,1.32
7687.00,1.31
7686.00,1.31
7685.00,1.31
7684.00,1.31
7683.00,1.31
7682.00,1.31
7681.00,1.31
7680.00,1.31
7679.00,1.31
7678.00,1.31
7677.00,1.31
7676.00,1.31
7675.00,1.31
7674.00,1.31
7673.00,1.31
7672.00,1.31
7671.00,1.31
7670.00,1.31
7669.00,1.31
7668.00,1.31
7667.00,1.31
7666.00,1.31
7665.00,1.31
7664.00,1.31
7663.00,1.31
7662.00,1.31
7661.00,1.31
7660.00,1.31
7659.00,1.31
7658.00,1.31
7657.00,1.30
7656.00,1.30
7655.00,1.30
7654.00,1.30
7653.00,1.30
7652.00,1.30
7651.00,1.30
7650.00,1.30
7649.00,1.30
7648.00,1.30
7647.00,1.30
7646.00,1.30
7645.00,1.30
7644.00,1.30
7643.00,1.30
7642.00,1.30
7641.00,1.30
7640.00,1.30
7639.00,1.30
7638.00,1.30
7637.00,1.30
7636.00,1.30
7635.00,1.30
7634.00,1.30
7633.00,1.30
7632.00,1.30
7631.00,1.30
7630.00,1.30
7629.00,1.30
7628.00,1.30
7627.00,1.30
7626.00,1.30
7625.00,1.30
7624.00,1.30
7623.00,1.31
7622.00,1.31
7621.00,1.31
7620.00,1.31
7619.00,1.31
7618.00,1.31
7617.00,1.31
7616.00,1.31
7615.00,1.31
7614.00,1.31
7613.00,1.32
7612.00,1.32
7611.00,1.32
7610.00,1.32
7609.00,1.32
7608.00,1.32
7607.00,1.32
7606.00,1.32
7605.00,1.32
7604.00,1.32
7603.00,1.32
7602.00,1.32
7601.00,1.32
7600.00,1.32
7599.00,1.32
7598.00,1.32
7597.00,1.32
7596.00,1.32
7595.00,1.32
7594.00,1.32
7593.00,1.31
7592.00,1.31
7591.00,1.31
7590.00,1.31
7589.00,1.31
7588.00,1.31
7587.00,1.31
7586.00,1.31
7585.00,1.31
7584.00,1.31
7583.00,1.31
7582.00,1.31
7581.00,1.31
7580.00,1.31
7579.00,1.31
7578.00,1.31
7577.00,1.31
7576.00,1.31
7575.00,1.31
7574.00,1.31
7573.00,1.31
7572.00,1.31
7571.00,1.31
7570.00,1.31
7569.00,1.31
7568.00,1.31
7567.00,1.31
7566.00,1.31
7565.00,1.31
7564.00,1.31
7563.00,1.31
7562.00,1.31
7561.00,1.31
7560.00,1.31
7559.00,1.31
7558.00,1.31
7557.00,1.31
7556.00,1.31
7555.00,1.31
7554.00,1.31
7553.00,1.31
7552.00,1.31
7551.00,1.31
7550.00,1.31
7549.00,1.31
7548.00,1.30
7547.00,1.30
7546.00,1.30
7545.00,1.30
7544.00,1.30
7543.00,1.30
7542.00,1.30
7541.00,1.30
7540.00,1.30
7539.00,1.30
7538.00,1.30
7537.00,1.30
7536.00,1.29
7535.00,1.29
7534.00,1.29
7533.00,1.29
7532.00,1.29
7531.00,1.29
7530.00,1.29
7529.00,1.29
7528.00,1.30
7527.00,1.30
7526.00,1.30
7525.00,1.30
7524.00,1.30
7523.00,1.30
7522.00,1.30
7521.00,1.30
7520.00,1.30
7519.00,1.30
7518.00,1.30
7517.00,1.29
7516.00,1.29
7515.00,1.29
7514.00,1.29
7513.00,1.29
7512.00,1.29
7511.00,1.29
7510.00,1.29
7509.00,1.29
7508.00,1.28
7507.00,1.28
7506.00,1.28
7505.00,1.28
7504.00,1.28
7503.00,1.28
7502.00,1.28
7501.00,1.28
7500.00,1.28
7499.00,1.28
7498.00,1.28
7497.00,1.27
7496.00,1.27
7495.00,1.27
7494.00,1.27
7493.00,1.27
7492.00,1.27
7491.00,1.27
7490.00,1.27
7489.00,1.27
7488.00,1.27
7487.00,1.27
7486.00,1.27
7485.00,1.27
7484.00,1.27
7483.00,1.27
7482.00,1.27
7481.00,1.27
7480.00,1.27
7479.00,1.26
7478.00,1.26
7477.00,1.26
7476.00,1.26
7475.00,1.26
7474.00,1.26
7473.00,1.26
7472.00,1.26
7471.00,1.26
7470.00,1.26
7469.00,1.26
7468.00,1.26
7467.00,1.26
7466.00,1.26
7465.00,1.26
7464.00,1.26
7463.00,1.26
7462.00,1.26
7461.00,1.26
7460.00,1.26
7459.00,1.26
7458.00,1.26
7457.00,1.26
7456.00,1.26
7455.00,1.26
7454.00,1.26
7453.00,1.26
7452.00,1.26
7451.00,1.26
7450.00,1.26
7449.00,1.26
7448.00,1.26
7447.00,1.25
7446.00,1.25
7445.00,1.25
7444.00,1.25
7443.00,1.25
7442.00,1.25
7441.00,1.25
7440.00,1.25
7439.00,1.25
7438.00,1.25
7437.00,1.25
7436.00,1.25
7435.00,1.25
7434.00,1.25
7433.00,1.25
7432.00,1.25
7431.00,1.25
7430.00,1.25
7429.00,1.25
7428.00,1.25
7427.00,1.24
7426.00,1.24
7425.00,1.24
7424.00,1.24
7423.00,1.24
7422.00,1.24
7421.00,1.24
7420.00,1.24
7419.00,1.23
7418.00,1.23
7417.00,1.23
7416.00,1.23
7415.00,1.23
7414.00,1.23
7413.00,1.23
7412.00,1.23
7411.00,1.23
7410.00,1.23
7409.00,1.23
7408.00,1.23
7407.00,1.23
7406.00,1.23
7405.00,1.23
7404.00,1.23
7403.00,1.23
7402.00,1.23
7401.00,1.22
7400.00,1.22
7399.00,1.22
7398.00,1.22
7397.00,1.22
7396.00,1.22
7395.00,1.22
7394.00,1.21
7393.00,1.21
7392.00,1.21
7391.00,1.21
7390.00,1.21
7389.00,1.21
7388.00,1.21
7387.00,1.21
7386.00,1.20
7385.00,1.20
7384.00,1.20
7383.00,1.20
7382.00,1.20
7381.00,1.20
7380.00,1.20
7379.00,1.20
7378.00,1.20
7377.00,1.20
7376.00,1.20
7375.00,1.20
7374.00,1.20
7373.00,1.20
7372.00,1.20
7371.00,1.20
7370.00,1.20
7369.00,1.20
7368.00,1.20
7367.00,1.20
7366.00,1.20
7365.00,1.20
7364.00,1.20
7363.00,1.19
7362.00,1.19
7361.00,1.19
7360.00,1.19
7359.00,1.19
7358.00,1.19
7357.00,1.19
7356.00,1.19
7355.00,1.19
7354.00,1.19
7353.00,1.19
7352.00,1.19
7351.00,1.19
7350.00,1.19
7349.00,1.19
7348.00,1.19
7347.00,1.19
7346.00,1.19
7345.00,1.19
7344.00,1.19
7343.00,1.19
7342.00,1.19
7341.00,1.19
7340.00,1.19
7339.00,1.19
7338.00,1.19
7337.00,1.19
7336.00,1.19
7335.00,1.19
7334.00,1.19
7333.00,1.19
7332.00,1.18
7331.00,1.18
7330.00,1.18
7329.00,1.18
7328.00,1.18
7327.00,1.18
7326.00,1.18
7325.00,1.18
7324.00,1.18
7323.00,1.18
7322.00,1.18
7321.00,1.18
7320.00,1.18
7319.00,1.18
7318.00,1.18
7317.00,1.18
7316.00,1.18
7315.00,1.18
7314.00,1.17
7313.00,1.17
7312.00,1.17
7311.00,1.17
7310.00,1.17
7309.00,1.17
7308.00,1.17
7307.00,1.17
7306.00,1.17
7305.00,1.17
7304.00,1.17
7303.00,1.17
7302.00,1.17
7301.00,1.17
7300.00,1.17
7299.00,1.16
7298.00,1.16
7297.00,1.16
7296.00,1.16
7295.00,1.16
7294.00,1.16
7293.00,1.16
7292.00,1.15
7291.00,1.15
7290.00,1.15
7289.00,1.15
7288.00,1.15
7287.00,1.15
7286.00,1.15
7285.00,1.14
7284.00,1.14
7283.00,1.14
7282.00,1.14
7281.00,1.14
7280.00,1.14
7279.00,1.14
7278.00,1.14
7277.00,1.13
7276.00,1.13
7275.00,1.13
7274.00,1.13
7273.00,1.13
7272.00,1.13
7271.00,1.13
7270.00,1.13
7269.00,1.13
7268.00,1.12
7267.00,1.12
7266.00,1.12
7265.00,1.12
7264.00,1.12
7263.00,1.12
7262.00,1.12
7261.00,1.12
7260.00,1.12
7259.00,1.11
7258.00,1.11
7257.00,1.11
7256.00,1.11
7255.00,1.11
7254.00,1.11
7253.00,1.11
7252.00,1.10
7251.00,1.10
7250.00,1.10
7249.00,1.10
7248.00,1.10
7247.00,1.09
7246.00,1.09
7245.00,1.09
7244.00,1.09
7243.00,1.09
7242.00,1.08
7241.00,1.08
7240.00,1.08
7239.00,1.07
7238.00,1.07
7237.00,1.07
7236.00,1.07
7235.00,1.06
7234.00,1.06
7233.00,1.06
7232.00,1.05
7231.00,1.05
7230.00,1.05
7229.00,1.04
7228.00,1.04
7227.00,1.04
7226.00,1.04
7225.00,1.03
7224.00,1.03
7223.00,1.03
7222.00,1.02
7221.00,1.02
7220.00,1.02
7219.00,1.01
7218.00,1.01
7217.00,1.01
7216.00,1.00
7215.00,1.00
7214.00,1.00
7213.00,0.99
7212.00,0.99
7211.00,0.99
7210.00,0.98
7209.00,0.98
7208.00,0.98
7207.00,0.97
7206.00,0.97
7205.00,0.97
7204.00,0.96
7203.00,0.96
7202.00,0.96
7201.00,0.95
7200.00,0.95
7199.00,0.95
7198.00,0.94
7197.00,0.94
7196.00,0.94
7195.00,0.93
7194.00,0.93
7193.00,0.93
7192.00,0.93
7191.00,0.92
7190.00,0.92
7189.00,0.92
7188.00,0.91
7187.00,0.91
7186.00,0.91
7185.00,0.91
7184.00,0.90
7183.00,0.90
7182.00,0.90
7181.00,0.89
7180.00,0.89
7179.00,0.89
7178.00,0.88
7177.00,0.88
7176.00,0.88
7175.00,0.88
7174.00,0.87
7173.00,0.87
7172.00,0.87
7171.00,0.87
7170.00,0.86
7169.00,0.86
7168.00,0.86
7167.00,0.86
7166.00,0.86
7165.00,0.85
7164.00,0.85
7163.00,0.85
7162.00,0.85
7161.00,0.85
7160.00,0.84
7159.00,0.84
7158.00,0.84
7157.00,0.84
7156.00,0.84
7155.00,0.83
7154.00,0.83
7153.00,0.83
7152.00,0.83
7151.00,0.83
7150.00,0.82
7149.00,0.82
7148.00,0.82
7147.00,0.82
7146.00,0.81
7145.00,0.81
7144.00,0.81
7143.00,0.81
7142.00,0.80
7141.00,0.80
7140.00,0.80
7139.00,0.80
7138.00,0.79
7137.00,0.79
7136.00,0.79
7135.00,0.78
7134.00,0.78
7133.00,0.78
7132.00,0.78
7131.00,0.77
7130.00,0.77
7129.00,0.77
7128.00,0.77
7127.00,0.76
7126.00,0.76
7125.00,0.76
7124.00,0.76
7123.00,0.75
7122.00,0.75
7121.00,0.75
7120.00,0.75
7119.00,0.74
7118.00,0.74
7117.00,0.74
7116.00,0.73
7115.00,0.73
7114.00,0.73
7113.00,0.73
7112.00,0.72
7111.00,0.72
7110.00,0.72
7109.00,0.72
7108.00,0.72
7107.00,0.71
7106.00,0.71
7105.00,0.71
7104.00,0.71
7103.00,0.71
7102.00,0.70
7101.00,0.70
7100.00,0.70
7099.00,0.70
7098.00,0.70
7097.00,0.70
7096.00,0.70
7095.00,0.69
7094.00,0.69
7093.00,0.69
7092.00,0.69
7091.00,0.69
7090.00,0.69
7089.00,0.69
7088.00,0.69
7087.00,0.69
7086.00,0.68
7085.00,0.68
7084.00,0.68
7083.00,0.68
7082.00,0.68
7081.00,0.68
7080.00,0.67
7079.00,0.67
7078.00,0.67
7077.00,0.67
7076.00,0.67
7075.00,0.66
7074.00,0.66
7073.00,0.66
7072.00,0.66
7071.00,0.66
7070.00,0.66
7069.00,0.65
7068.00,0.65
7067.00,0.65
7066.00,0.65
7065.00,0.65
7064.00,0.65
7063.00,0.65
7062.00,0.65
7061.00,0.64
7060.00,0.64
7059.00,0.64
7058.00,0.64
7057.00,0.64
7056.00,0.64
7055.00,0.64
7054.00,0.64
7053.00,0.64
7052.00,0.64
7051.00,0.64
7050.00,0.64
7049.00,0.64
7048.00,0.64
7047.00,0.64
7046.00,0.64
7045.00,0.64
7044.00,0.64
7043.00,0.63
7042.00,0.63
7041.00,0.63
7040.00,0.63
7039.00,0.63
7038.00,0.63
7037.00,0.63
7036.00,0.63
7035.00,0.62
7034.00,0.62
7033.00,0.62
7032.00,0.62
7031.00,0.62
7030.00,0.62
7029.00,0.61
7028.00,0.61
7027.00,0.61
7026.00,0.61
7025.00,0.61
7024.00,0.61
7023.00,0.61
7022.00,0.61
7021.00,0.61
7020.00,0.60
7019.00,0.60
7018.00,0.60
7017.00,0.60
7016.00,0.60
7015.00,0.60
7014.00,0.60
7013.00,0.60
7012.00,0.60
7011.00,0.60
7010.00,0.60
7009.00,0.60
7008.00,0.60
7007.00,0.60
7006.00,0.60
7005.00,0.60
7004.00,0.60
7003.00,0.60
7002.00,0.60
7001.00,0.60
7000.00,0.60
6999.00,0.60
6998.00,0.60
6997.00,0.60
6996.00,0.60
6995.00,0.60
6994.00,0.60
6993.00,0.60
6992.00,0.60
6991.00,0.60
6990.00,0.60
6989.00,0.60
6988.00,0.60
6987.00,0.60
6986.00,0.60
6985.00,0.60
6984.00,0.60
6983.00,0.59
6982.00,0.59
6981.00,0.59
6980.00,0.59
6979.00,0.59
6978.00,0.59
6977.00,0.59
6976.00,0.59
6975.00,0.59
6974.00,0.59
6973.00,0.59
6972.00,0.59
6971.00,0.59
6970.00,0.59
6969.00,0.59
6968.00,0.59
6967.00,0.59
6966.00,0.59
6965.00,0.59
6964.00,0.59
6963.00,0.59
6962.00,0.59
6961.00,0.59
6960.00,0.59
6959.00,0.59
6958.00,0.59
6957.00,0.59
6956.00,0.59
6955.00,0.59
6954.00,0.59
6953.00,0.59
6952.00,0.58
6951.00,0.58
6950.00,0.58
6949.00,0.58
6948.00,0.58
6947.00,0.58
6946.00,0.58
6945.00,0.58
6944.00,0.58
6943.00,0.58
6942.00,0.58
6941.00,0.58
6940.00,0.58
6939.00,0.58
6938.00,0.58
6937.00,0.58
6936.00,0.58
6935.00,0.58
6934.00,0.58
6933.00,0.58
6932.00,0.58
6931.00,0.58
6930.00,0.58
6929.00,0.58
6928.00,0.58
6927.00,0.58
6926.00,0.58
6925.00,0.58
6924.00,0.58
6923.00,0.58
6922.00,0.58
6921.00,0.58
6920.00,0.57
6919.00,0.57
6918.00,0.57
6917.00,0.57
6916.00,0.57
6915.00,0.57
6914.00,0.57
6913.00,0.57
6912.00,0.57
6911.00,0.57
6910.00,0.57
6909.00,0.57
6908.00,0.57
6907.00,0.57
6906.00,0.57
6905.00,0.57
6904.00,0.57
6903.00,0.57
6902.00,0.57
6901.00,0.57
6900.00,0.57
6899.00,0.57
6898.00,0.57
6897.00,0.57
6896.00,0.57
6895.00,0.57
6894.00,0.57
6893.00,0.58
6892.00,0.58
6891.00,0.58
6890.00,0.58
6889.00,0.58
6888.00,0.58
6887.00,0.58
6886.00,0.58
6885.00,0.58
6884.00,0.58
6883.00,0.58
6882.00,0.58
6881.00,0.58
6880.00,0.58
6879.00,0.58
6878.00,0.58
6877.00,0.58
6876.00,0.58
6875.00,0.58
6874.00,0.58
6873.00,0.58
6872.00,0.58
6871.00,0.58
6870.00,0.58
6869.00,0.58
6868.00,0.58
6867.00,0.58
6866.00,0.58
6865.00,0.58
6864.00,0.58
6863.00,0.58
6862.00,0.58
6861.00,0.58
6860.00,0.58
6859.00,0.58
6858.00,0.58
6857.00,0.58
6856.00,0.58
6855.00,0.58
6854.00,0.58
6853.00,0.58
6852.00,0.58
6851.00,0.58
6850.00,0.58
6849.00,0.58
6848.00,0.58
6847.00,0.58
6846.00,0.58
6845.00,0.58
6844.00,0.58
6843.00,0.58
6842.00,0.58
6841.00,0.58
6840.00,0.58
6839.00,0.58
6838.00,0.58
6837.00,0.58
6836.00,0.58
6835.00,0.58
6834.00,0.58
6833.00,0.58
6832.00,0.58
6831.00,0.58
6830.00,0.58
6829.00,0.58
6828.00,0.58
6827.00,0.58
6826.00,0.58
6825.00,0.58
6824.00,0.58
6823.00,0.58
6822.00,0.58
6821.00,0.58
6820.00,0.58
6819.00,0.58
6818.00,0.58
6817.00,0.58
6816.00,0.58
6815.00,0.59
6814.00,0.59
6813.00,0.59
6812.00,0.59
6811.00,0.59
6810.00,0.59
6809.00,0.59
6808.00,0.59
6807.00,0.59
6806.00,0.59
6805.00,0.59
6804.00,0.59
6803.00,0.59
6802.00,0.59
6801.00,0.59
6800.00,0.59
6799.00,0.59
6798.00,0.59
6797.00,0.59
6796.00,0.59
6795.00,0.59
6794.00,0.59
6793.00,0.59
6792.00,0.59
6791.00,0.59
6790.00,0.59
6789.00,0.59
6788.00,0.59
6787.00,0.59
6786.00,0.59
6785.00,0.59
6784.00,0.59
6783.00,0.59
6782.00,0.59
6781.00,0.59
6780.00,0.59
6779.00,0.59
6778.00,0.60
6777.00,0.60
6776.00,0.60
6775.00,0.60
6774.00,0.60
6773.00,0.60
6772.00,0.60
6771.00,0.60
6770.00,0.60
6769.00,0.60
6768.00,0.60
6767.00,0.60
6766.00,0.61
6765.00,0.61
6764.00,0.61
6763.00,0.61
6762.00,0.61
6761.00,0.61
6760.00,0.61
6759.00,0.61
6758.00,0.61
6757.00,0.61
6756.00,0.61
6755.00,0.61
6754.00,0.61
6753.00,0.61
6752.00,0.61
6751.00,0.61
6750.00,0.61
6749.00,0.61
6748.00,0.61
6747.00,0.61
6746.00,0.61
6745.00,0.62
6744.00,0.62
6743.00,0.62
6742.00,0.62
6741.00,0.62
6740.00,0.62
6739.00,0.62
6738.00,0.62
6737.00,0.62
6736.00,0.62
6735.00,0.62
6734.00,0.62
6733.00,0.62
6732.00,0.63
6731.00,0.63
6730.00,0.63
6729.00,0.63
6728.00,0.63
6727.00,0.63
6726.00,0.63
6725.00,0.63
6724.00,0.63
6723.00,0.63
6722.00,0.63
6721.00,0.63
6720.00,0.63
6719.00,0.63
6718.00,0.63
6717.00,0.63
6716.00,0.63
6715.00,0.63
6714.00,0.63
6713.00,0.63
6712.00,0.63
6711.00,0.63
6710.00,0.64
6709.00,0.64
6708.00,0.64
6707.00,0.64
6706.00,0.64
6705.00,0.64
6704.00,0.64
6703.00,0.64
6702.00,0.64
6701.00,0.64
6700.00,0.65
6699.00,0.65
6698.00,0.65
6697.00,0.65
6696.00,0.65
6695.00,0.65
6694.00,0.65
6693.00,0.65
6692.00,0.65
6691.00,0.65
6690.00,0.65
6689.00,0.65
6688.00,0.65
6687.00,0.65
6686.00,0.66
6685.00,0.66
6684.00,0.66
6683.00,0.66
6682.00,0.66
6681.00,0.66
6680.00,0.66
6679.00,0.66
6678.00,0.66
6677.00,0.66
6676.00,0.66
6675.00,0.66
6674.00,0.66
6673.00,0.67
6672.00,0.67
6671.00,0.67
6670.00,0.67
6669.00,0.67
6668.00,0.67
6667.00,0.67
6666.00,0.67
6665.00,0.67
6664.00,0.67
6663.00,0.67
6662.00,0.67
6661.00,0.67
6660.00,0.67
6659.00,0.67
6658.00,0.67
6657.00,0.67
6656.00,0.67
6655.00,0.68
6654.00,0.68
6653.00,0.68
6652.00,0.68
6651.00,0.68
6650.00,0.68
6649.00,0.68
6648.00,0.68
6647.00,0.68
6646.00,0.68
6645.00,0.69
6644.00,0.69
6643.00,0.69
6642.00,0.69
6641.00,0.69
6640.00,0.69
6639.00,0.69
6638.00,0.69
6637.00,0.69
6636.00,0.69
6635.00,0.70
6634.00,0.70
6633.00,0.70
6632.00,0.70
6631.00,0.70
6630.00,0.70
6629.00,0.70
6628.00,0.70
6627.00,0.70
6626.00,0.70
6625.00,0.70
6624.00,0.70
6623.00,0.70
6622.00,0.70
6621.00,0.70
6620.00,0.71
6619.00,0.71
6618.00,0.71
6617.00,0.71
6616.00,0.71
6615.00,0.71
6614.00,0.71
6613.00,0.71
6612.00,0.71
6611.00,0.71
6610.00,0.71
6609.00,0.71
6608.00,0.72
6607.00,0.72
6606.00,0.72
6605.00,0.72
6604.00,0.72
6603.00,0.72
6602.00,0.72
6601.00,0.72
6600.00,0.72
6599.00,0.72
6598.00,0.72
6597.00,0.72
6596.00,0.73
6595.00,0.73
6594.00,0.73
6593.00,0.73
6592.00,0.73
6591.00,0.73
6590.00,0.73
6589.00,0.73
6588.00,0.73
6587.00,0.73
6586.00,0.73
6585.00,0.73
6584.00,0.73
6583.00,0.73
6582.00,0.73
6581.00,0.73
6580.00,0.73
6579.00,0.73
6578.00,0.74
6577.00,0.74
6576.00,0.74
6575.00,0.74
6574.00,0.74
6573.00,0.74
6572.00,0.74
6571.00,0.74
6570.00,0.74
6569.00,0.75
6568.00,0.75
6567.00,0.75
6566.00,0.75
6565.00,0.75
6564.00,0.75
6563.00,0.75
6562.00,0.75
6561.00,0.75
6560.00,0.75
6559.00,0.76
6558.00,0.76
6557.00,0.76
6556.00,0.76
6555.00,0.76
6554.00,0.76
6553.00,0.76
6552.00,0.76
6551.00,0.76
6550.00,0.76
6549.00,0.76
6548.00,0.76
6547.00,0.76
6546.00,0.77
6545.00,0.77
6544.00,0.77
6543.00,0.77
6542.00,0.77
6541.00,0.77
6540.00,0.77
6539.00,0.77
6538.00,0.77
6537.00,0.77
6536.00,0.77
6535.00,0.77
6534.00,0.77
6533.00,0.77
6532.00,0.77
6531.00,0.78
6530.00,0.78
6529.00,0.78
6528.00,0.78
6527.00,0.78
6526.00,0.78
6525.00,0.78
6524.00,0.78
6523.00,0.78
6522.00,0.78
6521.00,0.78
6520.00,0.78
6519.00,0.78
6518.00,0.78
6517.00,0.78
6516.00,0.78
6515.00,0.78
6514.00,0.79
6513.00,0.79
6512.00,0.79
6511.00,0.79
6510.00,0.79
6509.00,0.79
6508.00,0.79
6507.00,0.79
6506.00,0.79
6505.00,0.79
6504.00,0.79
6503.00,0.79
6502.00,0.79
6501.00,0.79
6500.00,0.79
6499.00,0.79
6498.00,0.79
6497.00,0.80
6496.00,0.80
6495.00,0.80
6494.00,0.80
6493.00,0.80
6492.00,0.80
6491.00,0.80
6490.00,0.80
6489.00,0.80
6488.00,0.80
6487.00,0.80
6486.00,0.80
6485.00,0.80
6484.00,0.80
6483.00,0.80
6482.00,0.80
6481.00,0.80
6480.00,0.80
6479.00,0.81
6478.00,0.81
6477.00,0.81
6476.00,0.81
6475.00,0.81
6474.00,0.81
6473.00,0.81
6472.00,0.81
6471.00,0.81
6470.00,0.81
6469.00,0.81
6468.00,0.81
6467.00,0.81
6466.00,0.82
6465.00,0.82
6464.00,0.82
6463.00,0.82
6462.00,0.82
6461.00,0.82
6460.00,0.82
6459.00,0.82
6458.00,0.82
6457.00,0.82
6456.00,0.82
6455.00,0.82
6454.00,0.83
6453.00,0.83
6452.00,0.83
6451.00,0.83
6450.00,0.83
6449.00,0.83
6448.00,0.83
6447.00,0.83
6446.00,0.83
6445.00,0.83
6444.00,0.83
6443.00,0.83
6442.00,0.83
6441.00,0.83
6440.00,0.83
6439.00,0.83
6438.00,0.83
6437.00,0.83
6436.00,0.83
6435.00,0.83
6434.00,0.83
6433.00,0.83
6432.00,0.83
6431.00,0.83
6430.00,0.83
6429.00,0.83
6428.00,0.83
6427.00,0.83
6426.00,0.83
6425.00,0.84
6424.00,0.84
6423.00,0.84
6422.00,0.84
6421.00,0.84
6420.00,0.84
6419.00,0.84
6418.00,0.84
6417.00,0.84
6416.00,0.84
6415.00,0.84
6414.00,0.84
6413.00,0.85
6412.00,0.85
6411.00,0.85
6410.00,0.85
6409.00,0.85
6408.00,0.85
6407.00,0.85
6406.00,0.85
6405.00,0.85
6404.00,0.85
6403.00,0.85
6402.00,0.85
6401.00,0.85
6400.00,0.85
6399.00,0.85
6398.00,0.85
6397.00,0.85
6396.00,0.85
6395.00,0.85
6394.00,0.85
6393.00,0.86
6392.00,0.86
6391.00,0.86
6390.00,0.86
6389.00,0.86
6388.00,0.86
6387.00,0.86
6386.00,0.86
6385.00,0.86
6384.00,0.86
6383.00,0.86
6382.00,0.86
6381.00,0.86
6380.00,0.86
6379.00,0.86
6378.00,0.87
6377.00,0.87
6376.00,0.87
6375.00,0.87
6374.00,0.87
6373.00,0.87
6372.00,0.87
6371.00,0.87
6370.00,0.87
6369.00,0.87
6368.00,0.87
6367.00,0.87
6366.00,0.88
6365.00,0.88
6364.00,0.88
6363.00,0.88
6362.00,0.88
6361.00,0.88
6360.00,0.88
6359.00,0.88
6358.00,0.88
6357.00,0.88
6356.00,0.88
6355.00,0.88
6354.00,0.89
6353.00,0.89
6352.00,0.89
6351.00,0.89
6350.00,0.89
6349.00,0.89
6348.00,0.89
6347.00,0.89
6346.00,0.89
6345.00,0.89
6344.00,0.89
6343.00,0.89
6342.00,0.89
6341.00,0.89
6340.00,0.89
6339.00,0.89
6338.00,0.89
6337.00,0.89
6336.00,0.89
6335.00,0.89
6334.00,0.90
6333.00,0.90
6332.00,0.90
6331.00,0.90
6330.00,0.90
6329.00,0.90
6328.00,0.90
6327.00,0.90
6326.00,0.90
6325.00,0.90
6324.00,0.91
6323.00,0.91
6322.00,0.91
6321.00,0.91
6320.00,0.91
6319.00,0.91
6318.00,0.92
6317.00,0.92
6316.00,0.92
6315.00,0.92
6314.00,0.92
6313.00,0.92
6312.00,0.93
6311.00,0.93
6310.00,0.93
6309.00,0.93
6308.00,0.93
6307.00,0.93
6306.00,0.93
6305.00,0.93
6304.00,0.93
6303.00,0.93
6302.00,0.93
6301.00,0.93
6300.00,0.93
6299.00,0.93
6298.00,0.94
6297.00,0.94
6296.00,0.94
6295.00,0.94
6294.00,0.94
6293.00,0.94
6292.00,0.94
6291.00,0.94
6290.00,0.94
6289.00,0.94
6288.00,0.95
6287.00,0.95
6286.00,0.95
6285.00,0.95
6284.00,0.95
6283.00,0.95
6282.00,0.95
6281.00,0.95
6280.00,0.95
6279.00,0.95
6278.00,0.95
6277.00,0.96
6276.00,0.96
6275.00,0.96
6274.00,0.96
6273.00,0.96
6272.00,0.96
6271.00,0.96
6270.00,0.96
6269.00,0.96
6268.00,0.96
6267.00,0.96
6266.00,0.96
6265.00,0.97
6264.00,0.97
6263.00,0.97
6262.00,0.97
6261.00,0.97
6260.00,0.97
6259.00,0.97
6258.00,0.97
6257.00,0.97
6256.00,0.97
6255.00,0.97
6254.00,0.97
6253.00,0.97
6252.00,0.97
6251.00,0.97
6250.00,0.97
6249.00,0.98
6248.00,0.98
6247.00,0.98
6246.00,0.98
6245.00,0.98
6244.00,0.98
6243.00,0.98
6242.00,0.99
6241.00,0.99
6240.00,0.99
6239.00,0.99
6238.00,0.99
6237.00,0.99
6236.00,0.99
6235.00,1.00
6234.00,1.00
6233.00,1.00
6232.00,1.00
6231.00,1.00
6230.00,1.00
6229.00,1.00
6228.00,1.00
6227.00,1.01
6226.00,1.01
6225.00,1.01
6224.00,1.01
6223.00,1.01
6222.00,1.01
6221.00,1.01
6220.00,1.01
6219.00,1.01
6218.00,1.02
6217.00,1.02
6216.00,1.02
6215.00,1.02
6214.00,1.02
6213.00,1.02
6212.00,1.02
6211.00,1.02
6210.00,1.02
6209.00,1.03
6208.00,1.03
6207.00,1.03
6206.00,1.03
6205.00,1.03
6204.00,1.03
6203.00,1.03
6202.00,1.03
6201.00,1.03
6200.00,1.03
6199.00,1.03
6198.00,1.04
6197.00,1.04
6196.00,1.04
6195.00,1.04
6194.00,1.04
6193.00,1.04
6192.00,1.04
6191.00,1.05
6190.00,1.05
6189.00,1.05
6188.00,1.05
6187.00,1.05
6186.00,1.05
6185.00,1.06
6184.00,1.06
6183.00,1.06
6182.00,1.06
6181.00,1.06
6180.00,1.06
6179.00,1.07
6178.00,1.07
6177.00,1.07
6176.00,1.07
6175.00,1.07
6174.00,1.07
6173.00,1.07
6172.00,1.07
6171.00,1.08
6170.00,1.08
6169.00,1.08
6168.00,1.08
6167.00,1.08
6166.00,1.08
6165.00,1.08
6164.00,1.09
6163.00,1.09
6162.00,1.09
6161.00,1.09
6160.00,1.09
6159.00,1.09
6158.00,1.09
6157.00,1.09
6156.00,1.10
6155.00,1.10
6154.00,1.10
6153.00,1.10
6152.00,1.10
6151.00,1.10
6150.00,1.10
6149.00,1.11
6148.00,1.11
6147.00,1.11
6146.00,1.11
6145.00,1.11
6144.00,1.11
6143.00,1.11
6142.00,1.12
6141.00,1.12
6140.00,1.12
6139.00,1.12
6138.00,1.12
6137.00,1.12
6136.00,1.12
6135.00,1.13
6134.00,1.13
6133.00,1.13
6132.00,1.13
6131.00,1.13
6130.00,1.13
6129.00,1.13
6128.00,1.14
6127.00,1.14
6126.00,1.14
6125.00,1.14
6124.00,1.14
6123.00,1.14
6122.00,1.14
6121.00,1.14
6120.00,1.14
6119.00,1.14
6118.00,1.15
6117.00,1.15
6116.00,1.15
6115.00,1.15
6114.00,1.15
6113.00,1.15
6112.00,1.15
6111.00,1.15
6110.00,1.15
6109.00,1.15
6108.00,1.15
6107.00,1.16
6106.00,1.16
6105.00,1.16
6104.00,1.16
6103.00,1.16
6102.00,1.16
6101.00,1.16
6100.00,1.17
6099.00,1.17
6098.00,1.17
6097.00,1.17
6096.00,1.17
6095.00,1.17
6094.00,1.18
6093.00,1.18
6092.00,1.18
6091.00,1.18
6090.00,1.18
6089.00,1.18
6088.00,1.18
6087.00,1.18
6086.00,1.19
6085.00,1.19
6084.00,1.19
6083.00,1.19
6082.00,1.19
6081.00,1.19
6080.00,1.19
6079.00,1.19
6078.00,1.20
6077.00,1.20
6076.00,1.20
6075.00,1.20
6074.00,1.20
6073.00,1.20
6072.00,1.20
6071.00,1.20
6070.00,1.20
6069.00,1.20
6068.00,1.21
6067.00,1.21
6066.00,1.21
6065.00,1.21
6064.00,1.21
6063.00,1.21
6062.00,1.21
6061.00,1.21
6060.00,1.21
6059.00,1.21
6058.00,1.21
6057.00,1.21
6056.00,1.21
6055.00,1.21
6054.00,1.22
6053.00,1.22
6052.00,1.22
6051.00,1.22
6050.00,1.22
6049.00,1.22
6048.00,1.22
6047.00,1.22
6046.00,1.22
6045.00,1.22
6044.00,1.23
6043.00,1.23
6042.00,1.23
6041.00,1.23
6040.00,1.23
6039.00,1.23
6038.00,1.23
6037.00,1.23
6036.00,1.23
6035.00,1.23
6034.00,1.23
6033.00,1.23
6032.00,1.23
6031.00,1.23
6030.00,1.23
6029.00,1.23
6028.00,1.23
6027.00,1.23
6026.00,1.24
6025.00,1.24
6024.00,1.24
6023.00,1.24
6022.00,1.24
6021.00,1.24
6020.00,1.24
6019.00,1.24
6018.00,1.24
6017.00,1.24
6016.00,1.24
6015.00,1.24
6014.00,1.24
6013.00,1.24
6012.00,1.24
6011.00,1.24
6010.00,1.24
6009.00,1.24
6008.00,1.23
6007.00,1.23
6006.00,1.23
6005.00,1.23
6004.00,1.23
6003.00,1.23
6002.00,1.23
6001.00,1.23
6000.00,1.23
5999.00,1.23
5998.00,1.23
5997.00,1.23
5996.00,1.23
5995.00,1.23
5994.00,1.23
5993.00,1.22
5992.00,1.22
5991.00,1.22
5990.00,1.22
5989.00,1.22
5988.00,1.22
5987.00,1.21
5986.00,1.21
5985.00,1.21
5984.00,1.21
5983.00,1.21
5982.00,1.20
5981.00,1.20
5980.00,1.20
5979.00,1.19
5978.00,1.19
5977.00,1.19
5976.00,1.18
5975.00,1.18
5974.00,1.17
5973.00,1.17
5972.00,1.16
5971.00,1.16
5970.00,1.15
5969.00,1.15
5968.00,1.14
5967.00,1.14
5966.00,1.13
5965.00,1.12
5964.00,1.12
5963.00,1.11
5962.00,1.11
5961.00,1.10
5960.00,1.09
5959.00,1.09
5958.00,1.08
5957.00,1.07
5956.00,1.07
5955.00,1.06
5954.00,1.06
5953.00,1.05
5952.00,1.05
5951.00,1.04
5950.00,1.04
5949.00,1.03
5948.00,1.03
5947.00,1.03
5946.00,1.02
5945.00,1.02
5944.00,1.02
5943.00,1.01
5942.00,1.01
5941.00,1.01
5940.00,1.01
5939.00,1.01
5938.00,1.01
5937.00,1.00
5936.00,1.00
5935.00,1.00
5934.00,1.00
5933.00,1.00
5932.00,1.00
5931.00,1.00
5930.00,1.00
5929.00,1.00
5928.00,1.00
5927.00,0.99
5926.00,0.99
5925.00,0.99
5924.00,0.99
5923.00,0.99
5922.00,0.99
5921.00,0.99
5920.00,0.98
5919.00,0.98
5918.00,0.98
5917.00,0.98
5916.00,0.97
5915.00,0.97
5914.00,0.97
5913.00,0.97
5912.00,0.97
5911.00,0.96
5910.00,0.96
5909.00,0.96
5908.00,0.96
5907.00,0.96
5906.00,0.95
5905.00,0.95
5904.00,0.95
5903.00,0.95
5902.00,0.95
5901.00,0.95
5900.00,0.95
5899.00,0.95
5898.00,0.95
5897.00,0.95
5896.00,0.96
5895.00,0.96
5894.00,0.96
5893.00,0.96
5892.00,0.96
5891.00,0.96
5890.00,0.97
5889.00,0.97
5888.00,0.97
5887.00,0.97
5886.00,0.98
5885.00,0.98
5884.00,0.98
5883.00,0.99
5882.00,0.99
5881.00,0.99
5880.00,0.99
5879.00,1.00
5878.00,1.00
5877.00,1.00
5876.00,1.00
5875.00,1.01
5874.00,1.01
5873.00,1.01
5872.00,1.01
5871.00,1.01
5870.00,1.02
5869.00,1.02
5868.00,1.02
5867.00,1.02
5866.00,1.02
5865.00,1.03
5864.00,1.03
5863.00,1.03
5862.00,1.03
5861.00,1.03
5860.00,1.03
5859.00,1.03
5858.00,1.04
5857.00,1.04
5856.00,1.04
5855.00,1.04
5854.00,1.04
5853.00,1.04
5852.00,1.04
5851.00,1.04
5850.00,1.04
5849.00,1.05
5848.00,1.05
5847.00,1.05
5846.00,1.05
5845.00,1.05
5844.00,1.05
5843.00,1.05
5842.00,1.05
5841.00,1.05
5840.00,1.05
5839.00,1.05
5838.00,1.05
5837.00,1.05
5836.00,1.05
5835.00,1.05
5834.00,1.05
5833.00,1.04
5832.00,1.04
5831.00,1.04
5830.00,1.04
5829.00,1.04
5828.00,1.04
5827.00,1.04
5826.00,1.04
5825.00,1.04
5824.00,1.04
5823.00,1.04
5822.00,1.04
5821.00,1.04
5820.00,1.04
5819.00,1.04
5818.00,1.04
5817.00,1.04
5816.00,1.04
5815.00,1.05
5814.00,1.05
5813.00,1.05
5812.00,1.05
5811.00,1.05
5810.00,1.05
5809.00,1.05
5808.00,1.05
5807.00,1.05
5806.00,1.05
5805.00,1.05
5804.00,1.05
5803.00,1.05
5802.00,1.04
5801.00,1.04
5800.00,1.04
5799.00,1.04
5798.00,1.04
5797.00,1.04
5796.00,1.04
5795.00,1.04
5794.00,1.03
5793.00,1.03
5792.00,1.03
5791.00,1.03
5790.00,1.03
5789.00,1.03
5788.00,1.02
5787.00,1.02
5786.00,1.02
5785.00,1.02
5784.00,1.02
5783.00,1.02
5782.00,1.01
5781.00,1.01
5780.00,1.01
5779.00,1.01
5778.00,1.01
5777.00,1.01
5776.00,1.01
5775.00,1.01
5774.00,1.01
5773.00,1.01
5772.00,1.01
5771.00,1.01
5770.00,1.01
5769.00,1.01
5768.00,1.01
5767.00,1.01
5766.00,1.01
5765.00,1.01
5764.00,1.01
5763.00,1.01
5762.00,1.02
5761.00,1.02
5760.00,1.02
5759.00,1.02
5758.00,1.02
5757.00,1.03
5756.00,1.03
5755.00,1.03
5754.00,1.04
5753.00,1.04
5752.00,1.04
5751.00,1.04
5750.00,1.05
5749.00,1.05
5748.00,1.05
5747.00,1.06
5746.00,1.06
5745.00,1.06
5744.00,1.07
5743.00,1.07
5742.00,1.07
5741.00,1.07
5740.00,1.08
5739.00,1.08
5738.00,1.08
5737.00,1.08
5736.00,1.08
5735.00,1.09
5734.00,1.09
5733.00,1.09
5732.00,1.09
5731.00,1.09
5730.00,1.09
5729.00,1.09
5728.00,1.09
5727.00,1.09
5726.00,1.09
5725.00,1.09
5724.00,1.09
5723.00,1.09
5722.00,1.09
5721.00,1.09
5720.00,1.09
5719.00,1.09
5718.00,1.09
5717.00,1.09
5716.00,1.09
5715.00,1.09
5714.00,1.09
5713.00,1.09
5712.00,1.09
5711.00,1.09
5710.00,1.09
5709.00,1.09
5708.00,1.10
5707.00,1.10
5706.00,1.10
5705.00,1.09
5704.00,1.09
5703.00,1.09
5702.00,1.09
5701.00,1.09
5700.00,1.09
5699.00,1.09
5698.00,1.09
5697.00,1.09
5696.00,1.09
5695.00,1.09
5694.00,1.09
5693.00,1.08
5692.00,1.08
5691.00,1.08
5690.00,1.08
5689.00,1.08
5688.00,1.08
5687.00,1.07
5686.00,1.07
5685.00,1.07
5684.00,1.07
5683.00,1.07
5682.00,1.07
5681.00,1.07
5680.00,1.07
5679.00,1.06
5678.00,1.06
5677.00,1.06
5676.00,1.06
5675.00,1.06
5674.00,1.06
5673.00,1.06
5672.00,1.06
5671.00,1.06
5670.00,1.06
5669.00,1.06
5668.00,1.07
5667.00,1.07
5666.00,1.07
5665.00,1.07
5664.00,1.07
5663.00,1.07
5662.00,1.07
5661.00,1.07
5660.00,1.07
5659.00,1.07
5658.00,1.08
5657.00,1.08
5656.00,1.08
5655.00,1.08
5654.00,1.08
5653.00,1.08
5652.00,1.09
5651.00,1.09
5650.00,1.09
5649.00,1.09
5648.00,1.09
5647.00,1.09
5646.00,1.10
5645.00,1.10
5644.00,1.10
5643.00,1.10
5642.00,1.10
5641.00,1.10
5640.00,1.11
5639.00,1.11
5638.00,1.11
5637.00,1.11
5636.00,1.11
5635.00,1.11
5634.00,1.11
5633.00,1.12
5632.00,1.12
5631.00,1.12
5630.00,1.12
5629.00,1.12
5628.00,1.12
5627.00,1.12
5626.00,1.13
5625.00,1.13
5624.00,1.13
5623.00,1.13
5622.00,1.13
5621.00,1.13
5620.00,1.13
5619.00,1.13
5618.00,1.13
5617.00,1.13
5616.00,1.13
5615.00,1.14
5614.00,1.14
5613.00,1.14
5612.00,1.14
5611.00,1.14
5610.00,1.14
5609.00,1.14
5608.00,1.14
5607.00,1.14
5606.00,1.14
5605.00,1.15
5604.00,1.15
5603.00,1.15
5602.00,1.15
5601.00,1.15
5600.00,1.15
5599.00,1.16
5598.00,1.16
5597.00,1.16
5596.00,1.16
5595.00,1.16
5594.00,1.16
5593.00,1.17
5592.00,1.17
5591.00,1.17
5590.00,1.17
5589.00,1.17
5588.00,1.18
5587.00,1.18
5586.00,1.18
5585.00,1.18
5584.00,1.18
5583.00,1.19
5582.00,1.19
5581.00,1.19
5580.00,1.19
5579.00,1.19
5578.00,1.19
5577.00,1.19
5576.00,1.20
5575.00,1.20
5574.00,1.20
5573.00,1.20
5572.00,1.20
5571.00,1.20
5570.00,1.20
5569.00,1.21
5568.00,1.21
5567.00,1.21
5566.00,1.21
5565.00,1.21
5564.00,1.21
5563.00,1.21
5562.00,1.21
5561.00,1.21
5560.00,1.22
5559.00,1.22
5558.00,1.22
5557.00,1.22
5556.00,1.22
5555.00,1.22
5554.00,1.22
5553.00,1.22
5552.00,1.23
5551.00,1.23
5550.00,1.23
5549.00,1.23
5548.00,1.23
5547.00,1.23
5546.00,1.23
5545.00,1.23
5544.00,1.23
5543.00,1.24
5542.00,1.24
5541.00,1.24
5540.00,1.24
5539.00,1.24
5538.00,1.24
5537.00,1.24
5536.00,1.24
5535.00,1.24
5534.00,1.24
5533.00,1.24
5532.00,1.24
5531.00,1.25
5530.00,1.25
5529.00,1.25
5528.00,1.25
5527.00,1.25
5526.00,1.25
5525.00,1.25
5524.00,1.25
5523.00,1.25
5522.00,1.25
5521.00,1.26
5520.00,1.26
5519.00,1.26
5518.00,1.26
5517.00,1.26
5516.00,1.26
5515.00,1.26
5514.00,1.26
5513.00,1.26
5512.00,1.26
5511.00,1.26
5510.00,1.27
5509.00,1.27
5508.00,1.27
5507.00,1.27
5506.00,1.27
5505.00,1.27
5504.00,1.27
5503.00,1.27
5502.00,1.27
5501.00,1.27
5500.00,1.27
5499.00,1.27
5498.00,1.27
5497.00,1.27
5496.00,1.27
5495.00,1.27
5494.00,1.27
5493.00,1.27
5492.00,1.27
5491.00,1.27
5490.00,1.27
5489.00,1.28
5488.00,1.28
5487.00,1.28
5486.00,1.28
5485.00,1.28
5484.00,1.28
5483.00,1.28
5482.00,1.29
5481.00,1.29
5480.00,1.29
5479.00,1.29
5478.00,1.29
5477.00,1.29
5476.00,1.29
5475.00,1.29
5474.00,1.30
5473.00,1.30
5472.00,1.30
5471.00,1.30
5470.00,1.30
5469.00,1.30
5468.00,1.30
5467.00,1.30
5466.00,1.30
5465.00,1.30
5464.00,1.31
5463.00,1.31
5462.00,1.31
5461.00,1.31
5460.00,1.31
5459.00,1.31
5458.00,1.31
5457.00,1.31
5456.00,1.31
5455.00,1.31
5454.00,1.31
5453.00,1.31
5452.00,1.32
5451.00,1.32
5450.00,1.32
5449.00,1.32
5448.00,1.32
5447.00,1.32
5446.00,1.32
5445.00,1.31
5444.00,1.31
5443.00,1.31
5442.00,1.31
5441.00,1.31
5440.00,1.31
5439.00,1.31
5438.00,1.31
5437.00,1.31
5436.00,1.31
5435.00,1.31
5434.00,1.31
5433.00,1.31
5432.00,1.32
5431.00,1.32
5430.00,1.32
5429.00,1.32
5428.00,1.32
5427.00,1.32
5426.00,1.32
5425.00,1.32
5424.00,1.32
5423.00,1.32
5422.00,1.32
5421.00,1.32
5420.00,1.32
5419.00,1.32
5418.00,1.32
5417.00,1.32
5416.00,1.32
5415.00,1.32
5414.00,1.32
5413.00,1.32
5412.00,1.32
5411.00,1.32
5410.00,1.32
5409.00,1.32
5408.00,1.32
5407.00,1.32
5406.00,1.32
5405.00,1.32
5404.00,1.32
5403.00,1.31
5402.00,1.31
5401.00,1.31
5400.00,1.31
5399.00,1.31
5398.00,1.31
5397.00,1.31
5396.00,1.31
5395.00,1.31
5394.00,1.30
5393.00,1.30
5392.00,1.30
5391.00,1.30
5390.00,1.30
5389.00,1.29
5388.00,1.29
5387.00,1.29
5386.00,1.29
5385.00,1.29
5384.00,1.28
5383.00,1.28
5382.00,1.28
5381.00,1.28
5380.00,1.27
5379.00,1.27
5378.00,1.27
5377.00,1.26
5376.00,1.26
5375.00,1.26
5374.00,1.25
5373.00,1.25
5372.00,1.24
5371.00,1.24
5370.00,1.24
5369.00,1.23
5368.00,1.23
5367.00,1.22
5366.00,1.22
5365.00,1.21
5364.00,1.21
5363.00,1.20
5362.00,1.20
5361.00,1.19
5360.00,1.18
5359.00,1.18
5358.00,1.17
5357.00,1.16
5356.00,1.16
5355.00,1.15
5354.00,1.14
5353.00,1.14
5352.00,1.13
5351.00,1.12
5350.00,1.11
5349.00,1.10
5348.00,1.10
5347.00,1.09
5346.00,1.08
5345.00,1.07
5344.00,1.06
5343.00,1.05
5342.00,1.05
5341.00,1.04
5340.00,1.03
5339.00,1.02
5338.00,1.01
5337.00,1.00
5336.00,0.99
5335.00,0.99
5334.00,0.98
5333.00,0.97
5332.00,0.96
5331.00,0.95
5330.00,0.94
5329.00,0.93
5328.00,0.93
5327.00,0.92
5326.00,0.91
5325.00,0.90
5324.00,0.89
5323.00,0.88
5322.00,0.88
5321.00,0.87
5320.00,0.86
5319.00,0.86
5318.00,0.85
5317.00,0.84
5316.00,0.84
5315.00,0.83
5314.00,0.82
5313.00,0.82
5312.00,0.81
5311.00,0.81
5310.00,0.80
5309.00,0.80
5308.00,0.79
5307.00,0.79
5306.00,0.78
5305.00,0.78
5304.00,0.77
5303.00,0.77
5302.00,0.77
5301.00,0.76
5300.00,0.76
5299.00,0.76
5298.00,0.75
5297.00,0.75
5296.00,0.75
5295.00,0.74
5294.00,0.74
5293.00,0.74
5292.00,0.74
5291.00,0.74
5290.00,0.73
5289.00,0.73
5288.00,0.73
5287.00,0.73
5286.00,0.73
5285.00,0.73
5284.00,0.72
5283.00,0.72
5282.00,0.72
5281.00,0.72
5280.00,0.72
5279.00,0.72
5278.00,0.72
5277.00,0.72
5276.00,0.72
5275.00,0.72
5274.00,0.72
5273.00,0.72
5272.00,0.72
5271.00,0.72
5270.00,0.72
5269.00,0.72
5268.00,0.72
5267.00,0.71
5266.00,0.71
5265.00,0.71
5264.00,0.71
5263.00,0.71
5262.00,0.71
5261.00,0.71
5260.00,0.71
5259.00,0.71
5258.00,0.71
5257.00,0.71
5256.00,0.71
5255.00,0.71
5254.00,0.71
5253.00,0.72
5252.00,0.72
5251.00,0.72
5250.00,0.72
5249.00,0.72
5248.00,0.72
5247.00,0.72
5246.00,0.72
5245.00,0.72
5244.00,0.72
5243.00,0.72
5242.00,0.72
5241.00,0.72
5240.00,0.72
5239.00,0.72
5238.00,0.72
5237.00,0.72
5236.00,0.72
5235.00,0.72
5234.00,0.72
5233.00,0.71
5232.00,0.71
5231.00,0.71
5230.00,0.71
5229.00,0.72
5228.00,0.72
5227.00,0.72
5226.00,0.72
5225.00,0.72
5224.00,0.72
5223.00,0.72
5222.00,0.72
5221.00,0.72
5220.00,0.72
5219.00,0.72
5218.00,0.72
5217.00,0.72
5216.00,0.72
5215.00,0.72
5214.00,0.73
5213.00,0.73
5212.00,0.73
5211.00,0.73
5210.00,0.73
5209.00,0.73
5208.00,0.73
5207.00,0.73
5206.00,0.73
5205.00,0.73
5204.00,0.73
5203.00,0.73
5202.00,0.73
5201.00,0.73
5200.00,0.73
5199.00,0.73
5198.00,0.73
5197.00,0.73
5196.00,0.73
5195.00,0.73
5194.00,0.73
5193.00,0.73
5192.00,0.73
5191.00,0.73
5190.00,0.73
5189.00,0.73
5188.00,0.73
5187.00,0.73
5186.00,0.73
5185.00,0.73
5184.00,0.73
5183.00,0.73
5182.00,0.74
5181.00,0.74
5180.00,0.74
5179.00,0.74
5178.00,0.74
5177.00,0.74
5176.00,0.74
5175.00,0.74
5174.00,0.74
5173.00,0.74
5172.00,0.74
5171.00,0.74
5170.00,0.74
5169.00,0.74
5168.00,0.74
5167.00,0.74
5166.00,0.74
5165.00,0.74
5164.00,0.74
5163.00,0.74
5162.00,0.74
5161.00,0.74
5160.00,0.74
5159.00,0.74
5158.00,0.74
5157.00,0.74
5156.00,0.74
5155.00,0.74
5154.00,0.74
5153.00,0.74
5152.00,0.74
5151.00,0.74
5150.00,0.74
5149.00,0.74
5148.00,0.74
5147.00,0.74
5146.00,0.74
5145.00,0.74
5144.00,0.74
5143.00,0.74
5142.00,0.74
5141.00,0.74
5140.00,0.74
5139.00,0.75
5138.00,0.75
5137.00,0.75
5136.00,0.75
5135.00,0.75
5134.00,0.75
5133.00,0.75
5132.00,0.75
5131.00,0.75
5130.00,0.75
5129.00,0.75
5128.00,0.75
5127.00,0.75
5126.00,0.75
5125.00,0.75
5124.00,0.75
5123.00,0.75
5122.00,0.75
5121.00,0.75
5120.00,0.75
5119.00,0.75
5118.00,0.76
5117.00,0.76
5116.00,0.76
5115.00,0.76
5114.00,0.76
5113.00,0.76
5112.00,0.76
5111.00,0.76
5110.00,0.76
5109.00,0.76
5108.00,0.76
5107.00,0.76
5106.00,0.76
5105.00,0.76
5104.00,0.76
5103.00,0.77
5102.00,0.77
5101.00,0.77
5100.00,0.77
5099.00,0.77
5098.00,0.77
5097.00,0.77
5096.00,0.77
5095.00,0.77
5094.00,0.77
5093.00,0.77
5092.00,0.77
5091.00,0.77
5090.00,0.77
5089.00,0.77
5088.00,0.77
5087.00,0.77
5086.00,0.77
5085.00,0.77
5084.00,0.77
5083.00,0.77
5082.00,0.77
5081.00,0.77
5080.00,0.77
5079.00,0.77
5078.00,0.77
5077.00,0.77
5076.00,0.78
5075.00,0.78
5074.00,0.78
5073.00,0.78
5072.00,0.78
5071.00,0.78
5070.00,0.78
5069.00,0.78
5068.00,0.78
5067.00,0.78
5066.00,0.78
5065.00,0.78
5064.00,0.78
5063.00,0.78
5062.00,0.79
5061.00,0.79
5060.00,0.79
5059.00,0.79
5058.00,0.79
5057.00,0.79
5056.00,0.79
5055.00,0.79
5054.00,0.79
5053.00,0.79
5052.00,0.79
5051.00,0.79
5050.00,0.79
5049.00,0.79
5048.00,0.79
5047.00,0.79
5046.00,0.79
5045.00,0.80
5044.00,0.80
5043.00,0.80
5042.00,0.80
5041.00,0.80
5040.00,0.80
5039.00,0.80
5038.00,0.80
5037.00,0.80
5036.00,0.80
5035.00,0.80
5034.00,0.80
5033.00,0.80
5032.00,0.80
5031.00,0.80
5030.00,0.80
5029.00,0.80
5028.00,0.80
5027.00,0.81
5026.00,0.81
5025.00,0.81
5024.00,0.81
5023.00,0.81
5022.00,0.81
5021.00,0.81
5020.00,0.81
5019.00,0.81
5018.00,0.81
5017.00,0.81
5016.00,0.81
5015.00,0.81
5014.00,0.81
5013.00,0.81
5012.00,0.81
5011.00,0.81
5010.00,0.81
5009.00,0.81
5008.00,0.81
5007.00,0.82
5006.00,0.82
5005.00,0.82
5004.00,0.82
5003.00,0.82
5002.00,0.82
5001.00,0.82
5000.00,0.82
4999.00,0.82
4998.00,0.82
4997.00,0.82
4996.00,0.82
4995.00,0.83
4994.00,0.83
4993.00,0.83
4992.00,0.83
4991.00,0.83
4990.00,0.83
4989.00,0.83
4988.00,0.83
4987.00,0.83
4986.00,0.83
4985.00,0.83
4984.00,0.83
4983.00,0.83
4982.00,0.83
4981.00,0.83
4980.00,0.83
4979.00,0.83
4978.00,0.83
4977.00,0.83
4976.00,0.83
4975.00,0.83
4974.00,0.84
4973.00,0.84
4972.00,0.84
4971.00,0.84
4970.00,0.84
4969.00,0.84
4968.00,0.84
4967.00,0.84
4966.00,0.84
4965.00,0.84
4964.00,0.84
4963.00,0.85
4962.00,0.85
4961.00,0.85
4960.00,0.85
4959.00,0.85
4958.00,0.85
4957.00,0.85
4956.00,0.85
4955.00,0.85
4954.00,0.85
4953.00,0.85
4952.00,0.85
4951.00,0.85
4950.00,0.85
4949.00,0.85
4948.00,0.85
4947.00,0.85
4946.00,0.86
4945.00,0.86
4944.00,0.86
4943.00,0.86
4942.00,0.86
4941.00,0.86
4940.00,0.86
4939.00,0.86
4938.00,0.86
4937.00,0.86
4936.00,0.86
4935.00,0.86
4934.00,0.86
4933.00,0.86
4932.00,0.86
4931.00,0.86
4930.00,0.86
4929.00,0.86
4928.00,0.86
4927.00,0.86
4926.00,0.86
4925.00,0.86
4924.00,0.86
4923.00,0.86
4922.00,0.86
4921.00,0.86
4920.00,0.87
4919.00,0.87
4918.00,0.87
4917.00,0.87
4916.00,0.87
4915.00,0.87
4914.00,0.87
4913.00,0.87
4912.00,0.87
4911.00,0.88
4910.00,0.88
4909.00,0.88
4908.00,0.88
4907.00,0.88
4906.00,0.88
4905.00,0.88
4904.00,0.88
4903.00,0.88
4902.00,0.88
4901.00,0.88
4900.00,0.89
4899.00,0.89
4898.00,0.89
4897.00,0.89
4896.00,0.89
4895.00,0.89
4894.00,0.89
4893.00,0.89
4892.00,0.89
4891.00,0.89
4890.00,0.89
4889.00,0.89
4888.00,0.89
4887.00,0.89
4886.00,0.89
4885.00,0.89
4884.00,0.89
4883.00,0.89
4882.00,0.89
4881.00,0.89
4880.00,0.89
4879.00,0.89
4878.00,0.89
4877.00,0.89
4876.00,0.89
4875.00,0.89
4874.00,0.89
4873.00,0.89
4872.00,0.89
4871.00,0.89
4870.00,0.89
4869.00,0.89
4868.00,0.89
4867.00,0.89
4866.00,0.90
4865.00,0.90
4864.00,0.90
4863.00,0.90
4862.00,0.90
4861.00,0.90
4860.00,0.90
4859.00,0.90
4858.00,0.90
4857.00,0.90
4856.00,0.91
4855.00,0.91
4854.00,0.91
4853.00,0.91
4852.00,0.91
4851.00,0.91
4850.00,0.91
4849.00,0.91
4848.00,0.91
4847.00,0.91
4846.00,0.91
4845.00,0.91
4844.00,0.91
4843.00,0.91
4842.00,0.91
4841.00,0.91
4840.00,0.91
4839.00,0.91
4838.00,0.91
4837.00,0.91
4836.00,0.91
4835.00,0.92
4834.00,0.92
4833.00,0.92
4832.00,0.92
4831.00,0.92
4830.00,0.92
4829.00,0.92
4828.00,0.92
4827.00,0.93
4826.00,0.93
4825.00,0.93
4824.00,0.93
4823.00,0.93
4822.00,0.93
4821.00,0.93
4820.00,0.93
4819.00,0.93
4818.00,0.93
4817.00,0.93
4816.00,0.93
4815.00,0.93
4814.00,0.93
4813.00,0.93
4812.00,0.93
4811.00,0.94
4810.00,0.94
4809.00,0.94
4808.00,0.94
4807.00,0.94
4806.00,0.94
4805.00,0.94
4804.00,0.94
4803.00,0.94
4802.00,0.94
4801.00,0.94
4800.00,0.94
4799.00,0.94
4798.00,0.94
4797.00,0.94
4796.00,0.94
4795.00,0.94
4794.00,0.94
4793.00,0.94
4792.00,0.94
4791.00,0.95
4790.00,0.95
4789.00,0.95
4788.00,0.95
4787.00,0.95
4786.00,0.95
4785.00,0.95
4784.00,0.95
4783.00,0.95
4782.00,0.96
4781.00,0.96
4780.00,0.96
4779.00,0.96
4778.00,0.96
4777.00,0.96
4776.00,0.96
4775.00,0.96
4774.00,0.97
4773.00,0.97
4772.00,0.97
4771.00,0.97
4770.00,0.97
4769.00,0.97
4768.00,0.97
4767.00,0.97
4766.00,0.97
4765.00,0.97
4764.00,0.97
4763.00,0.97
4762.00,0.97
4761.00,0.98
4760.00,0.98
4759.00,0.98
4758.00,0.98
4757.00,0.98
4756.00,0.98
4755.00,0.98
4754.00,0.98
4753.00,0.98
4752.00,0.98
4751.00,0.98
4750.00,0.98
4749.00,0.99
4748.00,0.99
4747.00,0.99
4746.00,0.99
4745.00,0.99
4744.00,0.99
4743.00,1.00
4742.00,1.00
4741.00,1.00
4740.00,1.00
4739.00,1.00
4738.00,1.00
4737.00,1.00
4736.00,1.00
4735.00,1.00
4734.00,1.01
4733.00,1.01
4732.00,1.01
4731.00,1.01
4730.00,1.01
4729.00,1.01
4728.00,1.01
4727.00,1.01
4726.00,1.02
4725.00,1.02
4724.00,1.02
4723.00,1.02
4722.00,1.02
4721.00,1.02
4720.00,1.03
4719.00,1.03
4718.00,1.03
4717.00,1.03
4716.00,1.03
4715.00,1.03
4714.00,1.03
4713.00,1.04
4712.00,1.04
4711.00,1.04
4710.00,1.04
4709.00,1.04
4708.00,1.04
4707.00,1.04
4706.00,1.04
4705.00,1.04
4704.00,1.05
4703.00,1.05
4702.00,1.05
4701.00,1.05
4700.00,1.05
4699.00,1.05
4698.00,1.05
4697.00,1.05
4696.00,1.05
4695.00,1.05
4694.00,1.05
4693.00,1.06
4692.00,1.06
4691.00,1.06
4690.00,1.06
4689.00,1.06
4688.00,1.06
4687.00,1.06
4686.00,1.06
4685.00,1.06
4684.00,1.07
4683.00,1.07
4682.00,1.07
4681.00,1.07
4680.00,1.07
4679.00,1.07
4678.00,1.07
4677.00,1.08
4676.00,1.08
4675.00,1.08
4674.00,1.08
4673.00,1.08
4672.00,1.08
4671.00,1.08
4670.00,1.08
4669.00,1.08
4668.00,1.08
4667.00,1.08
4666.00,1.08
4665.00,1.09
4664.00,1.09
4663.00,1.09
4662.00,1.09
4661.00,1.09
4660.00,1.09
4659.00,1.09
4658.00,1.09
4657.00,1.10
4656.00,1.10
4655.00,1.10
4654.00,1.10
4653.00,1.10
4652.00,1.10
4651.00,1.10
4650.00,1.10
4649.00,1.11
4648.00,1.11
4647.00,1.11
4646.00,1.11
4645.00,1.11
4644.00,1.11
4643.00,1.11
4642.00,1.11
4641.00,1.11
4640.00,1.12
4639.00,1.12
4638.00,1.12
4637.00,1.12
4636.00,1.12
4635.00,1.12
4634.00,1.12
4633.00,1.12
4632.00,1.12
4631.00,1.12
4630.00,1.13
4629.00,1.13
4628.00,1.13
4627.00,1.13
4626.00,1.13
4625.00,1.13
4624.00,1.13
4623.00,1.13
4622.00,1.13
4621.00,1.13
4620.00,1.13
4619.00,1.13
4618.00,1.13
4617.00,1.13
4616.00,1.13
4615.00,1.13
4614.00,1.13
4613.00,1.13
4612.00,1.13
4611.00,1.13
4610.00,1.13
4609.00,1.13
4608.00,1.14
4607.00,1.14
4606.00,1.14
4605.00,1.14
4604.00,1.14
4603.00,1.14
4602.00,1.14
4601.00,1.14
4600.00,1.14
4599.00,1.14
4598.00,1.14
4597.00,1.14
4596.00,1.14
4595.00,1.14
4594.00,1.14
4593.00,1.14
4592.00,1.15
4591.00,1.15
4590.00,1.15
4589.00,1.15
4588.00,1.15
4587.00,1.15
4586.00,1.15
4585.00,1.15
4584.00,1.15
4583.00,1.15
4582.00,1.15
4581.00,1.15
4580.00,1.15
4579.00,1.15
4578.00,1.15
4577.00,1.15
4576.00,1.15
4575.00,1.15
4574.00,1.16
4573.00,1.16
4572.00,1.16
4571.00,1.16
4570.00,1.16
4569.00,1.16
4568.00,1.16
4567.00,1.16
4566.00,1.16
4565.00,1.16
4564.00,1.16
4563.00,1.16
4562.00,1.16
4561.00,1.16
4560.00,1.16
4559.00,1.16
4558.00,1.17
4557.00,1.17
4556.00,1.17
4555.00,1.17
4554.00,1.17
4553.00,1.17
4552.00,1.17
4551.00,1.17
4550.00,1.17
4549.00,1.17
4548.00,1.18
4547.00,1.18
4546.00,1.18
4545.00,1.18
4544.00,1.18
4543.00,1.18
4542.00,1.18
4541.00,1.18
4540.00,1.19
4539.00,1.19
4538.00,1.19
4537.00,1.19
4536.00,1.19
4535.00,1.19
4534.00,1.19
4533.00,1.19
4532.00,1.19
4531.00,1.19
4530.00,1.19
4529.00,1.19
4528.00,1.19
4527.00,1.19
4526.00,1.19
4525.00,1.19
4524.00,1.19
4523.00,1.19
4522.00,1.19
4521.00,1.20
4520.00,1.20
4519.00,1.20
4518.00,1.20
4517.00,1.20
4516.00,1.20
4515.00,1.20
4514.00,1.20
4513.00,1.20
4512.00,1.20
4511.00,1.20
4510.00,1.20
4509.00,1.20
4508.00,1.20
4507.00,1.20
4506.00,1.20
4505.00,1.20
4504.00,1.20
4503.00,1.20
4502.00,1.20
4501.00,1.20
4500.00,1.20
4499.00,1.19
4498.00,1.19
4497.00,1.19
4496.00,1.19
4495.00,1.19
4494.00,1.19
4493.00,1.19
4492.00,1.19
4491.00,1.18
4490.00,1.18
4489.00,1.18
4488.00,1.18
4487.00,1.18
4486.00,1.18
4485.00,1.18
4484.00,1.18
4483.00,1.18
4482.00,1.18
4481.00,1.18
4480.00,1.18
4479.00,1.18
4478.00,1.18
4477.00,1.18
4476.00,1.18
4475.00,1.18
4474.00,1.18
4473.00,1.18
4472.00,1.17
4471.00,1.17
4470.00,1.17
4469.00,1.17
4468.00,1.17
4467.00,1.17
4466.00,1.17
4465.00,1.17
4464.00,1.16
4463.00,1.16
4462.00,1.16
4461.00,1.16
4460.00,1.15
4459.00,1.15
4458.00,1.15
4457.00,1.14
4456.00,1.14
4455.00,1.14
4454.00,1.14
4453.00,1.13
4452.00,1.13
4451.00,1.13
4450.00,1.12
4449.00,1.12
4448.00,1.12
4447.00,1.12
4446.00,1.11
4445.00,1.11
4444.00,1.11
4443.00,1.11
4442.00,1.10
4441.00,1.10
4440.00,1.10
4439.00,1.10
4438.00,1.10
4437.00,1.10
4436.00,1.09
4435.00,1.09
4434.00,1.09
4433.00,1.09
4432.00,1.09
4431.00,1.09
4430.00,1.09
4429.00,1.09
4428.00,1.08
4427.00,1.08
4426.00,1.08
4425.00,1.08
4424.00,1.08
4423.00,1.08
4422.00,1.08
4421.00,1.08
4420.00,1.08
4419.00,1.08
4418.00,1.08
4417.00,1.08
4416.00,1.08
4415.00,1.08
4414.00,1.08
4413.00,1.08
4412.00,1.08
4411.00,1.08
4410.00,1.08
4409.00,1.08
4408.00,1.08
4407.00,1.08
4406.00,1.08
4405.00,1.08
4404.00,1.08
4403.00,1.08
4402.00,1.08
4401.00,1.08
4400.00,1.08
4399.00,1.08
4398.00,1.08
4397.00,1.08
4396.00,1.08
4395.00,1.09
4394.00,1.09
4393.00,1.09
4392.00,1.09
4391.00,1.09
4390.00,1.09
4389.00,1.09
4388.00,1.09
4387.00,1.09
4386.00,1.09
4385.00,1.10
4384.00,1.10
4383.00,1.10
4382.00,1.10
4381.00,1.10
4380.00,1.10
4379.00,1.10
4378.00,1.10
4377.00,1.10
4376.00,1.10
4375.00,1.10
4374.00,1.10
4373.00,1.10
4372.00,1.10
4371.00,1.10
4370.00,1.10
4369.00,1.10
4368.00,1.10
4367.00,1.10
4366.00,1.10
4365.00,1.10
4364.00,1.10
4363.00,1.10
4362.00,1.10
4361.00,1.10
4360.00,1.10
4359.00,1.10
4358.00,1.11
4357.00,1.11
4356.00,1.11
4355.00,1.11
4354.00,1.11
4353.00,1.11
4352.00,1.11
4351.00,1.11
4350.00,1.11
4349.00,1.11
4348.00,1.11
4347.00,1.11
4346.00,1.11
4345.00,1.12
4344.00,1.12
4343.00,1.12
4342.00,1.12
4341.00,1.12
4340.00,1.12
4339.00,1.12
4338.00,1.12
4337.00,1.12
4336.00,1.12
4335.00,1.13
4334.00,1.13
4333.00,1.13
4332.00,1.13
4331.00,1.13
4330.00,1.13
4329.00,1.13
4328.00,1.13
4327.00,1.13
4326.00,1.13
4325.00,1.14
4324.00,1.14
4323.00,1.14
4322.00,1.14
4321.00,1.14
4320.00,1.14
4319.00,1.14
4318.00,1.14
4317.00,1.14
4316.00,1.14
4315.00,1.14
4314.00,1.15
4313.00,1.15
4312.00,1.15
4311.00,1.15
4310.00,1.15
4309.00,1.15
4308.00,1.15
4307.00,1.15
4306.00,1.15
4305.00,1.15
4304.00,1.15
4303.00,1.15
4302.00,1.15
4301.00,1.15
4300.00,1.15
4299.00,1.16
4298.00,1.16
4297.00,1.16
4296.00,1.16
4295.00,1.16
4294.00,1.16
4293.00,1.16
4292.00,1.16
4291.00,1.16
4290.00,1.17
4289.00,1.17
4288.00,1.17
4287.00,1.17
4286.00,1.17
4285.00,1.17
4284.00,1.17
4283.00,1.17
4282.00,1.17
4281.00,1.17
4280.00,1.17
4279.00,1.17
4278.00,1.17
4277.00,1.17
4276.00,1.17
4275.00,1.17
4274.00,1.17
4273.00,1.17
4272.00,1.17
4271.00,1.17
4270.00,1.17
4269.00,1.17
4268.00,1.17
4267.00,1.17
4266.00,1.17
4265.00,1.17
4264.00,1.17
4263.00,1.17
4262.00,1.17
4261.00,1.17
4260.00,1.17
4259.00,1.17
4258.00,1.17
4257.00,1.18
4256.00,1.18
4255.00,1.18
4254.00,1.18
4253.00,1.18
4252.00,1.18
4251.00,1.18
4250.00,1.18
4249.00,1.17
4248.00,1.17
4247.00,1.18
4246.00,1.18
4245.00,1.18
4244.00,1.18
4243.00,1.18
4242.00,1.18
4241.00,1.18
4240.00,1.18
4239.00,1.18
4238.00,1.18
4237.00,1.19
4236.00,1.19
4235.00,1.19
4234.00,1.19
4233.00,1.19
4232.00,1.19
4231.00,1.19
4230.00,1.19
4229.00,1.20
4228.00,1.20
4227.00,1.20
4226.00,1.20
4225.00,1.20
4224.00,1.20
4223.00,1.20
4222.00,1.20
4221.00,1.20
4220.00,1.20
4219.00,1.20
4218.00,1.20
4217.00,1.20
4216.00,1.20
4215.00,1.21
4214.00,1.21
4213.00,1.21
4212.00,1.21
4211.00,1.21
4210.00,1.21
4209.00,1.21
4208.00,1.21
4207.00,1.21
4206.00,1.21
4205.00,1.21
4204.00,1.21
4203.00,1.22
4202.00,1.22
4201.00,1.22
4200.00,1.22
4199.00,1.22
4198.00,1.22
4197.00,1.22
4196.00,1.22
4195.00,1.22
4194.00,1.22
4193.00,1.22
4192.00,1.22
4191.00,1.22
4190.00,1.22
4189.00,1.22
4188.00,1.22
4187.00,1.22
4186.00,1.22
4185.00,1.22
4184.00,1.22
4183.00,1.22
4182.00,1.22
4181.00,1.22
4180.00,1.22
4179.00,1.22
4178.00,1.22
4177.00,1.22
4176.00,1.23
4175.00,1.23
4174.00,1.23
4173.00,1.23
4172.00,1.23
4171.00,1.23
4170.00,1.23
4169.00,1.23
4168.00,1.23
4167.00,1.23
4166.00,1.23
4165.00,1.23
4164.00,1.23
4163.00,1.23
4162.00,1.23
4161.00,1.23
4160.00,1.23
4159.00,1.23
4158.00,1.23
4157.00,1.23
4156.00,1.23
4155.00,1.23
4154.00,1.23
4153.00,1.23
4152.00,1.23
4151.00,1.24
4150.00,1.24
4149.00,1.24
4148.00,1.24
4147.00,1.24
4146.00,1.24
4145.00,1.24
4144.00,1.25
4143.00,1.25
4142.00,1.25
4141.00,1.25
4140.00,1.25
4139.00,1.25
4138.00,1.25
4137.00,1.25
4136.00,1.25
4135.00,1.25
4134.00,1.25
4133.00,1.25
4132.00,1.25
4131.00,1.25
4130.00,1.25
4129.00,1.25
4128.00,1.25
4127.00,1.25
4126.00,1.25
4125.00,1.25
4124.00,1.25
4123.00,1.25
4122.00,1.25
4121.00,1.26
4120.00,1.26
4119.00,1.26
4118.00,1.26
4117.00,1.26
4116.00,1.27
4115.00,1.27
4114.00,1.27
4113.00,1.27
4112.00,1.27
4111.00,1.27
4110.00,1.27
4109.00,1.27
4108.00,1.27
4107.00,1.27
4106.00,1.27
4105.00,1.27
4104.00,1.27
4103.00,1.27
4102.00,1.27
4101.00,1.27
4100.00,1.27
4099.00,1.27
4098.00,1.27
4097.00,1.27
4096.00,1.27
4095.00,1.27
4094.00,1.27
4093.00,1.27
4092.00,1.27
4091.00,1.27
4090.00,1.27
4089.00,1.27
4088.00,1.26
4087.00,1.26
4086.00,1.26
4085.00,1.26
4084.00,1.26
4083.00,1.26
4082.00,1.26
4081.00,1.26
4080.00,1.26
4079.00,1.26
4078.00,1.26
4077.00,1.26
4076.00,1.27
4075.00,1.27
4074.00,1.27
4073.00,1.27
4072.00,1.27
4071.00,1.28
4070.00,1.28
4069.00,1.28
4068.00,1.28
4067.00,1.28
4066.00,1.29
4065.00,1.29
4064.00,1.29
4063.00,1.29
4062.00,1.29
4061.00,1.29
4060.00,1.29
4059.00,1.30
4058.00,1.30
4057.00,1.30
4056.00,1.30
4055.00,1.30
4054.00,1.30
4053.00,1.30
4052.00,1.30
4051.00,1.30
4050.00,1.30
4049.00,1.30
4048.00,1.30
4047.00,1.30
4046.00,1.30
4045.00,1.30
4044.00,1.30
4043.00,1.30
4042.00,1.30
4041.00,1.31
4040.00,1.31
4039.00,1.31
4038.00,1.31
4037.00,1.31
4036.00,1.31
4035.00,1.31
4034.00,1.30
4033.00,1.30
4032.00,1.30
4031.00,1.30
4030.00,1.30
4029.00,1.30
4028.00,1.30
4027.00,1.30
4026.00,1.30
4025.00,1.30
4024.00,1.30
4023.00,1.30
4022.00,1.30
4021.00,1.30
4020.00,1.30
4019.00,1.30
4018.00,1.30
4017.00,1.30
4016.00,1.30
4015.00,1.30
4014.00,1.30
4013.00,1.30
4012.00,1.30
4011.00,1.30
4010.00,1.31
4009.00,1.31
4008.00,1.31
4007.00,1.31
4006.00,1.31
4005.00,1.31
4004.00,1.31
4003.00,1.32
4002.00,1.32
4001.00,1.32
4000.00,1.32
