创建为新数据集,样品 234 用户 Administrator 日期 星期六, 七月 21 2018
cm-1,%T
10000.00,1.07
9999.00,1.07
9998.00,1.07
9997.00,1.07
9996.00,1.07
9995.00,1.06
9994.00,1.06
9993.00,1.06
9992.00,1.06
9991.00,1.05
9990.00,1.05
9989.00,1.05
9988.00,1.05
9987.00,1.05
9986.00,1.04
9985.00,1.04
9984.00,1.04
9983.00,1.04
9982.00,1.04
9981.00,1.04
9980.00,1.04
9979.00,1.03
9978.00,1.03
9977.00,1.03
9976.00,1.03
9975.00,1.03
9974.00,1.03
9973.00,1.03
9972.00,1.03
9971.00,1.03
9970.00,1.03
9969.00,1.03
9968.00,1.03
9967.00,1.03
9966.00,1.04
9965.00,1.04
9964.00,1.04
9963.00,1.05
9962.00,1.05
9961.00,1.05
9960.00,1.05
9959.00,1.06
9958.00,1.06
9957.00,1.06
9956.00,1.06
9955.00,1.06
9954.00,1.06
9953.00,1.06
9952.00,1.06
9951.00,1.06
9950.00,1.06
9949.00,1.06
9948.00,1.06
9947.00,1.06
9946.00,1.06
9945.00,1.06
9944.00,1.05
9943.00,1.05
9942.00,1.05
9941.00,1.05
9940.00,1.05
9939.00,1.05
9938.00,1.04
9937.00,1.04
9936.00,1.04
9935.00,1.04
9934.00,1.04
9933.00,1.04
9932.00,1.04
9931.00,1.04
9930.00,1.04
9929.00,1.04
9928.00,1.05
9927.00,1.05
9926.00,1.05
9925.00,1.05
9924.00,1.05
9923.00,1.05
9922.00,1.05
9921.00,1.05
9920.00,1.05
9919.00,1.05
9918.00,1.05
9917.00,1.05
9916.00,1.05
9915.00,1.05
9914.00,1.05
9913.00,1.05
9912.00,1.05
9911.00,1.05
9910.00,1.05
9909.00,1.05
9908.00,1.04
9907.00,1.04
9906.00,1.04
9905.00,1.04
9904.00,1.04
9903.00,1.04
9902.00,1.04
9901.00,1.04
9900.00,1.04
9899.00,1.04
9898.00,1.04
9897.00,1.04
9896.00,1.05
9895.00,1.05
9894.00,1.05
9893.00,1.05
9892.00,1.05
9891.00,1.06
9890.00,1.06
9889.00,1.06
9888.00,1.06
9887.00,1.06
9886.00,1.06
9885.00,1.05
9884.00,1.05
9883.00,1.05
9882.00,1.05
9881.00,1.04
9880.00,1.04
9879.00,1.03
9878.00,1.03
9877.00,1.03
9876.00,1.02
9875.00,1.02
9874.00,1.02
9873.00,1.02
9872.00,1.01
9871.00,1.01
9870.00,1.01
9869.00,1.01
9868.00,1.01
9867.00,1.01
9866.00,1.01
9865.00,1.01
9864.00,1.01
9863.00,1.01
9862.00,1.01
9861.00,1.01
9860.00,1.01
9859.00,1.01
9858.00,1.02
9857.00,1.02
9856.00,1.02
9855.00,1.02
9854.00,1.02
9853.00,1.02
9852.00,1.02
9851.00,1.02
9850.00,1.02
9849.00,1.02
9848.00,1.02
9847.00,1.02
9846.00,1.02
9845.00,1.03
9844.00,1.03
9843.00,1.03
9842.00,1.03
9841.00,1.03
9840.00,1.03
9839.00,1.04
9838.00,1.04
9837.00,1.04
9836.00,1.04
9835.00,1.05
9834.00,1.05
9833.00,1.05
9832.00,1.05
9831.00,1.05
9830.00,1.05
9829.00,1.05
9828.00,1.05
9827.00,1.05
9826.00,1.05
9825.00,1.05
9824.00,1.05
9823.00,1.05
9822.00,1.05
9821.00,1.05
9820.00,1.05
9819.00,1.05
9818.00,1.05
9817.00,1.05
9816.00,1.05
9815.00,1.05
9814.00,1.05
9813.00,1.05
9812.00,1.04
9811.00,1.04
9810.00,1.04
9809.00,1.04
9808.00,1.04
9807.00,1.04
9806.00,1.04
9805.00,1.04
9804.00,1.04
9803.00,1.04
9802.00,1.04
9801.00,1.04
9800.00,1.04
9799.00,1.04
9798.00,1.04
9797.00,1.04
9796.00,1.04
9795.00,1.04
9794.00,1.04
9793.00,1.04
9792.00,1.04
9791.00,1.04
9790.00,1.04
9789.00,1.03
9788.00,1.03
9787.00,1.03
9786.00,1.03
9785.00,1.03
9784.00,1.03
9783.00,1.03
9782.00,1.03
9781.00,1.03
9780.00,1.03
9779.00,1.03
9778.00,1.03
9777.00,1.03
9776.00,1.03
9775.00,1.03
9774.00,1.03
9773.00,1.03
9772.00,1.03
9771.00,1.04
9770.00,1.04
9769.00,1.04
9768.00,1.04
9767.00,1.04
9766.00,1.04
9765.00,1.04
9764.00,1.04
9763.00,1.04
9762.00,1.05
9761.00,1.05
9760.00,1.05
9759.00,1.05
9758.00,1.05
9757.00,1.05
9756.00,1.05
9755.00,1.05
9754.00,1.05
9753.00,1.05
9752.00,1.05
9751.00,1.05
9750.00,1.05
9749.00,1.05
9748.00,1.05
9747.00,1.05
9746.00,1.05
9745.00,1.05
9744.00,1.06
9743.00,1.06
9742.00,1.06
9741.00,1.05
9740.00,1.05
9739.00,1.05
9738.00,1.05
9737.00,1.05
9736.00,1.05
9735.00,1.04
9734.00,1.04
9733.00,1.04
9732.00,1.04
9731.00,1.04
9730.00,1.03
9729.00,1.03
9728.00,1.03
9727.00,1.03
9726.00,1.03
9725.00,1.03
9724.00,1.03
9723.00,1.04
9722.00,1.04
9721.00,1.04
9720.00,1.04
9719.00,1.05
9718.00,1.05
9717.00,1.05
9716.00,1.05
9715.00,1.05
9714.00,1.05
9713.00,1.05
9712.00,1.05
9711.00,1.05
9710.00,1.05
9709.00,1.05
9708.00,1.04
9707.00,1.04
9706.00,1.04
9705.00,1.04
9704.00,1.04
9703.00,1.03
9702.00,1.03
9701.00,1.03
9700.00,1.03
9699.00,1.03
9698.00,1.03
9697.00,1.03
9696.00,1.03
9695.00,1.03
9694.00,1.03
9693.00,1.03
9692.00,1.03
9691.00,1.03
9690.00,1.03
9689.00,1.03
9688.00,1.03
9687.00,1.03
9686.00,1.03
9685.00,1.03
9684.00,1.03
9683.00,1.03
9682.00,1.03
9681.00,1.03
9680.00,1.03
9679.00,1.03
9678.00,1.02
9677.00,1.02
9676.00,1.02
9675.00,1.02
9674.00,1.02
9673.00,1.02
9672.00,1.02
9671.00,1.02
9670.00,1.02
9669.00,1.02
9668.00,1.02
9667.00,1.02
9666.00,1.02
9665.00,1.02
9664.00,1.03
9663.00,1.03
9662.00,1.03
9661.00,1.03
9660.00,1.03
9659.00,1.03
9658.00,1.03
9657.00,1.04
9656.00,1.04
9655.00,1.04
9654.00,1.04
9653.00,1.04
9652.00,1.04
9651.00,1.05
9650.00,1.05
9649.00,1.05
9648.00,1.05
9647.00,1.05
9646.00,1.05
9645.00,1.05
9644.00,1.05
9643.00,1.06
9642.00,1.06
9641.00,1.06
9640.00,1.06
9639.00,1.06
9638.00,1.05
9637.00,1.05
9636.00,1.05
9635.00,1.05
9634.00,1.05
9633.00,1.05
9632.00,1.05
9631.00,1.04
9630.00,1.04
9629.00,1.04
9628.00,1.03
9627.00,1.03
9626.00,1.03
9625.00,1.03
9624.00,1.02
9623.00,1.02
9622.00,1.02
9621.00,1.02
9620.00,1.02
9619.00,1.02
9618.00,1.02
9617.00,1.02
9616.00,1.02
9615.00,1.02
9614.00,1.02
9613.00,1.02
9612.00,1.03
9611.00,1.03
9610.00,1.03
9609.00,1.03
9608.00,1.03
9607.00,1.04
9606.00,1.04
9605.00,1.04
9604.00,1.04
9603.00,1.04
9602.00,1.04
9601.00,1.04
9600.00,1.04
9599.00,1.04
9598.00,1.04
9597.00,1.03
9596.00,1.03
9595.00,1.03
9594.00,1.03
9593.00,1.03
9592.00,1.03
9591.00,1.03
9590.00,1.03
9589.00,1.03
9588.00,1.03
9587.00,1.03
9586.00,1.03
9585.00,1.03
9584.00,1.04
9583.00,1.04
9582.00,1.04
9581.00,1.04
9580.00,1.04
9579.00,1.05
9578.00,1.05
9577.00,1.05
9576.00,1.05
9575.00,1.05
9574.00,1.05
9573.00,1.05
9572.00,1.05
9571.00,1.05
9570.00,1.05
9569.00,1.05
9568.00,1.05
9567.00,1.05
9566.00,1.05
9565.00,1.05
9564.00,1.05
9563.00,1.05
9562.00,1.05
9561.00,1.05
9560.00,1.05
9559.00,1.04
9558.00,1.04
9557.00,1.04
9556.00,1.04
9555.00,1.04
9554.00,1.04
9553.00,1.04
9552.00,1.04
9551.00,1.04
9550.00,1.04
9549.00,1.04
9548.00,1.04
9547.00,1.04
9546.00,1.04
9545.00,1.04
9544.00,1.04
9543.00,1.04
9542.00,1.05
9541.00,1.05
9540.00,1.05
9539.00,1.05
9538.00,1.05
9537.00,1.05
9536.00,1.05
9535.00,1.05
9534.00,1.05
9533.00,1.05
9532.00,1.05
9531.00,1.05
9530.00,1.05
9529.00,1.05
9528.00,1.05
9527.00,1.04
9526.00,1.04
9525.00,1.04
9524.00,1.04
9523.00,1.04
9522.00,1.04
9521.00,1.04
9520.00,1.05
9519.00,1.05
9518.00,1.05
9517.00,1.05
9516.00,1.05
9515.00,1.05
9514.00,1.06
9513.00,1.06
9512.00,1.06
9511.00,1.06
9510.00,1.06
9509.00,1.07
9508.00,1.07
9507.00,1.07
9506.00,1.07
9505.00,1.07
9504.00,1.07
9503.00,1.07
9502.00,1.07
9501.00,1.07
9500.00,1.06
9499.00,1.06
9498.00,1.06
9497.00,1.06
9496.00,1.06
9495.00,1.05
9494.00,1.05
9493.00,1.05
9492.00,1.05
9491.00,1.04
9490.00,1.04
9489.00,1.04
9488.00,1.04
9487.00,1.04
9486.00,1.04
9485.00,1.04
9484.00,1.04
9483.00,1.04
9482.00,1.04
9481.00,1.04
9480.00,1.04
9479.00,1.04
9478.00,1.05
9477.00,1.05
9476.00,1.05
9475.00,1.05
9474.00,1.05
9473.00,1.05
9472.00,1.05
9471.00,1.05
9470.00,1.05
9469.00,1.05
9468.00,1.04
9467.00,1.04
9466.00,1.04
9465.00,1.04
9464.00,1.04
9463.00,1.04
9462.00,1.04
9461.00,1.03
9460.00,1.03
9459.00,1.03
9458.00,1.03
9457.00,1.03
9456.00,1.02
9455.00,1.02
9454.00,1.02
9453.00,1.02
9452.00,1.02
9451.00,1.02
9450.00,1.02
9449.00,1.01
9448.00,1.01
9447.00,1.01
9446.00,1.01
9445.00,1.01
9444.00,1.01
9443.00,1.01
9442.00,1.01
9441.00,1.01
9440.00,1.01
9439.00,1.02
9438.00,1.02
9437.00,1.02
9436.00,1.02
9435.00,1.02
9434.00,1.03
9433.00,1.03
9432.00,1.03
9431.00,1.03
9430.00,1.03
9429.00,1.03
9428.00,1.03
9427.00,1.04
9426.00,1.04
9425.00,1.04
9424.00,1.04
9423.00,1.04
9422.00,1.04
9421.00,1.04
9420.00,1.04
9419.00,1.04
9418.00,1.04
9417.00,1.04
9416.00,1.03
9415.00,1.03
9414.00,1.03
9413.00,1.03
9412.00,1.03
9411.00,1.03
9410.00,1.03
9409.00,1.03
9408.00,1.03
9407.00,1.03
9406.00,1.03
9405.00,1.03
9404.00,1.03
9403.00,1.03
9402.00,1.03
9401.00,1.03
9400.00,1.03
9399.00,1.04
9398.00,1.04
9397.00,1.04
9396.00,1.04
9395.00,1.04
9394.00,1.04
9393.00,1.04
9392.00,1.04
9391.00,1.04
9390.00,1.05
9389.00,1.05
9388.00,1.05
9387.00,1.05
9386.00,1.05
9385.00,1.05
9384.00,1.05
9383.00,1.05
9382.00,1.05
9381.00,1.05
9380.00,1.05
9379.00,1.05
9378.00,1.05
9377.00,1.05
9376.00,1.04
9375.00,1.04
9374.00,1.04
9373.00,1.04
9372.00,1.04
9371.00,1.04
9370.00,1.04
9369.00,1.04
9368.00,1.04
9367.00,1.04
9366.00,1.03
9365.00,1.03
9364.00,1.03
9363.00,1.03
9362.00,1.04
9361.00,1.04
9360.00,1.04
9359.00,1.04
9358.00,1.04
9357.00,1.04
9356.00,1.04
9355.00,1.04
9354.00,1.04
9353.00,1.05
9352.00,1.05
9351.00,1.05
9350.00,1.05
9349.00,1.05
9348.00,1.05
9347.00,1.05
9346.00,1.05
9345.00,1.05
9344.00,1.05
9343.00,1.05
9342.00,1.05
9341.00,1.05
9340.00,1.05
9339.00,1.05
9338.00,1.05
9337.00,1.05
9336.00,1.05
9335.00,1.05
9334.00,1.05
9333.00,1.05
9332.00,1.05
9331.00,1.05
9330.00,1.05
9329.00,1.05
9328.00,1.05
9327.00,1.05
9326.00,1.05
9325.00,1.05
9324.00,1.05
9323.00,1.05
9322.00,1.05
9321.00,1.05
9320.00,1.06
9319.00,1.06
9318.00,1.06
9317.00,1.06
9316.00,1.06
9315.00,1.06
9314.00,1.06
9313.00,1.06
9312.00,1.06
9311.00,1.06
9310.00,1.06
9309.00,1.06
9308.00,1.06
9307.00,1.06
9306.00,1.06
9305.00,1.06
9304.00,1.06
9303.00,1.06
9302.00,1.06
9301.00,1.06
9300.00,1.06
9299.00,1.06
9298.00,1.06
9297.00,1.06
9296.00,1.06
9295.00,1.06
9294.00,1.06
9293.00,1.06
9292.00,1.05
9291.00,1.05
9290.00,1.05
9289.00,1.05
9288.00,1.05
9287.00,1.05
9286.00,1.05
9285.00,1.05
9284.00,1.06
9283.00,1.06
9282.00,1.06
9281.00,1.06
9280.00,1.06
9279.00,1.06
9278.00,1.06
9277.00,1.06
9276.00,1.06
9275.00,1.06
9274.00,1.06
9273.00,1.06
9272.00,1.06
9271.00,1.06
9270.00,1.06
9269.00,1.06
9268.00,1.06
9267.00,1.06
9266.00,1.06
9265.00,1.06
9264.00,1.06
9263.00,1.06
9262.00,1.06
9261.00,1.05
9260.00,1.05
9259.00,1.05
9258.00,1.05
9257.00,1.05
9256.00,1.05
9255.00,1.05
9254.00,1.05
9253.00,1.05
9252.00,1.05
9251.00,1.05
9250.00,1.05
9249.00,1.05
9248.00,1.05
9247.00,1.05
9246.00,1.05
9245.00,1.05
9244.00,1.06
9243.00,1.06
9242.00,1.06
9241.00,1.06
9240.00,1.06
9239.00,1.06
9238.00,1.06
9237.00,1.06
9236.00,1.06
9235.00,1.06
9234.00,1.06
9233.00,1.07
9232.00,1.07
9231.00,1.07
9230.00,1.07
9229.00,1.07
9228.00,1.07
9227.00,1.07
9226.00,1.07
9225.00,1.07
9224.00,1.07
9223.00,1.07
9222.00,1.06
9221.00,1.06
9220.00,1.06
9219.00,1.06
9218.00,1.06
9217.00,1.06
9216.00,1.06
9215.00,1.06
9214.00,1.06
9213.00,1.05
9212.00,1.05
9211.00,1.05
9210.00,1.05
9209.00,1.05
9208.00,1.05
9207.00,1.05
9206.00,1.04
9205.00,1.04
9204.00,1.04
9203.00,1.04
9202.00,1.04
9201.00,1.05
9200.00,1.05
9199.00,1.05
9198.00,1.05
9197.00,1.05
9196.00,1.05
9195.00,1.05
9194.00,1.06
9193.00,1.06
9192.00,1.06
9191.00,1.06
9190.00,1.06
9189.00,1.07
9188.00,1.07
9187.00,1.07
9186.00,1.07
9185.00,1.07
9184.00,1.07
9183.00,1.07
9182.00,1.07
9181.00,1.07
9180.00,1.06
9179.00,1.06
9178.00,1.06
9177.00,1.06
9176.00,1.06
9175.00,1.06
9174.00,1.06
9173.00,1.06
9172.00,1.05
9171.00,1.05
9170.00,1.05
9169.00,1.05
9168.00,1.05
9167.00,1.06
9166.00,1.06
9165.00,1.06
9164.00,1.06
9163.00,1.06
9162.00,1.06
9161.00,1.06
9160.00,1.06
9159.00,1.06
9158.00,1.06
9157.00,1.06
9156.00,1.06
9155.00,1.06
9154.00,1.06
9153.00,1.06
9152.00,1.06
9151.00,1.06
9150.00,1.06
9149.00,1.05
9148.00,1.05
9147.00,1.05
9146.00,1.05
9145.00,1.05
9144.00,1.05
9143.00,1.05
9142.00,1.05
9141.00,1.05
9140.00,1.04
9139.00,1.04
9138.00,1.04
9137.00,1.04
9136.00,1.04
9135.00,1.04
9134.00,1.04
9133.00,1.04
9132.00,1.05
9131.00,1.05
9130.00,1.05
9129.00,1.05
9128.00,1.05
9127.00,1.05
9126.00,1.05
9125.00,1.05
9124.00,1.05
9123.00,1.05
9122.00,1.06
9121.00,1.06
9120.00,1.06
9119.00,1.06
9118.00,1.06
9117.00,1.06
9116.00,1.06
9115.00,1.06
9114.00,1.06
9113.00,1.06
9112.00,1.06
9111.00,1.06
9110.00,1.06
9109.00,1.06
9108.00,1.06
9107.00,1.06
9106.00,1.06
9105.00,1.06
9104.00,1.05
9103.00,1.05
9102.00,1.05
9101.00,1.05
9100.00,1.05
9099.00,1.05
9098.00,1.05
9097.00,1.05
9096.00,1.05
9095.00,1.05
9094.00,1.05
9093.00,1.05
9092.00,1.05
9091.00,1.06
9090.00,1.06
9089.00,1.06
9088.00,1.06
9087.00,1.06
9086.00,1.06
9085.00,1.06
9084.00,1.06
9083.00,1.06
9082.00,1.06
9081.00,1.06
9080.00,1.06
9079.00,1.06
9078.00,1.06
9077.00,1.05
9076.00,1.05
9075.00,1.05
9074.00,1.05
9073.00,1.05
9072.00,1.05
9071.00,1.05
9070.00,1.05
9069.00,1.05
9068.00,1.05
9067.00,1.05
9066.00,1.05
9065.00,1.05
9064.00,1.05
9063.00,1.05
9062.00,1.05
9061.00,1.06
9060.00,1.06
9059.00,1.06
9058.00,1.06
9057.00,1.06
9056.00,1.06
9055.00,1.06
9054.00,1.06
9053.00,1.06
9052.00,1.06
9051.00,1.06
9050.00,1.06
9049.00,1.06
9048.00,1.06
9047.00,1.07
9046.00,1.07
9045.00,1.07
9044.00,1.06
9043.00,1.06
9042.00,1.06
9041.00,1.06
9040.00,1.06
9039.00,1.06
9038.00,1.06
9037.00,1.06
9036.00,1.05
9035.00,1.05
9034.00,1.05
9033.00,1.05
9032.00,1.05
9031.00,1.04
9030.00,1.04
9029.00,1.04
9028.00,1.04
9027.00,1.04
9026.00,1.04
9025.00,1.04
9024.00,1.04
9023.00,1.04
9022.00,1.04
9021.00,1.04
9020.00,1.04
9019.00,1.04
9018.00,1.05
9017.00,1.05
9016.00,1.05
9015.00,1.05
9014.00,1.06
9013.00,1.06
9012.00,1.06
9011.00,1.06
9010.00,1.07
9009.00,1.07
9008.00,1.07
9007.00,1.07
9006.00,1.07
9005.00,1.07
9004.00,1.07
9003.00,1.07
9002.00,1.07
9001.00,1.06
9000.00,1.06
8999.00,1.06
8998.00,1.06
8997.00,1.06
8996.00,1.05
8995.00,1.05
8994.00,1.05
8993.00,1.05
8992.00,1.05
8991.00,1.05
8990.00,1.05
8989.00,1.05
8988.00,1.05
8987.00,1.05
8986.00,1.05
8985.00,1.05
8984.00,1.05
8983.00,1.05
8982.00,1.06
8981.00,1.06
8980.00,1.06
8979.00,1.06
8978.00,1.06
8977.00,1.06
8976.00,1.06
8975.00,1.06
8974.00,1.07
8973.00,1.07
8972.00,1.07
8971.00,1.07
8970.00,1.07
8969.00,1.07
8968.00,1.07
8967.00,1.06
8966.00,1.06
8965.00,1.06
8964.00,1.06
8963.00,1.06
8962.00,1.06
8961.00,1.06
8960.00,1.06
8959.00,1.06
8958.00,1.05
8957.00,1.05
8956.00,1.05
8955.00,1.05
8954.00,1.05
8953.00,1.05
8952.00,1.05
8951.00,1.05
8950.00,1.05
8949.00,1.05
8948.00,1.05
8947.00,1.05
8946.00,1.05
8945.00,1.05
8944.00,1.05
8943.00,1.05
8942.00,1.05
8941.00,1.05
8940.00,1.05
8939.00,1.04
8938.00,1.04
8937.00,1.04
8936.00,1.04
8935.00,1.04
8934.00,1.04
8933.00,1.04
8932.00,1.04
8931.00,1.04
8930.00,1.04
8929.00,1.04
8928.00,1.04
8927.00,1.04
8926.00,1.04
8925.00,1.04
8924.00,1.04
8923.00,1.04
8922.00,1.04
8921.00,1.04
8920.00,1.05
8919.00,1.05
8918.00,1.05
8917.00,1.05
8916.00,1.05
8915.00,1.05
8914.00,1.05
8913.00,1.05
8912.00,1.05
8911.00,1.05
8910.00,1.05
8909.00,1.05
8908.00,1.04
8907.00,1.04
8906.00,1.04
8905.00,1.04
8904.00,1.04
8903.00,1.04
8902.00,1.04
8901.00,1.04
8900.00,1.04
8899.00,1.04
8898.00,1.04
8897.00,1.04
8896.00,1.04
8895.00,1.04
8894.00,1.04
8893.00,1.04
8892.00,1.04
8891.00,1.04
8890.00,1.04
8889.00,1.04
8888.00,1.04
8887.00,1.04
8886.00,1.05
8885.00,1.05
8884.00,1.05
8883.00,1.05
8882.00,1.05
8881.00,1.05
8880.00,1.05
8879.00,1.06
8878.00,1.06
8877.00,1.06
8876.00,1.06
8875.00,1.06
8874.00,1.06
8873.00,1.06
8872.00,1.06
8871.00,1.06
8870.00,1.06
8869.00,1.06
8868.00,1.06
8867.00,1.06
8866.00,1.06
8865.00,1.06
8864.00,1.06
8863.00,1.06
8862.00,1.06
8861.00,1.06
8860.00,1.06
8859.00,1.06
8858.00,1.06
8857.00,1.06
8856.00,1.06
8855.00,1.06
8854.00,1.06
8853.00,1.06
8852.00,1.05
8851.00,1.05
8850.00,1.05
8849.00,1.05
8848.00,1.05
8847.00,1.05
8846.00,1.04
8845.00,1.04
8844.00,1.04
8843.00,1.04
8842.00,1.04
8841.00,1.04
8840.00,1.03
8839.00,1.03
8838.00,1.03
8837.00,1.03
8836.00,1.03
8835.00,1.03
8834.00,1.03
8833.00,1.03
8832.00,1.03
8831.00,1.04
8830.00,1.04
8829.00,1.04
8828.00,1.04
8827.00,1.04
8826.00,1.04
8825.00,1.04
8824.00,1.04
8823.00,1.04
8822.00,1.04
8821.00,1.05
8820.00,1.05
8819.00,1.05
8818.00,1.05
8817.00,1.05
8816.00,1.05
8815.00,1.04
8814.00,1.04
8813.00,1.04
8812.00,1.04
8811.00,1.04
8810.00,1.04
8809.00,1.04
8808.00,1.04
8807.00,1.04
8806.00,1.04
8805.00,1.04
8804.00,1.04
8803.00,1.04
8802.00,1.03
8801.00,1.03
8800.00,1.03
8799.00,1.03
8798.00,1.03
8797.00,1.03
8796.00,1.03
8795.00,1.03
8794.00,1.03
8793.00,1.03
8792.00,1.03
8791.00,1.03
8790.00,1.03
8789.00,1.03
8788.00,1.03
8787.00,1.03
8786.00,1.03
8785.00,1.03
8784.00,1.03
8783.00,1.03
8782.00,1.03
8781.00,1.03
8780.00,1.03
8779.00,1.03
8778.00,1.02
8777.00,1.02
8776.00,1.02
8775.00,1.02
8774.00,1.02
8773.00,1.02
8772.00,1.02
8771.00,1.02
8770.00,1.02
8769.00,1.02
8768.00,1.02
8767.00,1.02
8766.00,1.02
8765.00,1.03
8764.00,1.03
8763.00,1.03
8762.00,1.03
8761.00,1.03
8760.00,1.03
8759.00,1.03
8758.00,1.03
8757.00,1.03
8756.00,1.03
8755.00,1.03
8754.00,1.03
8753.00,1.03
8752.00,1.03
8751.00,1.03
8750.00,1.02
8749.00,1.02
8748.00,1.02
8747.00,1.02
8746.00,1.02
8745.00,1.02
8744.00,1.01
8743.00,1.01
8742.00,1.01
8741.00,1.01
8740.00,1.01
8739.00,1.01
8738.00,1.01
8737.00,1.01
8736.00,1.01
8735.00,1.01
8734.00,1.01
8733.00,1.01
8732.00,1.01
8731.00,1.01
8730.00,1.01
8729.00,1.01
8728.00,1.01
8727.00,1.01
8726.00,1.01
8725.00,1.01
8724.00,1.01
8723.00,1.01
8722.00,1.01
8721.00,1.01
8720.00,1.01
8719.00,1.01
8718.00,1.01
8717.00,1.01
8716.00,1.01
8715.00,1.01
8714.00,1.01
8713.00,1.01
8712.00,1.01
8711.00,1.01
8710.00,1.01
8709.00,1.01
8708.00,1.01
8707.00,1.01
8706.00,1.01
8705.00,1.01
8704.00,1.01
8703.00,1.01
8702.00,1.01
8701.00,1.01
8700.00,1.01
8699.00,1.01
8698.00,1.01
8697.00,1.01
8696.00,1.01
8695.00,1.01
8694.00,1.01
8693.00,1.01
8692.00,1.01
8691.00,1.01
8690.00,1.01
8689.00,1.01
8688.00,1.01
8687.00,1.01
8686.00,1.01
8685.00,1.01
8684.00,1.01
8683.00,1.01
8682.00,1.01
8681.00,1.01
8680.00,1.00
8679.00,1.00
8678.00,1.00
8677.00,1.00
8676.00,1.00
8675.00,1.00
8674.00,1.00
8673.00,1.00
8672.00,1.00
8671.00,1.00
8670.00,1.00
8669.00,1.00
8668.00,1.00
8667.00,1.00
8666.00,1.00
8665.00,1.00
8664.00,1.00
8663.00,1.00
8662.00,1.00
8661.00,1.00
8660.00,1.00
8659.00,1.00
8658.00,1.00
8657.00,1.00
8656.00,1.00
8655.00,1.00
8654.00,1.00
8653.00,1.00
8652.00,1.00
8651.00,0.99
8650.00,0.99
8649.00,0.99
8648.00,0.99
8647.00,0.99
8646.00,0.99
8645.00,0.99
8644.00,0.99
8643.00,0.99
8642.00,0.99
8641.00,0.99
8640.00,0.99
8639.00,0.99
8638.00,0.99
8637.00,0.99
8636.00,0.99
8635.00,0.98
8634.00,0.98
8633.00,0.98
8632.00,0.98
8631.00,0.98
8630.00,0.98
8629.00,0.98
8628.00,0.98
8627.00,0.98
8626.00,0.98
8625.00,0.98
8624.00,0.98
8623.00,0.98
8622.00,0.98
8621.00,0.98
8620.00,0.98
8619.00,0.98
8618.00,0.98
8617.00,0.98
8616.00,0.98
8615.00,0.98
8614.00,0.98
8613.00,0.98
8612.00,0.98
8611.00,0.98
8610.00,0.98
8609.00,0.98
8608.00,0.98
8607.00,0.98
8606.00,0.98
8605.00,0.99
8604.00,0.99
8603.00,0.99
8602.00,0.99
8601.00,0.99
8600.00,0.99
8599.00,0.98
8598.00,0.98
8597.00,0.98
8596.00,0.98
8595.00,0.98
8594.00,0.98
8593.00,0.98
8592.00,0.98
8591.00,0.98
8590.00,0.98
8589.00,0.98
8588.00,0.98
8587.00,0.98
8586.00,0.98
8585.00,0.98
8584.00,0.98
8583.00,0.98
8582.00,0.98
8581.00,0.98
8580.00,0.98
8579.00,0.99
8578.00,0.99
8577.00,0.99
8576.00,0.99
8575.00,0.99
8574.00,0.99
8573.00,0.99
8572.00,0.99
8571.00,0.99
8570.00,0.99
8569.00,0.98
8568.00,0.98
8567.00,0.98
8566.00,0.98
8565.00,0.98
8564.00,0.98
8563.00,0.97
8562.00,0.97
8561.00,0.97
8560.00,0.97
8559.00,0.96
8558.00,0.96
8557.00,0.96
8556.00,0.96
8555.00,0.96
8554.00,0.96
8553.00,0.95
8552.00,0.95
8551.00,0.95
8550.00,0.95
8549.00,0.95
8548.00,0.95
8547.00,0.95
8546.00,0.95
8545.00,0.95
8544.00,0.95
8543.00,0.95
8542.00,0.96
8541.00,0.96
8540.00,0.96
8539.00,0.96
8538.00,0.96
8537.00,0.96
8536.00,0.96
8535.00,0.96
8534.00,0.96
8533.00,0.96
8532.00,0.96
8531.00,0.96
8530.00,0.95
8529.00,0.95
8528.00,0.95
8527.00,0.95
8526.00,0.95
8525.00,0.95
8524.00,0.95
8523.00,0.95
8522.00,0.95
8521.00,0.94
8520.00,0.94
8519.00,0.94
8518.00,0.94
8517.00,0.94
8516.00,0.94
8515.00,0.94
8514.00,0.94
8513.00,0.94
8512.00,0.94
8511.00,0.94
8510.00,0.94
8509.00,0.94
8508.00,0.94
8507.00,0.94
8506.00,0.94
8505.00,0.94
8504.00,0.95
8503.00,0.95
8502.00,0.95
8501.00,0.95
8500.00,0.95
8499.00,0.95
8498.00,0.95
8497.00,0.95
8496.00,0.95
8495.00,0.95
8494.00,0.95
8493.00,0.95
8492.00,0.95
8491.00,0.95
8490.00,0.96
8489.00,0.96
8488.00,0.96
8487.00,0.96
8486.00,0.96
8485.00,0.96
8484.00,0.96
8483.00,0.96
8482.00,0.96
8481.00,0.96
8480.00,0.96
8479.00,0.96
8478.00,0.96
8477.00,0.96
8476.00,0.96
8475.00,0.96
8474.00,0.96
8473.00,0.95
8472.00,0.95
8471.00,0.95
8470.00,0.95
8469.00,0.95
8468.00,0.94
8467.00,0.94
8466.00,0.94
8465.00,0.94
8464.00,0.94
8463.00,0.93
8462.00,0.93
8461.00,0.93
8460.00,0.93
8459.00,0.93
8458.00,0.92
8457.00,0.92
8456.00,0.92
8455.00,0.92
8454.00,0.92
8453.00,0.92
8452.00,0.92
8451.00,0.92
8450.00,0.92
8449.00,0.92
8448.00,0.92
8447.00,0.92
8446.00,0.92
8445.00,0.92
8444.00,0.92
8443.00,0.92
8442.00,0.92
8441.00,0.92
8440.00,0.92
8439.00,0.92
8438.00,0.92
8437.00,0.92
8436.00,0.92
8435.00,0.92
8434.00,0.92
8433.00,0.92
8432.00,0.92
8431.00,0.92
8430.00,0.92
8429.00,0.92
8428.00,0.92
8427.00,0.92
8426.00,0.92
8425.00,0.92
8424.00,0.92
8423.00,0.92
8422.00,0.92
8421.00,0.92
8420.00,0.92
8419.00,0.92
8418.00,0.92
8417.00,0.92
8416.00,0.93
8415.00,0.93
8414.00,0.93
8413.00,0.93
8412.00,0.93
8411.00,0.93
8410.00,0.93
8409.00,0.93
8408.00,0.93
8407.00,0.94
8406.00,0.94
8405.00,0.94
8404.00,0.94
8403.00,0.94
8402.00,0.94
8401.00,0.94
8400.00,0.94
8399.00,0.94
8398.00,0.94
8397.00,0.94
8396.00,0.95
8395.00,0.95
8394.00,0.95
8393.00,0.95
8392.00,0.95
8391.00,0.95
8390.00,0.95
8389.00,0.95
8388.00,0.95
8387.00,0.95
8386.00,0.95
8385.00,0.95
8384.00,0.94
8383.00,0.94
8382.00,0.94
8381.00,0.94
8380.00,0.94
8379.00,0.94
8378.00,0.94
8377.00,0.94
8376.00,0.94
8375.00,0.94
8374.00,0.94
8373.00,0.94
8372.00,0.94
8371.00,0.94
8370.00,0.94
8369.00,0.94
8368.00,0.94
8367.00,0.94
8366.00,0.94
8365.00,0.94
8364.00,0.94
8363.00,0.94
8362.00,0.94
8361.00,0.94
8360.00,0.94
8359.00,0.94
8358.00,0.94
8357.00,0.95
8356.00,0.95
8355.00,0.95
8354.00,0.95
8353.00,0.95
8352.00,0.95
8351.00,0.95
8350.00,0.95
8349.00,0.95
8348.00,0.95
8347.00,0.95
8346.00,0.95
8345.00,0.95
8344.00,0.95
8343.00,0.95
8342.00,0.95
8341.00,0.96
8340.00,0.96
8339.00,0.96
8338.00,0.96
8337.00,0.96
8336.00,0.96
8335.00,0.96
8334.00,0.96
8333.00,0.96
8332.00,0.95
8331.00,0.95
8330.00,0.95
8329.00,0.95
8328.00,0.95
8327.00,0.95
8326.00,0.96
8325.00,0.96
8324.00,0.96
8323.00,0.96
8322.00,0.96
8321.00,0.96
8320.00,0.96
8319.00,0.96
8318.00,0.96
8317.00,0.96
8316.00,0.96
8315.00,0.96
8314.00,0.96
8313.00,0.96
8312.00,0.96
8311.00,0.96
8310.00,0.96
8309.00,0.96
8308.00,0.97
8307.00,0.97
8306.00,0.97
8305.00,0.97
8304.00,0.97
8303.00,0.97
8302.00,0.97
8301.00,0.97
8300.00,0.97
8299.00,0.97
8298.00,0.97
8297.00,0.97
8296.00,0.97
8295.00,0.97
8294.00,0.97
8293.00,0.97
8292.00,0.97
8291.00,0.97
8290.00,0.97
8289.00,0.97
8288.00,0.97
8287.00,0.97
8286.00,0.97
8285.00,0.97
8284.00,0.97
8283.00,0.97
8282.00,0.96
8281.00,0.96
8280.00,0.96
8279.00,0.96
8278.00,0.96
8277.00,0.96
8276.00,0.96
8275.00,0.96
8274.00,0.96
8273.00,0.96
8272.00,0.96
8271.00,0.97
8270.00,0.97
8269.00,0.97
8268.00,0.97
8267.00,0.97
8266.00,0.97
8265.00,0.97
8264.00,0.97
8263.00,0.97
8262.00,0.97
8261.00,0.97
8260.00,0.97
8259.00,0.97
8258.00,0.97
8257.00,0.97
8256.00,0.97
8255.00,0.97
8254.00,0.97
8253.00,0.97
8252.00,0.97
8251.00,0.98
8250.00,0.98
8249.00,0.98
8248.00,0.98
8247.00,0.98
8246.00,0.98
8245.00,0.98
8244.00,0.98
8243.00,0.98
8242.00,0.98
8241.00,0.98
8240.00,0.98
8239.00,0.98
8238.00,0.98
8237.00,0.98
8236.00,0.98
8235.00,0.98
8234.00,0.98
8233.00,0.98
8232.00,0.98
8231.00,0.99
8230.00,0.99
8229.00,0.99
8228.00,0.99
8227.00,0.99
8226.00,0.99
8225.00,0.99
8224.00,0.99
8223.00,0.99
8222.00,0.99
8221.00,0.99
8220.00,0.99
8219.00,0.99
8218.00,0.99
8217.00,0.99
8216.00,0.99
8215.00,0.99
8214.00,0.99
8213.00,0.99
8212.00,0.99
8211.00,0.99
8210.00,0.99
8209.00,0.99
8208.00,0.99
8207.00,0.99
8206.00,0.99
8205.00,0.99
8204.00,0.99
8203.00,0.99
8202.00,0.99
8201.00,0.99
8200.00,0.99
8199.00,0.99
8198.00,0.99
8197.00,0.99
8196.00,0.99
8195.00,0.99
8194.00,0.99
8193.00,0.99
8192.00,0.99
8191.00,0.99
8190.00,0.99
8189.00,0.99
8188.00,0.99
8187.00,0.99
8186.00,0.99
8185.00,0.99
8184.00,0.99
8183.00,0.99
8182.00,0.99
8181.00,0.99
8180.00,0.99
8179.00,0.99
8178.00,1.00
8177.00,1.00
8176.00,1.00
8175.00,1.00
8174.00,1.00
8173.00,1.00
8172.00,1.00
8171.00,0.99
8170.00,0.99
8169.00,0.99
8168.00,0.99
8167.00,0.99
8166.00,0.99
8165.00,0.99
8164.00,0.99
8163.00,0.99
8162.00,0.99
8161.00,0.99
8160.00,0.99
8159.00,0.99
8158.00,0.99
8157.00,0.99
8156.00,0.99
8155.00,0.99
8154.00,0.99
8153.00,1.00
8152.00,1.00
8151.00,1.00
8150.00,1.00
8149.00,1.00
8148.00,1.00
8147.00,1.00
8146.00,1.00
8145.00,1.01
8144.00,1.01
8143.00,1.01
8142.00,1.01
8141.00,1.01
8140.00,1.01
8139.00,1.01
8138.00,1.01
8137.00,1.01
8136.00,1.01
8135.00,1.01
8134.00,1.01
8133.00,1.01
8132.00,1.01
8131.00,1.01
8130.00,1.01
8129.00,1.01
8128.00,1.01
8127.00,1.02
8126.00,1.02
8125.00,1.02
8124.00,1.02
8123.00,1.02
8122.00,1.02
8121.00,1.02
8120.00,1.02
8119.00,1.02
8118.00,1.02
8117.00,1.02
8116.00,1.02
8115.00,1.02
8114.00,1.02
8113.00,1.02
8112.00,1.02
8111.00,1.02
8110.00,1.02
8109.00,1.02
8108.00,1.02
8107.00,1.02
8106.00,1.02
8105.00,1.02
8104.00,1.02
8103.00,1.02
8102.00,1.02
8101.00,1.02
8100.00,1.02
8099.00,1.02
8098.00,1.02
8097.00,1.02
8096.00,1.02
8095.00,1.02
8094.00,1.02
8093.00,1.02
8092.00,1.02
8091.00,1.02
8090.00,1.02
8089.00,1.02
8088.00,1.02
8087.00,1.02
8086.00,1.02
8085.00,1.02
8084.00,1.02
8083.00,1.02
8082.00,1.02
8081.00,1.02
8080.00,1.02
8079.00,1.02
8078.00,1.02
8077.00,1.02
8076.00,1.02
8075.00,1.02
8074.00,1.02
8073.00,1.02
8072.00,1.02
8071.00,1.02
8070.00,1.02
8069.00,1.02
8068.00,1.02
8067.00,1.02
8066.00,1.02
8065.00,1.02
8064.00,1.02
8063.00,1.02
8062.00,1.02
8061.00,1.02
8060.00,1.02
8059.00,1.02
8058.00,1.02
8057.00,1.02
8056.00,1.02
8055.00,1.02
8054.00,1.02
8053.00,1.02
8052.00,1.02
8051.00,1.02
8050.00,1.02
8049.00,1.02
8048.00,1.02
8047.00,1.02
8046.00,1.02
8045.00,1.02
8044.00,1.02
8043.00,1.02
8042.00,1.02
8041.00,1.02
8040.00,1.02
8039.00,1.02
8038.00,1.03
8037.00,1.03
8036.00,1.03
8035.00,1.03
8034.00,1.03
8033.00,1.03
8032.00,1.03
8031.00,1.03
8030.00,1.03
8029.00,1.03
8028.00,1.03
8027.00,1.03
8026.00,1.03
8025.00,1.03
8024.00,1.04
8023.00,1.04
8022.00,1.04
8021.00,1.04
8020.00,1.04
8019.00,1.04
8018.00,1.04
8017.00,1.04
8016.00,1.04
8015.00,1.04
8014.00,1.04
8013.00,1.04
8012.00,1.04
8011.00,1.04
8010.00,1.04
8009.00,1.04
8008.00,1.04
8007.00,1.05
8006.00,1.05
8005.00,1.05
8004.00,1.05
8003.00,1.05
8002.00,1.05
8001.00,1.05
8000.00,1.05
7999.00,1.05
7998.00,1.05
7997.00,1.05
7996.00,1.05
7995.00,1.05
7994.00,1.05
7993.00,1.05
7992.00,1.05
7991.00,1.05
7990.00,1.05
7989.00,1.05
7988.00,1.05
7987.00,1.05
7986.00,1.05
7985.00,1.05
7984.00,1.05
7983.00,1.05
7982.00,1.05
7981.00,1.04
7980.00,1.04
7979.00,1.04
7978.00,1.04
7977.00,1.04
7976.00,1.04
7975.00,1.04
7974.00,1.04
7973.00,1.04
7972.00,1.04
7971.00,1.04
7970.00,1.04
7969.00,1.04
7968.00,1.04
7967.00,1.04
7966.00,1.04
7965.00,1.04
7964.00,1.04
7963.00,1.04
7962.00,1.04
7961.00,1.04
7960.00,1.04
7959.00,1.04
7958.00,1.04
7957.00,1.04
7956.00,1.04
7955.00,1.04
7954.00,1.04
7953.00,1.05
7952.00,1.05
7951.00,1.05
7950.00,1.05
7949.00,1.05
7948.00,1.05
7947.00,1.05
7946.00,1.05
7945.00,1.05
7944.00,1.05
7943.00,1.05
7942.00,1.05
7941.00,1.05
7940.00,1.05
7939.00,1.05
7938.00,1.05
7937.00,1.05
7936.00,1.05
7935.00,1.05
7934.00,1.05
7933.00,1.05
7932.00,1.05
7931.00,1.05
7930.00,1.05
7929.00,1.05
7928.00,1.05
7927.00,1.05
7926.00,1.05
7925.00,1.05
7924.00,1.05
7923.00,1.05
7922.00,1.05
7921.00,1.05
7920.00,1.05
7919.00,1.05
7918.00,1.05
7917.00,1.05
7916.00,1.05
7915.00,1.05
7914.00,1.05
7913.00,1.05
7912.00,1.05
7911.00,1.05
7910.00,1.05
7909.00,1.05
7908.00,1.05
7907.00,1.05
7906.00,1.05
7905.00,1.05
7904.00,1.05
7903.00,1.05
7902.00,1.05
7901.00,1.05
7900.00,1.05
7899.00,1.05
7898.00,1.05
7897.00,1.05
7896.00,1.05
7895.00,1.05
7894.00,1.05
7893.00,1.05
7892.00,1.05
7891.00,1.05
7890.00,1.05
7889.00,1.05
7888.00,1.05
7887.00,1.05
7886.00,1.05
7885.00,1.05
7884.00,1.05
7883.00,1.05
7882.00,1.05
7881.00,1.05
7880.00,1.05
7879.00,1.05
7878.00,1.05
7877.00,1.05
7876.00,1.05
7875.00,1.05
7874.00,1.05
7873.00,1.05
7872.00,1.05
7871.00,1.05
7870.00,1.05
7869.00,1.05
7868.00,1.05
7867.00,1.05
7866.00,1.05
7865.00,1.05
7864.00,1.05
7863.00,1.05
7862.00,1.05
7861.00,1.05
7860.00,1.05
7859.00,1.05
7858.00,1.05
7857.00,1.05
7856.00,1.05
7855.00,1.05
7854.00,1.05
7853.00,1.05
7852.00,1.05
7851.00,1.05
7850.00,1.05
7849.00,1.05
7848.00,1.05
7847.00,1.05
7846.00,1.05
7845.00,1.05
7844.00,1.05
7843.00,1.05
7842.00,1.05
7841.00,1.05
7840.00,1.05
7839.00,1.05
7838.00,1.05
7837.00,1.05
7836.00,1.06
7835.00,1.06
7834.00,1.06
7833.00,1.06
7832.00,1.06
7831.00,1.06
7830.00,1.06
7829.00,1.06
7828.00,1.06
7827.00,1.06
7826.00,1.06
7825.00,1.06
7824.00,1.06
7823.00,1.06
7822.00,1.06
7821.00,1.06
7820.00,1.06
7819.00,1.06
7818.00,1.06
7817.00,1.06
7816.00,1.06
7815.00,1.06
7814.00,1.06
7813.00,1.06
7812.00,1.06
7811.00,1.06
7810.00,1.06
7809.00,1.06
7808.00,1.06
7807.00,1.06
7806.00,1.06
7805.00,1.06
7804.00,1.06
7803.00,1.06
7802.00,1.06
7801.00,1.05
7800.00,1.05
7799.00,1.05
7798.00,1.05
7797.00,1.05
7796.00,1.05
7795.00,1.05
7794.00,1.05
7793.00,1.05
7792.00,1.05
7791.00,1.05
7790.00,1.05
7789.00,1.05
7788.00,1.05
7787.00,1.05
7786.00,1.05
7785.00,1.05
7784.00,1.05
7783.00,1.05
7782.00,1.05
7781.00,1.05
7780.00,1.05
7779.00,1.05
7778.00,1.06
7777.00,1.06
7776.00,1.06
7775.00,1.06
7774.00,1.06
7773.00,1.06
7772.00,1.06
7771.00,1.06
7770.00,1.06
7769.00,1.06
7768.00,1.06
7767.00,1.06
7766.00,1.06
7765.00,1.06
7764.00,1.06
7763.00,1.06
7762.00,1.06
7761.00,1.06
7760.00,1.06
7759.00,1.06
7758.00,1.06
7757.00,1.06
7756.00,1.06
7755.00,1.06
7754.00,1.06
7753.00,1.06
7752.00,1.06
7751.00,1.06
7750.00,1.06
7749.00,1.06
7748.00,1.06
7747.00,1.06
7746.00,1.07
7745.00,1.07
7744.00,1.07
7743.00,1.07
7742.00,1.07
7741.00,1.07
7740.00,1.07
7739.00,1.07
7738.00,1.07
7737.00,1.07
7736.00,1.07
7735.00,1.07
7734.00,1.07
7733.00,1.07
7732.00,1.07
7731.00,1.07
7730.00,1.07
7729.00,1.07
7728.00,1.07
7727.00,1.07
7726.00,1.07
7725.00,1.07
7724.00,1.07
7723.00,1.07
7722.00,1.07
7721.00,1.07
7720.00,1.07
7719.00,1.07
7718.00,1.07
7717.00,1.06
7716.00,1.06
7715.00,1.06
7714.00,1.06
7713.00,1.06
7712.00,1.06
7711.00,1.06
7710.00,1.06
7709.00,1.06
7708.00,1.06
7707.00,1.06
7706.00,1.06
7705.00,1.06
7704.00,1.06
7703.00,1.06
7702.00,1.06
7701.00,1.06
7700.00,1.06
7699.00,1.06
7698.00,1.06
7697.00,1.06
7696.00,1.06
7695.00,1.06
7694.00,1.06
7693.00,1.06
7692.00,1.06
7691.00,1.06
7690.00,1.06
7689.00,1.06
7688.00,1.07
7687.00,1.07
7686.00,1.07
7685.00,1.07
7684.00,1.07
7683.00,1.07
7682.00,1.07
7681.00,1.07
7680.00,1.07
7679.00,1.07
7678.00,1.07
7677.00,1.07
7676.00,1.07
7675.00,1.07
7674.00,1.07
7673.00,1.07
7672.00,1.07
7671.00,1.07
7670.00,1.07
7669.00,1.07
7668.00,1.07
7667.00,1.07
7666.00,1.07
7665.00,1.07
7664.00,1.07
7663.00,1.07
7662.00,1.07
7661.00,1.07
7660.00,1.07
7659.00,1.07
7658.00,1.07
7657.00,1.07
7656.00,1.07
7655.00,1.07
7654.00,1.07
7653.00,1.07
7652.00,1.07
7651.00,1.07
7650.00,1.07
7649.00,1.07
7648.00,1.07
7647.00,1.07
7646.00,1.07
7645.00,1.07
7644.00,1.07
7643.00,1.07
7642.00,1.07
7641.00,1.07
7640.00,1.07
7639.00,1.07
7638.00,1.07
7637.00,1.07
7636.00,1.07
7635.00,1.07
7634.00,1.07
7633.00,1.07
7632.00,1.07
7631.00,1.07
7630.00,1.07
7629.00,1.07
7628.00,1.07
7627.00,1.07
7626.00,1.06
7625.00,1.06
7624.00,1.06
7623.00,1.06
7622.00,1.06
7621.00,1.06
7620.00,1.06
7619.00,1.06
7618.00,1.06
7617.00,1.06
7616.00,1.06
7615.00,1.06
7614.00,1.06
7613.00,1.06
7612.00,1.06
7611.00,1.05
7610.00,1.05
7609.00,1.05
7608.00,1.05
7607.00,1.05
7606.00,1.05
7605.00,1.05
7604.00,1.05
7603.00,1.05
7602.00,1.05
7601.00,1.06
7600.00,1.06
7599.00,1.06
7598.00,1.06
7597.00,1.06
7596.00,1.06
7595.00,1.06
7594.00,1.06
7593.00,1.06
7592.00,1.06
7591.00,1.06
7590.00,1.06
7589.00,1.06
7588.00,1.06
7587.00,1.06
7586.00,1.06
7585.00,1.06
7584.00,1.06
7583.00,1.06
7582.00,1.06
7581.00,1.06
7580.00,1.06
7579.00,1.06
7578.00,1.06
7577.00,1.06
7576.00,1.06
7575.00,1.06
7574.00,1.06
7573.00,1.06
7572.00,1.06
7571.00,1.06
7570.00,1.06
7569.00,1.06
7568.00,1.06
7567.00,1.06
7566.00,1.07
7565.00,1.07
7564.00,1.07
7563.00,1.07
7562.00,1.07
7561.00,1.07
7560.00,1.07
7559.00,1.07
7558.00,1.07
7557.00,1.07
7556.00,1.07
7555.00,1.07
7554.00,1.06
7553.00,1.06
7552.00,1.06
7551.00,1.06
7550.00,1.06
7549.00,1.06
7548.00,1.06
7547.00,1.06
7546.00,1.06
7545.00,1.06
7544.00,1.06
7543.00,1.05
7542.00,1.05
7541.00,1.05
7540.00,1.05
7539.00,1.05
7538.00,1.05
7537.00,1.05
7536.00,1.05
7535.00,1.05
7534.00,1.05
7533.00,1.05
7532.00,1.05
7531.00,1.05
7530.00,1.05
7529.00,1.05
7528.00,1.05
7527.00,1.05
7526.00,1.05
7525.00,1.05
7524.00,1.05
7523.00,1.05
7522.00,1.05
7521.00,1.05
7520.00,1.05
7519.00,1.05
7518.00,1.05
7517.00,1.05
7516.00,1.05
7515.00,1.05
7514.00,1.05
7513.00,1.05
7512.00,1.05
7511.00,1.05
7510.00,1.05
7509.00,1.05
7508.00,1.05
7507.00,1.05
7506.00,1.05
7505.00,1.05
7504.00,1.05
7503.00,1.05
7502.00,1.05
7501.00,1.05
7500.00,1.05
7499.00,1.05
7498.00,1.05
7497.00,1.05
7496.00,1.04
7495.00,1.04
7494.00,1.04
7493.00,1.04
7492.00,1.04
7491.00,1.04
7490.00,1.04
7489.00,1.04
7488.00,1.04
7487.00,1.04
7486.00,1.04
7485.00,1.04
7484.00,1.03
7483.00,1.03
7482.00,1.03
7481.00,1.03
7480.00,1.03
7479.00,1.03
7478.00,1.03
7477.00,1.03
7476.00,1.03
7475.00,1.03
7474.00,1.03
7473.00,1.03
7472.00,1.03
7471.00,1.03
7470.00,1.03
7469.00,1.03
7468.00,1.03
7467.00,1.03
7466.00,1.03
7465.00,1.03
7464.00,1.03
7463.00,1.03
7462.00,1.03
7461.00,1.03
7460.00,1.03
7459.00,1.03
7458.00,1.03
7457.00,1.03
7456.00,1.03
7455.00,1.03
7454.00,1.03
7453.00,1.02
7452.00,1.02
7451.00,1.02
7450.00,1.02
7449.00,1.02
7448.00,1.02
7447.00,1.02
7446.00,1.02
7445.00,1.02
7444.00,1.02
7443.00,1.02
7442.00,1.02
7441.00,1.02
7440.00,1.02
7439.00,1.02
7438.00,1.02
7437.00,1.02
7436.00,1.02
7435.00,1.02
7434.00,1.02
7433.00,1.02
7432.00,1.01
7431.00,1.01
7430.00,1.01
7429.00,1.01
7428.00,1.01
7427.00,1.01
7426.00,1.01
7425.00,1.01
7424.00,1.01
7423.00,1.01
7422.00,1.01
7421.00,1.01
7420.00,1.01
7419.00,1.01
7418.00,1.01
7417.00,1.00
7416.00,1.00
7415.00,1.00
7414.00,1.00
7413.00,1.00
7412.00,1.00
7411.00,1.00
7410.00,1.00
7409.00,1.00
7408.00,1.00
7407.00,1.00
7406.00,1.00
7405.00,1.00
7404.00,1.00
7403.00,1.00
7402.00,1.00
7401.00,1.00
7400.00,1.00
7399.00,0.99
7398.00,0.99
7397.00,0.99
7396.00,0.99
7395.00,0.99
7394.00,0.99
7393.00,0.99
7392.00,0.99
7391.00,0.99
7390.00,0.99
7389.00,0.99
7388.00,0.99
7387.00,0.98
7386.00,0.98
7385.00,0.98
7384.00,0.98
7383.00,0.98
7382.00,0.98
7381.00,0.98
7380.00,0.98
7379.00,0.98
7378.00,0.98
7377.00,0.98
7376.00,0.98
7375.00,0.98
7374.00,0.98
7373.00,0.98
7372.00,0.97
7371.00,0.97
7370.00,0.97
7369.00,0.97
7368.00,0.97
7367.00,0.97
7366.00,0.97
7365.00,0.97
7364.00,0.97
7363.00,0.97
7362.00,0.97
7361.00,0.96
7360.00,0.96
7359.00,0.96
7358.00,0.96
7357.00,0.96
7356.00,0.96
7355.00,0.96
7354.00,0.96
7353.00,0.96
7352.00,0.96
7351.00,0.96
7350.00,0.96
7349.00,0.96
7348.00,0.96
7347.00,0.96
7346.00,0.96
7345.00,0.96
7344.00,0.96
7343.00,0.96
7342.00,0.96
7341.00,0.96
7340.00,0.96
7339.00,0.96
7338.00,0.96
7337.00,0.96
7336.00,0.96
7335.00,0.96
7334.00,0.96
7333.00,0.96
7332.00,0.96
7331.00,0.96
7330.00,0.96
7329.00,0.96
7328.00,0.96
7327.00,0.96
7326.00,0.96
7325.00,0.96
7324.00,0.96
7323.00,0.96
7322.00,0.96
7321.00,0.96
7320.00,0.95
7319.00,0.95
7318.00,0.95
7317.00,0.95
7316.00,0.95
7315.00,0.95
7314.00,0.95
7313.00,0.95
7312.00,0.95
7311.00,0.94
7310.00,0.94
7309.00,0.94
7308.00,0.94
7307.00,0.94
7306.00,0.94
7305.00,0.94
7304.00,0.94
7303.00,0.94
7302.00,0.94
7301.00,0.94
7300.00,0.94
7299.00,0.94
7298.00,0.94
7297.00,0.94
7296.00,0.94
7295.00,0.93
7294.00,0.93
7293.00,0.93
7292.00,0.93
7291.00,0.93
7290.00,0.93
7289.00,0.93
7288.00,0.93
7287.00,0.93
7286.00,0.93
7285.00,0.93
7284.00,0.93
7283.00,0.93
7282.00,0.93
7281.00,0.93
7280.00,0.92
7279.00,0.92
7278.00,0.92
7277.00,0.92
7276.00,0.92
7275.00,0.92
7274.00,0.92
7273.00,0.91
7272.00,0.91
7271.00,0.91
7270.00,0.91
7269.00,0.91
7268.00,0.91
7267.00,0.91
7266.00,0.91
7265.00,0.90
7264.00,0.90
7263.00,0.90
7262.00,0.90
7261.00,0.90
7260.00,0.90
7259.00,0.90
7258.00,0.90
7257.00,0.90
7256.00,0.90
7255.00,0.89
7254.00,0.89
7253.00,0.89
7252.00,0.89
7251.00,0.89
7250.00,0.89
7249.00,0.88
7248.00,0.88
7247.00,0.88
7246.00,0.88
7245.00,0.88
7244.00,0.87
7243.00,0.87
7242.00,0.87
7241.00,0.86
7240.00,0.86
7239.00,0.86
7238.00,0.86
7237.00,0.85
7236.00,0.85
7235.00,0.85
7234.00,0.84
7233.00,0.84
7232.00,0.84
7231.00,0.83
7230.00,0.83
7229.00,0.83
7228.00,0.83
7227.00,0.82
7226.00,0.82
7225.00,0.82
7224.00,0.82
7223.00,0.81
7222.00,0.81
7221.00,0.81
7220.00,0.81
7219.00,0.80
7218.00,0.80
7217.00,0.80
7216.00,0.80
7215.00,0.79
7214.00,0.79
7213.00,0.79
7212.00,0.79
7211.00,0.78
7210.00,0.78
7209.00,0.78
7208.00,0.77
7207.00,0.77
7206.00,0.77
7205.00,0.76
7204.00,0.76
7203.00,0.76
7202.00,0.75
7201.00,0.75
7200.00,0.75
7199.00,0.74
7198.00,0.74
7197.00,0.74
7196.00,0.74
7195.00,0.73
7194.00,0.73
7193.00,0.73
7192.00,0.72
7191.00,0.72
7190.00,0.72
7189.00,0.71
7188.00,0.71
7187.00,0.71
7186.00,0.71
7185.00,0.70
7184.00,0.70
7183.00,0.70
7182.00,0.69
7181.00,0.69
7180.00,0.69
7179.00,0.68
7178.00,0.68
7177.00,0.68
7176.00,0.68
7175.00,0.67
7174.00,0.67
7173.00,0.67
7172.00,0.66
7171.00,0.66
7170.00,0.66
7169.00,0.66
7168.00,0.65
7167.00,0.65
7166.00,0.65
7165.00,0.65
7164.00,0.64
7163.00,0.64
7162.00,0.64
7161.00,0.64
7160.00,0.64
7159.00,0.63
7158.00,0.63
7157.00,0.63
7156.00,0.63
7155.00,0.62
7154.00,0.62
7153.00,0.62
7152.00,0.62
7151.00,0.61
7150.00,0.61
7149.00,0.61
7148.00,0.60
7147.00,0.60
7146.00,0.60
7145.00,0.60
7144.00,0.59
7143.00,0.59
7142.00,0.59
7141.00,0.59
7140.00,0.59
7139.00,0.58
7138.00,0.58
7137.00,0.58
7136.00,0.58
7135.00,0.58
7134.00,0.57
7133.00,0.57
7132.00,0.57
7131.00,0.57
7130.00,0.57
7129.00,0.56
7128.00,0.56
7127.00,0.56
7126.00,0.56
7125.00,0.55
7124.00,0.55
7123.00,0.55
7122.00,0.55
7121.00,0.54
7120.00,0.54
7119.00,0.54
7118.00,0.54
7117.00,0.53
7116.00,0.53
7115.00,0.53
7114.00,0.53
7113.00,0.53
7112.00,0.52
7111.00,0.52
7110.00,0.52
7109.00,0.52
7108.00,0.52
7107.00,0.51
7106.00,0.51
7105.00,0.51
7104.00,0.51
7103.00,0.51
7102.00,0.51
7101.00,0.51
7100.00,0.50
7099.00,0.50
7098.00,0.50
7097.00,0.50
7096.00,0.50
7095.00,0.50
7094.00,0.49
7093.00,0.49
7092.00,0.49
7091.00,0.49
7090.00,0.49
7089.00,0.49
7088.00,0.49
7087.00,0.48
7086.00,0.48
7085.00,0.48
7084.00,0.48
7083.00,0.48
7082.00,0.48
7081.00,0.48
7080.00,0.48
7079.00,0.48
7078.00,0.48
7077.00,0.48
7076.00,0.47
7075.00,0.47
7074.00,0.47
7073.00,0.47
7072.00,0.47
7071.00,0.47
7070.00,0.47
7069.00,0.47
7068.00,0.47
7067.00,0.47
7066.00,0.47
7065.00,0.47
7064.00,0.47
7063.00,0.47
7062.00,0.46
7061.00,0.46
7060.00,0.46
7059.00,0.46
7058.00,0.46
7057.00,0.46
7056.00,0.46
7055.00,0.46
7054.00,0.46
7053.00,0.46
7052.00,0.45
7051.00,0.45
7050.00,0.45
7049.00,0.45
7048.00,0.45
7047.00,0.45
7046.00,0.45
7045.00,0.45
7044.00,0.45
7043.00,0.45
7042.00,0.45
7041.00,0.44
7040.00,0.44
7039.00,0.44
7038.00,0.44
7037.00,0.44
7036.00,0.44
7035.00,0.44
7034.00,0.44
7033.00,0.44
7032.00,0.43
7031.00,0.43
7030.00,0.43
7029.00,0.43
7028.00,0.43
7027.00,0.43
7026.00,0.43
7025.00,0.43
7024.00,0.43
7023.00,0.42
7022.00,0.42
7021.00,0.42
7020.00,0.42
7019.00,0.42
7018.00,0.42
7017.00,0.42
7016.00,0.42
7015.00,0.42
7014.00,0.42
7013.00,0.42
7012.00,0.42
7011.00,0.42
7010.00,0.42
7009.00,0.42
7008.00,0.42
7007.00,0.42
7006.00,0.42
7005.00,0.42
7004.00,0.42
7003.00,0.42
7002.00,0.42
7001.00,0.42
7000.00,0.42
6999.00,0.41
6998.00,0.41
6997.00,0.41
6996.00,0.41
6995.00,0.41
6994.00,0.41
6993.00,0.41
6992.00,0.41
6991.00,0.41
6990.00,0.41
6989.00,0.41
6988.00,0.41
6987.00,0.41
6986.00,0.41
6985.00,0.41
6984.00,0.41
6983.00,0.41
6982.00,0.41
6981.00,0.41
6980.00,0.41
6979.00,0.41
6978.00,0.41
6977.00,0.41
6976.00,0.40
6975.00,0.40
6974.00,0.40
6973.00,0.40
6972.00,0.40
6971.00,0.40
6970.00,0.40
6969.00,0.40
6968.00,0.40
6967.00,0.40
6966.00,0.40
6965.00,0.40
6964.00,0.40
6963.00,0.40
6962.00,0.40
6961.00,0.40
6960.00,0.40
6959.00,0.40
6958.00,0.40
6957.00,0.40
6956.00,0.40
6955.00,0.40
6954.00,0.40
6953.00,0.40
6952.00,0.40
6951.00,0.40
6950.00,0.40
6949.00,0.40
6948.00,0.40
6947.00,0.40
6946.00,0.40
6945.00,0.40
6944.00,0.40
6943.00,0.39
6942.00,0.39
6941.00,0.39
6940.00,0.39
6939.00,0.39
6938.00,0.39
6937.00,0.39
6936.00,0.39
6935.00,0.39
6934.00,0.39
6933.00,0.39
6932.00,0.39
6931.00,0.39
6930.00,0.39
6929.00,0.39
6928.00,0.39
6927.00,0.39
6926.00,0.39
6925.00,0.39
6924.00,0.39
6923.00,0.39
6922.00,0.39
6921.00,0.39
6920.00,0.39
6919.00,0.39
6918.00,0.39
6917.00,0.39
6916.00,0.39
6915.00,0.39
6914.00,0.39
6913.00,0.39
6912.00,0.39
6911.00,0.39
6910.00,0.39
6909.00,0.39
6908.00,0.39
6907.00,0.39
6906.00,0.39
6905.00,0.39
6904.00,0.39
6903.00,0.39
6902.00,0.39
6901.00,0.39
6900.00,0.39
6899.00,0.39
6898.00,0.39
6897.00,0.39
6896.00,0.39
6895.00,0.39
6894.00,0.39
6893.00,0.39
6892.00,0.39
6891.00,0.39
6890.00,0.39
6889.00,0.39
6888.00,0.39
6887.00,0.39
6886.00,0.39
6885.00,0.39
6884.00,0.39
6883.00,0.39
6882.00,0.39
6881.00,0.39
6880.00,0.39
6879.00,0.39
6878.00,0.39
6877.00,0.39
6876.00,0.39
6875.00,0.39
6874.00,0.39
6873.00,0.39
6872.00,0.39
6871.00,0.39
6870.00,0.39
6869.00,0.39
6868.00,0.39
6867.00,0.39
6866.00,0.39
6865.00,0.39
6864.00,0.39
6863.00,0.39
6862.00,0.39
6861.00,0.39
6860.00,0.39
6859.00,0.39
6858.00,0.39
6857.00,0.39
6856.00,0.39
6855.00,0.39
6854.00,0.39
6853.00,0.39
6852.00,0.39
6851.00,0.39
6850.00,0.39
6849.00,0.40
6848.00,0.40
6847.00,0.40
6846.00,0.40
6845.00,0.40
6844.00,0.40
6843.00,0.40
6842.00,0.40
6841.00,0.40
6840.00,0.40
6839.00,0.40
6838.00,0.40
6837.00,0.40
6836.00,0.40
6835.00,0.40
6834.00,0.40
6833.00,0.40
6832.00,0.40
6831.00,0.40
6830.00,0.40
6829.00,0.40
6828.00,0.40
6827.00,0.40
6826.00,0.40
6825.00,0.40
6824.00,0.40
6823.00,0.40
6822.00,0.40
6821.00,0.40
6820.00,0.40
6819.00,0.40
6818.00,0.40
6817.00,0.40
6816.00,0.40
6815.00,0.40
6814.00,0.40
6813.00,0.40
6812.00,0.40
6811.00,0.40
6810.00,0.40
6809.00,0.40
6808.00,0.40
6807.00,0.40
6806.00,0.40
6805.00,0.40
6804.00,0.40
6803.00,0.40
6802.00,0.40
6801.00,0.40
6800.00,0.40
6799.00,0.40
6798.00,0.40
6797.00,0.40
6796.00,0.41
6795.00,0.41
6794.00,0.41
6793.00,0.41
6792.00,0.41
6791.00,0.41
6790.00,0.41
6789.00,0.41
6788.00,0.41
6787.00,0.41
6786.00,0.41
6785.00,0.41
6784.00,0.41
6783.00,0.41
6782.00,0.41
6781.00,0.41
6780.00,0.41
6779.00,0.41
6778.00,0.41
6777.00,0.41
6776.00,0.41
6775.00,0.41
6774.00,0.41
6773.00,0.41
6772.00,0.41
6771.00,0.41
6770.00,0.42
6769.00,0.42
6768.00,0.42
6767.00,0.42
6766.00,0.42
6765.00,0.42
6764.00,0.42
6763.00,0.42
6762.00,0.42
6761.00,0.42
6760.00,0.42
6759.00,0.42
6758.00,0.42
6757.00,0.42
6756.00,0.43
6755.00,0.43
6754.00,0.43
6753.00,0.43
6752.00,0.43
6751.00,0.43
6750.00,0.43
6749.00,0.43
6748.00,0.43
6747.00,0.43
6746.00,0.43
6745.00,0.43
6744.00,0.43
6743.00,0.43
6742.00,0.43
6741.00,0.43
6740.00,0.43
6739.00,0.44
6738.00,0.44
6737.00,0.44
6736.00,0.44
6735.00,0.44
6734.00,0.44
6733.00,0.44
6732.00,0.44
6731.00,0.44
6730.00,0.44
6729.00,0.44
6728.00,0.44
6727.00,0.44
6726.00,0.44
6725.00,0.44
6724.00,0.44
6723.00,0.44
6722.00,0.44
6721.00,0.44
6720.00,0.45
6719.00,0.45
6718.00,0.45
6717.00,0.45
6716.00,0.45
6715.00,0.45
6714.00,0.45
6713.00,0.45
6712.00,0.45
6711.00,0.45
6710.00,0.45
6709.00,0.45
6708.00,0.45
6707.00,0.45
6706.00,0.46
6705.00,0.46
6704.00,0.46
6703.00,0.46
6702.00,0.46
6701.00,0.46
6700.00,0.46
6699.00,0.46
6698.00,0.46
6697.00,0.46
6696.00,0.46
6695.00,0.46
6694.00,0.46
6693.00,0.46
6692.00,0.47
6691.00,0.47
6690.00,0.47
6689.00,0.47
6688.00,0.47
6687.00,0.47
6686.00,0.47
6685.00,0.47
6684.00,0.47
6683.00,0.47
6682.00,0.47
6681.00,0.47
6680.00,0.47
6679.00,0.47
6678.00,0.47
6677.00,0.47
6676.00,0.47
6675.00,0.47
6674.00,0.47
6673.00,0.47
6672.00,0.47
6671.00,0.48
6670.00,0.48
6669.00,0.48
6668.00,0.48
6667.00,0.48
6666.00,0.48
6665.00,0.49
6664.00,0.49
6663.00,0.49
6662.00,0.49
6661.00,0.49
6660.00,0.49
6659.00,0.49
6658.00,0.49
6657.00,0.49
6656.00,0.49
6655.00,0.49
6654.00,0.50
6653.00,0.50
6652.00,0.50
6651.00,0.50
6650.00,0.50
6649.00,0.50
6648.00,0.50
6647.00,0.50
6646.00,0.50
6645.00,0.50
6644.00,0.50
6643.00,0.50
6642.00,0.50
6641.00,0.50
6640.00,0.50
6639.00,0.50
6638.00,0.50
6637.00,0.50
6636.00,0.51
6635.00,0.51
6634.00,0.51
6633.00,0.51
6632.00,0.51
6631.00,0.51
6630.00,0.51
6629.00,0.51
6628.00,0.51
6627.00,0.51
6626.00,0.52
6625.00,0.52
6624.00,0.52
6623.00,0.52
6622.00,0.52
6621.00,0.52
6620.00,0.52
6619.00,0.52
6618.00,0.52
6617.00,0.52
6616.00,0.52
6615.00,0.52
6614.00,0.53
6613.00,0.53
6612.00,0.53
6611.00,0.53
6610.00,0.53
6609.00,0.53
6608.00,0.53
6607.00,0.53
6606.00,0.53
6605.00,0.53
6604.00,0.53
6603.00,0.53
6602.00,0.53
6601.00,0.53
6600.00,0.53
6599.00,0.53
6598.00,0.53
6597.00,0.53
6596.00,0.53
6595.00,0.53
6594.00,0.54
6593.00,0.54
6592.00,0.54
6591.00,0.54
6590.00,0.54
6589.00,0.54
6588.00,0.54
6587.00,0.55
6586.00,0.55
6585.00,0.55
6584.00,0.55
6583.00,0.55
6582.00,0.55
6581.00,0.55
6580.00,0.55
6579.00,0.55
6578.00,0.55
6577.00,0.56
6576.00,0.56
6575.00,0.56
6574.00,0.56
6573.00,0.56
6572.00,0.56
6571.00,0.56
6570.00,0.56
6569.00,0.56
6568.00,0.56
6567.00,0.56
6566.00,0.56
6565.00,0.56
6564.00,0.56
6563.00,0.56
6562.00,0.56
6561.00,0.56
6560.00,0.56
6559.00,0.56
6558.00,0.57
6557.00,0.57
6556.00,0.57
6555.00,0.57
6554.00,0.57
6553.00,0.57
6552.00,0.57
6551.00,0.57
6550.00,0.57
6549.00,0.57
6548.00,0.58
6547.00,0.58
6546.00,0.58
6545.00,0.58
6544.00,0.58
6543.00,0.58
6542.00,0.58
6541.00,0.58
6540.00,0.58
6539.00,0.58
6538.00,0.58
6537.00,0.58
6536.00,0.58
6535.00,0.58
6534.00,0.58
6533.00,0.58
6532.00,0.59
6531.00,0.59
6530.00,0.59
6529.00,0.59
6528.00,0.59
6527.00,0.59
6526.00,0.59
6525.00,0.59
6524.00,0.59
6523.00,0.59
6522.00,0.60
6521.00,0.60
6520.00,0.60
6519.00,0.60
6518.00,0.60
6517.00,0.60
6516.00,0.60
6515.00,0.60
6514.00,0.60
6513.00,0.60
6512.00,0.60
6511.00,0.60
6510.00,0.60
6509.00,0.61
6508.00,0.61
6507.00,0.61
6506.00,0.61
6505.00,0.61
6504.00,0.61
6503.00,0.61
6502.00,0.61
6501.00,0.61
6500.00,0.61
6499.00,0.61
6498.00,0.61
6497.00,0.61
6496.00,0.61
6495.00,0.61
6494.00,0.61
6493.00,0.62
6492.00,0.62
6491.00,0.62
6490.00,0.62
6489.00,0.62
6488.00,0.62
6487.00,0.62
6486.00,0.62
6485.00,0.62
6484.00,0.62
6483.00,0.62
6482.00,0.62
6481.00,0.62
6480.00,0.62
6479.00,0.62
6478.00,0.62
6477.00,0.63
6476.00,0.63
6475.00,0.63
6474.00,0.63
6473.00,0.63
6472.00,0.63
6471.00,0.63
6470.00,0.63
6469.00,0.63
6468.00,0.63
6467.00,0.63
6466.00,0.63
6465.00,0.63
6464.00,0.63
6463.00,0.63
6462.00,0.63
6461.00,0.64
6460.00,0.64
6459.00,0.64
6458.00,0.64
6457.00,0.64
6456.00,0.64
6455.00,0.64
6454.00,0.64
6453.00,0.64
6452.00,0.64
6451.00,0.64
6450.00,0.64
6449.00,0.64
6448.00,0.64
6447.00,0.64
6446.00,0.64
6445.00,0.64
6444.00,0.64
6443.00,0.65
6442.00,0.65
6441.00,0.65
6440.00,0.65
6439.00,0.65
6438.00,0.65
6437.00,0.65
6436.00,0.65
6435.00,0.65
6434.00,0.65
6433.00,0.65
6432.00,0.65
6431.00,0.65
6430.00,0.65
6429.00,0.65
6428.00,0.65
6427.00,0.66
6426.00,0.66
6425.00,0.66
6424.00,0.66
6423.00,0.66
6422.00,0.66
6421.00,0.66
6420.00,0.66
6419.00,0.66
6418.00,0.66
6417.00,0.66
6416.00,0.66
6415.00,0.66
6414.00,0.66
6413.00,0.66
6412.00,0.66
6411.00,0.66
6410.00,0.66
6409.00,0.66
6408.00,0.67
6407.00,0.67
6406.00,0.67
6405.00,0.67
6404.00,0.67
6403.00,0.67
6402.00,0.67
6401.00,0.67
6400.00,0.67
6399.00,0.67
6398.00,0.67
6397.00,0.67
6396.00,0.67
6395.00,0.68
6394.00,0.68
6393.00,0.68
6392.00,0.68
6391.00,0.68
6390.00,0.68
6389.00,0.68
6388.00,0.68
6387.00,0.68
6386.00,0.68
6385.00,0.68
6384.00,0.68
6383.00,0.68
6382.00,0.68
6381.00,0.68
6380.00,0.68
6379.00,0.68
6378.00,0.68
6377.00,0.68
6376.00,0.68
6375.00,0.68
6374.00,0.68
6373.00,0.69
6372.00,0.69
6371.00,0.69
6370.00,0.69
6369.00,0.69
6368.00,0.69
6367.00,0.69
6366.00,0.69
6365.00,0.69
6364.00,0.70
6363.00,0.70
6362.00,0.70
6361.00,0.70
6360.00,0.70
6359.00,0.70
6358.00,0.70
6357.00,0.70
6356.00,0.70
6355.00,0.70
6354.00,0.71
6353.00,0.71
6352.00,0.71
6351.00,0.71
6350.00,0.71
6349.00,0.71
6348.00,0.71
6347.00,0.71
6346.00,0.71
6345.00,0.71
6344.00,0.71
6343.00,0.71
6342.00,0.71
6341.00,0.71
6340.00,0.71
6339.00,0.71
6338.00,0.72
6337.00,0.72
6336.00,0.72
6335.00,0.72
6334.00,0.72
6333.00,0.72
6332.00,0.72
6331.00,0.72
6330.00,0.72
6329.00,0.72
6328.00,0.73
6327.00,0.73
6326.00,0.73
6325.00,0.73
6324.00,0.73
6323.00,0.73
6322.00,0.73
6321.00,0.73
6320.00,0.74
6319.00,0.74
6318.00,0.74
6317.00,0.74
6316.00,0.74
6315.00,0.74
6314.00,0.74
6313.00,0.74
6312.00,0.74
6311.00,0.74
6310.00,0.75
6309.00,0.75
6308.00,0.75
6307.00,0.75
6306.00,0.75
6305.00,0.75
6304.00,0.75
6303.00,0.75
6302.00,0.75
6301.00,0.75
6300.00,0.75
6299.00,0.75
6298.00,0.75
6297.00,0.76
6296.00,0.76
6295.00,0.76
6294.00,0.76
6293.00,0.76
6292.00,0.76
6291.00,0.76
6290.00,0.76
6289.00,0.76
6288.00,0.76
6287.00,0.76
6286.00,0.76
6285.00,0.77
6284.00,0.77
6283.00,0.77
6282.00,0.77
6281.00,0.77
6280.00,0.77
6279.00,0.77
6278.00,0.77
6277.00,0.77
6276.00,0.77
6275.00,0.77
6274.00,0.77
6273.00,0.78
6272.00,0.78
6271.00,0.78
6270.00,0.78
6269.00,0.78
6268.00,0.78
6267.00,0.78
6266.00,0.78
6265.00,0.78
6264.00,0.79
6263.00,0.79
6262.00,0.79
6261.00,0.79
6260.00,0.79
6259.00,0.79
6258.00,0.79
6257.00,0.79
6256.00,0.79
6255.00,0.80
6254.00,0.80
6253.00,0.80
6252.00,0.80
6251.00,0.80
6250.00,0.80
6249.00,0.80
6248.00,0.80
6247.00,0.80
6246.00,0.80
6245.00,0.80
6244.00,0.80
6243.00,0.81
6242.00,0.81
6241.00,0.81
6240.00,0.81
6239.00,0.81
6238.00,0.81
6237.00,0.81
6236.00,0.81
6235.00,0.81
6234.00,0.81
6233.00,0.82
6232.00,0.82
6231.00,0.82
6230.00,0.82
6229.00,0.82
6228.00,0.82
6227.00,0.82
6226.00,0.82
6225.00,0.82
6224.00,0.82
6223.00,0.82
6222.00,0.83
6221.00,0.83
6220.00,0.83
6219.00,0.83
6218.00,0.83
6217.00,0.83
6216.00,0.83
6215.00,0.83
6214.00,0.83
6213.00,0.83
6212.00,0.84
6211.00,0.84
6210.00,0.84
6209.00,0.84
6208.00,0.84
6207.00,0.84
6206.00,0.84
6205.00,0.84
6204.00,0.84
6203.00,0.84
6202.00,0.84
6201.00,0.85
6200.00,0.85
6199.00,0.85
6198.00,0.85
6197.00,0.85
6196.00,0.85
6195.00,0.85
6194.00,0.85
6193.00,0.85
6192.00,0.86
6191.00,0.86
6190.00,0.86
6189.00,0.86
6188.00,0.86
6187.00,0.86
6186.00,0.86
6185.00,0.86
6184.00,0.87
6183.00,0.87
6182.00,0.87
6181.00,0.87
6180.00,0.87
6179.00,0.87
6178.00,0.88
6177.00,0.88
6176.00,0.88
6175.00,0.88
6174.00,0.88
6173.00,0.89
6172.00,0.89
6171.00,0.89
6170.00,0.89
6169.00,0.89
6168.00,0.89
6167.00,0.89
6166.00,0.90
6165.00,0.90
6164.00,0.90
6163.00,0.90
6162.00,0.90
6161.00,0.90
6160.00,0.90
6159.00,0.90
6158.00,0.90
6157.00,0.90
6156.00,0.90
6155.00,0.91
6154.00,0.91
6153.00,0.91
6152.00,0.91
6151.00,0.91
6150.00,0.91
6149.00,0.91
6148.00,0.91
6147.00,0.92
6146.00,0.92
6145.00,0.92
6144.00,0.92
6143.00,0.92
6142.00,0.92
6141.00,0.92
6140.00,0.92
6139.00,0.93
6138.00,0.93
6137.00,0.93
6136.00,0.93
6135.00,0.93
6134.00,0.93
6133.00,0.93
6132.00,0.93
6131.00,0.93
6130.00,0.93
6129.00,0.94
6128.00,0.94
6127.00,0.94
6126.00,0.94
6125.00,0.94
6124.00,0.94
6123.00,0.94
6122.00,0.94
6121.00,0.94
6120.00,0.94
6119.00,0.94
6118.00,0.95
6117.00,0.95
6116.00,0.95
6115.00,0.95
6114.00,0.95
6113.00,0.95
6112.00,0.95
6111.00,0.95
6110.00,0.95
6109.00,0.96
6108.00,0.96
6107.00,0.96
6106.00,0.96
6105.00,0.96
6104.00,0.96
6103.00,0.96
6102.00,0.96
6101.00,0.96
6100.00,0.97
6099.00,0.97
6098.00,0.97
6097.00,0.97
6096.00,0.97
6095.00,0.97
6094.00,0.97
6093.00,0.97
6092.00,0.97
6091.00,0.98
6090.00,0.98
6089.00,0.98
6088.00,0.98
6087.00,0.98
6086.00,0.98
6085.00,0.98
6084.00,0.98
6083.00,0.99
6082.00,0.99
6081.00,0.99
6080.00,0.99
6079.00,0.99
6078.00,0.99
6077.00,0.99
6076.00,0.99
6075.00,0.99
6074.00,0.99
6073.00,1.00
6072.00,1.00
6071.00,1.00
6070.00,1.00
6069.00,1.00
6068.00,1.00
6067.00,1.00
6066.00,1.00
6065.00,1.00
6064.00,1.00
6063.00,1.00
6062.00,1.01
6061.00,1.01
6060.00,1.01
6059.00,1.01
6058.00,1.01
6057.00,1.01
6056.00,1.01
6055.00,1.01
6054.00,1.01
6053.00,1.01
6052.00,1.01
6051.00,1.01
6050.00,1.01
6049.00,1.01
6048.00,1.01
6047.00,1.01
6046.00,1.01
6045.00,1.01
6044.00,1.01
6043.00,1.01
6042.00,1.01
6041.00,1.02
6040.00,1.02
6039.00,1.02
6038.00,1.02
6037.00,1.02
6036.00,1.02
6035.00,1.02
6034.00,1.02
6033.00,1.02
6032.00,1.02
6031.00,1.02
6030.00,1.02
6029.00,1.02
6028.00,1.02
6027.00,1.02
6026.00,1.03
6025.00,1.03
6024.00,1.03
6023.00,1.03
6022.00,1.03
6021.00,1.03
6020.00,1.03
6019.00,1.03
6018.00,1.03
6017.00,1.03
6016.00,1.03
6015.00,1.03
6014.00,1.03
6013.00,1.03
6012.00,1.03
6011.00,1.03
6010.00,1.03
6009.00,1.03
6008.00,1.03
6007.00,1.03
6006.00,1.03
6005.00,1.03
6004.00,1.03
6003.00,1.03
6002.00,1.03
6001.00,1.03
6000.00,1.02
5999.00,1.02
5998.00,1.02
5997.00,1.02
5996.00,1.02
5995.00,1.02
5994.00,1.02
5993.00,1.02
5992.00,1.02
5991.00,1.02
5990.00,1.02
5989.00,1.01
5988.00,1.01
5987.00,1.01
5986.00,1.01
5985.00,1.01
5984.00,1.00
5983.00,1.00
5982.00,1.00
5981.00,1.00
5980.00,0.99
5979.00,0.99
5978.00,0.99
5977.00,0.98
5976.00,0.98
5975.00,0.98
5974.00,0.97
5973.00,0.97
5972.00,0.97
5971.00,0.96
5970.00,0.96
5969.00,0.95
5968.00,0.95
5967.00,0.94
5966.00,0.94
5965.00,0.93
5964.00,0.93
5963.00,0.92
5962.00,0.92
5961.00,0.91
5960.00,0.91
5959.00,0.90
5958.00,0.90
5957.00,0.89
5956.00,0.89
5955.00,0.88
5954.00,0.88
5953.00,0.87
5952.00,0.87
5951.00,0.86
5950.00,0.86
5949.00,0.86
5948.00,0.85
5947.00,0.85
5946.00,0.85
5945.00,0.84
5944.00,0.84
5943.00,0.84
5942.00,0.84
5941.00,0.83
5940.00,0.83
5939.00,0.83
5938.00,0.83
5937.00,0.83
5936.00,0.83
5935.00,0.83
5934.00,0.83
5933.00,0.83
5932.00,0.83
5931.00,0.83
5930.00,0.83
5929.00,0.83
5928.00,0.83
5927.00,0.82
5926.00,0.82
5925.00,0.82
5924.00,0.82
5923.00,0.82
5922.00,0.82
5921.00,0.82
5920.00,0.82
5919.00,0.81
5918.00,0.81
5917.00,0.81
5916.00,0.81
5915.00,0.81
5914.00,0.80
5913.00,0.80
5912.00,0.80
5911.00,0.80
5910.00,0.80
5909.00,0.80
5908.00,0.79
5907.00,0.79
5906.00,0.79
5905.00,0.79
5904.00,0.79
5903.00,0.79
5902.00,0.79
5901.00,0.79
5900.00,0.79
5899.00,0.79
5898.00,0.79
5897.00,0.79
5896.00,0.79
5895.00,0.79
5894.00,0.80
5893.00,0.80
5892.00,0.80
5891.00,0.80
5890.00,0.80
5889.00,0.81
5888.00,0.81
5887.00,0.81
5886.00,0.81
5885.00,0.82
5884.00,0.82
5883.00,0.82
5882.00,0.82
5881.00,0.83
5880.00,0.83
5879.00,0.83
5878.00,0.83
5877.00,0.84
5876.00,0.84
5875.00,0.84
5874.00,0.84
5873.00,0.84
5872.00,0.84
5871.00,0.85
5870.00,0.85
5869.00,0.85
5868.00,0.85
5867.00,0.85
5866.00,0.85
5865.00,0.85
5864.00,0.85
5863.00,0.86
5862.00,0.86
5861.00,0.86
5860.00,0.86
5859.00,0.86
5858.00,0.86
5857.00,0.86
5856.00,0.86
5855.00,0.86
5854.00,0.86
5853.00,0.86
5852.00,0.86
5851.00,0.86
5850.00,0.86
5849.00,0.86
5848.00,0.86
5847.00,0.86
5846.00,0.86
5845.00,0.86
5844.00,0.86
5843.00,0.86
5842.00,0.86
5841.00,0.86
5840.00,0.86
5839.00,0.86
5838.00,0.86
5837.00,0.86
5836.00,0.86
5835.00,0.86
5834.00,0.86
5833.00,0.87
5832.00,0.87
5831.00,0.87
5830.00,0.87
5829.00,0.87
5828.00,0.87
5827.00,0.87
5826.00,0.87
5825.00,0.87
5824.00,0.87
5823.00,0.87
5822.00,0.87
5821.00,0.87
5820.00,0.87
5819.00,0.87
5818.00,0.87
5817.00,0.87
5816.00,0.87
5815.00,0.87
5814.00,0.87
5813.00,0.87
5812.00,0.87
5811.00,0.87
5810.00,0.87
5809.00,0.87
5808.00,0.87
5807.00,0.87
5806.00,0.87
5805.00,0.87
5804.00,0.87
5803.00,0.87
5802.00,0.86
5801.00,0.86
5800.00,0.86
5799.00,0.86
5798.00,0.86
5797.00,0.86
5796.00,0.86
5795.00,0.86
5794.00,0.85
5793.00,0.85
5792.00,0.85
5791.00,0.85
5790.00,0.85
5789.00,0.84
5788.00,0.84
5787.00,0.84
5786.00,0.84
5785.00,0.84
5784.00,0.83
5783.00,0.83
5782.00,0.83
5781.00,0.83
5780.00,0.83
5779.00,0.83
5778.00,0.82
5777.00,0.82
5776.00,0.82
5775.00,0.82
5774.00,0.82
5773.00,0.82
5772.00,0.82
5771.00,0.82
5770.00,0.82
5769.00,0.83
5768.00,0.83
5767.00,0.83
5766.00,0.83
5765.00,0.83
5764.00,0.83
5763.00,0.84
5762.00,0.84
5761.00,0.84
5760.00,0.84
5759.00,0.84
5758.00,0.85
5757.00,0.85
5756.00,0.85
5755.00,0.85
5754.00,0.85
5753.00,0.86
5752.00,0.86
5751.00,0.86
5750.00,0.86
5749.00,0.86
5748.00,0.87
5747.00,0.87
5746.00,0.87
5745.00,0.87
5744.00,0.87
5743.00,0.88
5742.00,0.88
5741.00,0.88
5740.00,0.88
5739.00,0.88
5738.00,0.89
5737.00,0.89
5736.00,0.89
5735.00,0.89
5734.00,0.89
5733.00,0.89
5732.00,0.89
5731.00,0.90
5730.00,0.90
5729.00,0.90
5728.00,0.90
5727.00,0.90
5726.00,0.90
5725.00,0.90
5724.00,0.90
5723.00,0.90
5722.00,0.90
5721.00,0.90
5720.00,0.90
5719.00,0.90
5718.00,0.90
5717.00,0.90
5716.00,0.90
5715.00,0.90
5714.00,0.90
5713.00,0.90
5712.00,0.90
5711.00,0.90
5710.00,0.90
5709.00,0.90
5708.00,0.90
5707.00,0.90
5706.00,0.90
5705.00,0.90
5704.00,0.89
5703.00,0.89
5702.00,0.89
5701.00,0.89
5700.00,0.89
5699.00,0.89
5698.00,0.89
5697.00,0.89
5696.00,0.88
5695.00,0.88
5694.00,0.88
5693.00,0.88
5692.00,0.88
5691.00,0.88
5690.00,0.88
5689.00,0.87
5688.00,0.87
5687.00,0.87
5686.00,0.87
5685.00,0.87
5684.00,0.87
5683.00,0.87
5682.00,0.87
5681.00,0.86
5680.00,0.86
5679.00,0.86
5678.00,0.86
5677.00,0.86
5676.00,0.86
5675.00,0.86
5674.00,0.86
5673.00,0.86
5672.00,0.86
5671.00,0.86
5670.00,0.86
5669.00,0.86
5668.00,0.86
5667.00,0.87
5666.00,0.87
5665.00,0.87
5664.00,0.87
5663.00,0.87
5662.00,0.87
5661.00,0.87
5660.00,0.87
5659.00,0.87
5658.00,0.87
5657.00,0.88
5656.00,0.88
5655.00,0.88
5654.00,0.88
5653.00,0.88
5652.00,0.88
5651.00,0.88
5650.00,0.88
5649.00,0.88
5648.00,0.89
5647.00,0.89
5646.00,0.89
5645.00,0.89
5644.00,0.89
5643.00,0.89
5642.00,0.89
5641.00,0.89
5640.00,0.90
5639.00,0.90
5638.00,0.90
5637.00,0.90
5636.00,0.90
5635.00,0.90
5634.00,0.90
5633.00,0.90
5632.00,0.91
5631.00,0.91
5630.00,0.91
5629.00,0.91
5628.00,0.91
5627.00,0.91
5626.00,0.91
5625.00,0.91
5624.00,0.92
5623.00,0.92
5622.00,0.92
5621.00,0.92
5620.00,0.92
5619.00,0.92
5618.00,0.92
5617.00,0.92
5616.00,0.92
5615.00,0.93
5614.00,0.93
5613.00,0.93
5612.00,0.93
5611.00,0.93
5610.00,0.93
5609.00,0.93
5608.00,0.93
5607.00,0.93
5606.00,0.94
5605.00,0.94
5604.00,0.94
5603.00,0.94
5602.00,0.94
5601.00,0.94
5600.00,0.94
5599.00,0.94
5598.00,0.95
5597.00,0.95
5596.00,0.95
5595.00,0.95
5594.00,0.95
5593.00,0.95
5592.00,0.95
5591.00,0.95
5590.00,0.95
5589.00,0.96
5588.00,0.96
5587.00,0.96
5586.00,0.96
5585.00,0.96
5584.00,0.96
5583.00,0.96
5582.00,0.97
5581.00,0.97
5580.00,0.97
5579.00,0.97
5578.00,0.97
5577.00,0.97
5576.00,0.97
5575.00,0.98
5574.00,0.98
5573.00,0.98
5572.00,0.98
5571.00,0.98
5570.00,0.98
5569.00,0.99
5568.00,0.99
5567.00,0.99
5566.00,0.99
5565.00,0.99
5564.00,0.99
5563.00,0.99
5562.00,0.99
5561.00,0.99
5560.00,0.99
5559.00,0.99
5558.00,1.00
5557.00,1.00
5556.00,1.00
5555.00,1.00
5554.00,1.00
5553.00,1.00
5552.00,1.00
5551.00,1.00
5550.00,1.00
5549.00,1.00
5548.00,1.00
5547.00,1.00
5546.00,1.00
5545.00,1.00
5544.00,1.01
5543.00,1.01
5542.00,1.01
5541.00,1.01
5540.00,1.01
5539.00,1.01
5538.00,1.01
5537.00,1.01
5536.00,1.01
5535.00,1.01
5534.00,1.01
5533.00,1.02
5532.00,1.02
5531.00,1.02
5530.00,1.02
5529.00,1.02
5528.00,1.02
5527.00,1.02
5526.00,1.02
5525.00,1.02
5524.00,1.02
5523.00,1.02
5522.00,1.02
5521.00,1.03
5520.00,1.03
5519.00,1.03
5518.00,1.03
5517.00,1.03
5516.00,1.03
5515.00,1.03
5514.00,1.03
5513.00,1.03
5512.00,1.03
5511.00,1.03
5510.00,1.03
5509.00,1.03
5508.00,1.03
5507.00,1.03
5506.00,1.03
5505.00,1.03
5504.00,1.03
5503.00,1.03
5502.00,1.03
5501.00,1.03
5500.00,1.03
5499.00,1.03
5498.00,1.03
5497.00,1.03
5496.00,1.03
5495.00,1.03
5494.00,1.03
5493.00,1.04
5492.00,1.04
5491.00,1.04
5490.00,1.04
5489.00,1.04
5488.00,1.04
5487.00,1.04
5486.00,1.04
5485.00,1.04
5484.00,1.05
5483.00,1.05
5482.00,1.05
5481.00,1.05
5480.00,1.05
5479.00,1.05
5478.00,1.05
5477.00,1.05
5476.00,1.05
5475.00,1.06
5474.00,1.06
5473.00,1.06
5472.00,1.06
5471.00,1.06
5470.00,1.06
5469.00,1.06
5468.00,1.06
5467.00,1.06
5466.00,1.06
5465.00,1.06
5464.00,1.06
5463.00,1.06
5462.00,1.06
5461.00,1.07
5460.00,1.07
5459.00,1.07
5458.00,1.07
5457.00,1.07
5456.00,1.07
5455.00,1.07
5454.00,1.07
5453.00,1.07
5452.00,1.07
5451.00,1.07
5450.00,1.07
5449.00,1.07
5448.00,1.07
5447.00,1.07
5446.00,1.07
5445.00,1.07
5444.00,1.07
5443.00,1.07
5442.00,1.07
5441.00,1.07
5440.00,1.07
5439.00,1.07
5438.00,1.07
5437.00,1.07
5436.00,1.07
5435.00,1.07
5434.00,1.07
5433.00,1.07
5432.00,1.07
5431.00,1.07
5430.00,1.07
5429.00,1.07
5428.00,1.07
5427.00,1.07
5426.00,1.07
5425.00,1.07
5424.00,1.07
5423.00,1.07
5422.00,1.07
5421.00,1.07
5420.00,1.07
5419.00,1.07
5418.00,1.07
5417.00,1.07
5416.00,1.07
5415.00,1.07
5414.00,1.07
5413.00,1.07
5412.00,1.07
5411.00,1.07
5410.00,1.07
5409.00,1.07
5408.00,1.07
5407.00,1.07
5406.00,1.07
5405.00,1.07
5404.00,1.07
5403.00,1.07
5402.00,1.07
5401.00,1.07
5400.00,1.07
5399.00,1.07
5398.00,1.07
5397.00,1.07
5396.00,1.06
5395.00,1.06
5394.00,1.06
5393.00,1.06
5392.00,1.06
5391.00,1.06
5390.00,1.05
5389.00,1.05
5388.00,1.05
5387.00,1.05
5386.00,1.04
5385.00,1.04
5384.00,1.04
5383.00,1.04
5382.00,1.03
5381.00,1.03
5380.00,1.03
5379.00,1.02
5378.00,1.02
5377.00,1.02
5376.00,1.01
5375.00,1.01
5374.00,1.01
5373.00,1.00
5372.00,1.00
5371.00,1.00
5370.00,0.99
5369.00,0.99
5368.00,0.98
5367.00,0.98
5366.00,0.97
5365.00,0.97
5364.00,0.96
5363.00,0.95
5362.00,0.95
5361.00,0.94
5360.00,0.94
5359.00,0.93
5358.00,0.92
5357.00,0.92
5356.00,0.91
5355.00,0.90
5354.00,0.90
5353.00,0.89
5352.00,0.88
5351.00,0.87
5350.00,0.87
5349.00,0.86
5348.00,0.85
5347.00,0.84
5346.00,0.84
5345.00,0.83
5344.00,0.82
5343.00,0.81
5342.00,0.80
5341.00,0.80
5340.00,0.79
5339.00,0.78
5338.00,0.77
5337.00,0.77
5336.00,0.76
5335.00,0.75
5334.00,0.74
5333.00,0.73
5332.00,0.73
5331.00,0.72
5330.00,0.71
5329.00,0.70
5328.00,0.70
5327.00,0.69
5326.00,0.68
5325.00,0.67
5324.00,0.67
5323.00,0.66
5322.00,0.65
5321.00,0.65
5320.00,0.64
5319.00,0.63
5318.00,0.62
5317.00,0.62
5316.00,0.61
5315.00,0.60
5314.00,0.60
5313.00,0.59
5312.00,0.59
5311.00,0.58
5310.00,0.57
5309.00,0.57
5308.00,0.56
5307.00,0.56
5306.00,0.55
5305.00,0.55
5304.00,0.54
5303.00,0.54
5302.00,0.53
5301.00,0.53
5300.00,0.52
5299.00,0.52
5298.00,0.52
5297.00,0.51
5296.00,0.51
5295.00,0.51
5294.00,0.51
5293.00,0.50
5292.00,0.50
5291.00,0.50
5290.00,0.50
5289.00,0.50
5288.00,0.49
5287.00,0.49
5286.00,0.49
5285.00,0.49
5284.00,0.49
5283.00,0.49
5282.00,0.49
5281.00,0.49
5280.00,0.49
5279.00,0.49
5278.00,0.49
5277.00,0.48
5276.00,0.48
5275.00,0.48
5274.00,0.48
5273.00,0.48
5272.00,0.48
5271.00,0.48
5270.00,0.48
5269.00,0.48
5268.00,0.48
5267.00,0.48
5266.00,0.48
5265.00,0.48
5264.00,0.48
5263.00,0.48
5262.00,0.48
5261.00,0.48
5260.00,0.48
5259.00,0.48
5258.00,0.48
5257.00,0.48
5256.00,0.48
5255.00,0.48
5254.00,0.48
5253.00,0.48
5252.00,0.48
5251.00,0.48
5250.00,0.48
5249.00,0.48
5248.00,0.48
5247.00,0.48
5246.00,0.48
5245.00,0.48
5244.00,0.48
5243.00,0.48
5242.00,0.48
5241.00,0.48
5240.00,0.48
5239.00,0.48
5238.00,0.48
5237.00,0.48
5236.00,0.48
5235.00,0.48
5234.00,0.48
5233.00,0.48
5232.00,0.48
5231.00,0.48
5230.00,0.48
5229.00,0.48
5228.00,0.48
5227.00,0.48
5226.00,0.48
5225.00,0.48
5224.00,0.48
5223.00,0.48
5222.00,0.48
5221.00,0.48
5220.00,0.48
5219.00,0.48
5218.00,0.48
5217.00,0.48
5216.00,0.48
5215.00,0.48
5214.00,0.48
5213.00,0.48
5212.00,0.48
5211.00,0.48
5210.00,0.48
5209.00,0.48
5208.00,0.49
5207.00,0.49
5206.00,0.49
5205.00,0.49
5204.00,0.49
5203.00,0.49
5202.00,0.49
5201.00,0.49
5200.00,0.49
5199.00,0.49
5198.00,0.49
5197.00,0.49
5196.00,0.49
5195.00,0.49
5194.00,0.49
5193.00,0.49
5192.00,0.49
5191.00,0.49
5190.00,0.49
5189.00,0.49
5188.00,0.49
5187.00,0.50
5186.00,0.50
5185.00,0.50
5184.00,0.50
5183.00,0.50
5182.00,0.50
5181.00,0.50
5180.00,0.50
5179.00,0.50
5178.00,0.50
5177.00,0.50
5176.00,0.50
5175.00,0.50
5174.00,0.50
5173.00,0.50
5172.00,0.50
5171.00,0.50
5170.00,0.50
5169.00,0.50
5168.00,0.50
5167.00,0.50
5166.00,0.50
5165.00,0.50
5164.00,0.50
5163.00,0.50
5162.00,0.51
5161.00,0.51
5160.00,0.51
5159.00,0.51
5158.00,0.51
5157.00,0.51
5156.00,0.51
5155.00,0.51
5154.00,0.51
5153.00,0.51
5152.00,0.51
5151.00,0.51
5150.00,0.51
5149.00,0.51
5148.00,0.51
5147.00,0.51
5146.00,0.51
5145.00,0.51
5144.00,0.51
5143.00,0.51
5142.00,0.51
5141.00,0.51
5140.00,0.51
5139.00,0.51
5138.00,0.52
5137.00,0.52
5136.00,0.52
5135.00,0.52
5134.00,0.52
5133.00,0.52
5132.00,0.52
5131.00,0.52
5130.00,0.52
5129.00,0.52
5128.00,0.52
5127.00,0.52
5126.00,0.52
5125.00,0.52
5124.00,0.52
5123.00,0.52
5122.00,0.52
5121.00,0.52
5120.00,0.52
5119.00,0.52
5118.00,0.52
5117.00,0.52
5116.00,0.53
5115.00,0.53
5114.00,0.53
5113.00,0.53
5112.00,0.53
5111.00,0.53
5110.00,0.53
5109.00,0.53
5108.00,0.53
5107.00,0.53
5106.00,0.53
5105.00,0.53
5104.00,0.53
5103.00,0.53
5102.00,0.53
5101.00,0.53
5100.00,0.53
5099.00,0.53
5098.00,0.53
5097.00,0.53
5096.00,0.53
5095.00,0.53
5094.00,0.53
5093.00,0.53
5092.00,0.53
5091.00,0.53
5090.00,0.54
5089.00,0.54
5088.00,0.54
5087.00,0.54
5086.00,0.54
5085.00,0.54
5084.00,0.54
5083.00,0.54
5082.00,0.54
5081.00,0.54
5080.00,0.54
5079.00,0.54
5078.00,0.55
5077.00,0.55
5076.00,0.55
5075.00,0.55
5074.00,0.55
5073.00,0.55
5072.00,0.55
5071.00,0.55
5070.00,0.55
5069.00,0.55
5068.00,0.55
5067.00,0.55
5066.00,0.55
5065.00,0.55
5064.00,0.55
5063.00,0.55
5062.00,0.55
5061.00,0.55
5060.00,0.55
5059.00,0.55
5058.00,0.55
5057.00,0.55
5056.00,0.55
5055.00,0.55
5054.00,0.55
5053.00,0.55
5052.00,0.55
5051.00,0.55
5050.00,0.55
5049.00,0.55
5048.00,0.55
5047.00,0.55
5046.00,0.55
5045.00,0.55
5044.00,0.55
5043.00,0.55
5042.00,0.55
5041.00,0.55
5040.00,0.55
5039.00,0.56
5038.00,0.56
5037.00,0.56
5036.00,0.56
5035.00,0.56
5034.00,0.56
5033.00,0.56
5032.00,0.56
5031.00,0.56
5030.00,0.56
5029.00,0.56
5028.00,0.57
5027.00,0.57
5026.00,0.57
5025.00,0.57
5024.00,0.57
5023.00,0.57
5022.00,0.57
5021.00,0.57
5020.00,0.57
5019.00,0.57
5018.00,0.57
5017.00,0.57
5016.00,0.57
5015.00,0.57
5014.00,0.57
5013.00,0.58
5012.00,0.58
5011.00,0.58
5010.00,0.58
5009.00,0.58
5008.00,0.58
5007.00,0.58
5006.00,0.58
5005.00,0.58
5004.00,0.58
5003.00,0.58
5002.00,0.58
5001.00,0.58
5000.00,0.58
4999.00,0.58
4998.00,0.58
4997.00,0.59
4996.00,0.59
4995.00,0.59
4994.00,0.59
4993.00,0.59
4992.00,0.59
4991.00,0.59
4990.00,0.59
4989.00,0.59
4988.00,0.59
4987.00,0.59
4986.00,0.59
4985.00,0.59
4984.00,0.60
4983.00,0.60
4982.00,0.60
4981.00,0.60
4980.00,0.60
4979.00,0.60
4978.00,0.60
4977.00,0.60
4976.00,0.60
4975.00,0.60
4974.00,0.60
4973.00,0.60
4972.00,0.60
4971.00,0.60
4970.00,0.60
4969.00,0.60
4968.00,0.60
4967.00,0.60
4966.00,0.60
4965.00,0.61
4964.00,0.61
4963.00,0.61
4962.00,0.61
4961.00,0.61
4960.00,0.61
4959.00,0.61
4958.00,0.61
4957.00,0.61
4956.00,0.61
4955.00,0.61
4954.00,0.61
4953.00,0.61
4952.00,0.61
4951.00,0.62
4950.00,0.62
4949.00,0.62
4948.00,0.62
4947.00,0.62
4946.00,0.62
4945.00,0.62
4944.00,0.62
4943.00,0.62
4942.00,0.62
4941.00,0.62
4940.00,0.62
4939.00,0.62
4938.00,0.62
4937.00,0.62
4936.00,0.62
4935.00,0.63
4934.00,0.63
4933.00,0.63
4932.00,0.63
4931.00,0.63
4930.00,0.63
4929.00,0.63
4928.00,0.63
4927.00,0.63
4926.00,0.63
4925.00,0.63
4924.00,0.64
4923.00,0.64
4922.00,0.64
4921.00,0.64
4920.00,0.64
4919.00,0.64
4918.00,0.64
4917.00,0.64
4916.00,0.64
4915.00,0.64
4914.00,0.64
4913.00,0.64
4912.00,0.64
4911.00,0.64
4910.00,0.64
4909.00,0.64
4908.00,0.65
4907.00,0.65
4906.00,0.65
4905.00,0.65
4904.00,0.65
4903.00,0.65
4902.00,0.65
4901.00,0.65
4900.00,0.65
4899.00,0.65
4898.00,0.65
4897.00,0.65
4896.00,0.65
4895.00,0.65
4894.00,0.65
4893.00,0.65
4892.00,0.65
4891.00,0.65
4890.00,0.65
4889.00,0.65
4888.00,0.65
4887.00,0.65
4886.00,0.65
4885.00,0.65
4884.00,0.65
4883.00,0.65
4882.00,0.65
4881.00,0.65
4880.00,0.65
4879.00,0.66
4878.00,0.66
4877.00,0.66
4876.00,0.66
4875.00,0.66
4874.00,0.66
4873.00,0.66
4872.00,0.66
4871.00,0.66
4870.00,0.66
4869.00,0.66
4868.00,0.66
4867.00,0.66
4866.00,0.66
4865.00,0.66
4864.00,0.67
4863.00,0.67
4862.00,0.67
4861.00,0.67
4860.00,0.67
4859.00,0.67
4858.00,0.67
4857.00,0.67
4856.00,0.67
4855.00,0.67
4854.00,0.67
4853.00,0.68
4852.00,0.68
4851.00,0.68
4850.00,0.68
4849.00,0.68
4848.00,0.68
4847.00,0.68
4846.00,0.68
4845.00,0.68
4844.00,0.68
4843.00,0.68
4842.00,0.68
4841.00,0.68
4840.00,0.68
4839.00,0.69
4838.00,0.69
4837.00,0.69
4836.00,0.69
4835.00,0.69
4834.00,0.69
4833.00,0.69
4832.00,0.69
4831.00,0.69
4830.00,0.69
4829.00,0.69
4828.00,0.69
4827.00,0.69
4826.00,0.69
4825.00,0.70
4824.00,0.70
4823.00,0.70
4822.00,0.70
4821.00,0.70
4820.00,0.70
4819.00,0.70
4818.00,0.70
4817.00,0.70
4816.00,0.70
4815.00,0.70
4814.00,0.71
4813.00,0.71
4812.00,0.71
4811.00,0.71
4810.00,0.71
4809.00,0.71
4808.00,0.71
4807.00,0.71
4806.00,0.72
4805.00,0.72
4804.00,0.72
4803.00,0.72
4802.00,0.72
4801.00,0.72
4800.00,0.72
4799.00,0.72
4798.00,0.72
4797.00,0.72
4796.00,0.72
4795.00,0.73
4794.00,0.73
4793.00,0.73
4792.00,0.73
4791.00,0.73
4790.00,0.73
4789.00,0.73
4788.00,0.73
4787.00,0.73
4786.00,0.73
4785.00,0.73
4784.00,0.73
4783.00,0.73
4782.00,0.73
4781.00,0.73
4780.00,0.74
4779.00,0.74
4778.00,0.74
4777.00,0.74
4776.00,0.74
4775.00,0.74
4774.00,0.74
4773.00,0.74
4772.00,0.74
4771.00,0.74
4770.00,0.74
4769.00,0.75
4768.00,0.75
4767.00,0.75
4766.00,0.75
4765.00,0.75
4764.00,0.75
4763.00,0.75
4762.00,0.75
4761.00,0.76
4760.00,0.76
4759.00,0.76
4758.00,0.76
4757.00,0.76
4756.00,0.76
4755.00,0.76
4754.00,0.77
4753.00,0.77
4752.00,0.77
4751.00,0.77
4750.00,0.77
4749.00,0.77
4748.00,0.77
4747.00,0.77
4746.00,0.78
4745.00,0.78
4744.00,0.78
4743.00,0.78
4742.00,0.78
4741.00,0.78
4740.00,0.78
4739.00,0.78
4738.00,0.78
4737.00,0.79
4736.00,0.79
4735.00,0.79
4734.00,0.79
4733.00,0.79
4732.00,0.79
4731.00,0.79
4730.00,0.79
4729.00,0.80
4728.00,0.80
4727.00,0.80
4726.00,0.80
4725.00,0.80
4724.00,0.80
4723.00,0.80
4722.00,0.80
4721.00,0.80
4720.00,0.81
4719.00,0.81
4718.00,0.81
4717.00,0.81
4716.00,0.81
4715.00,0.81
4714.00,0.82
4713.00,0.82
4712.00,0.82
4711.00,0.82
4710.00,0.82
4709.00,0.82
4708.00,0.83
4707.00,0.83
4706.00,0.83
4705.00,0.83
4704.00,0.83
4703.00,0.83
4702.00,0.83
4701.00,0.83
4700.00,0.83
4699.00,0.83
4698.00,0.84
4697.00,0.84
4696.00,0.84
4695.00,0.84
4694.00,0.84
4693.00,0.84
4692.00,0.84
4691.00,0.85
4690.00,0.85
4689.00,0.85
4688.00,0.85
4687.00,0.85
4686.00,0.85
4685.00,0.86
4684.00,0.86
4683.00,0.86
4682.00,0.86
4681.00,0.86
4680.00,0.86
4679.00,0.87
4678.00,0.87
4677.00,0.87
4676.00,0.87
4675.00,0.87
4674.00,0.87
4673.00,0.87
4672.00,0.87
4671.00,0.87
4670.00,0.87
4669.00,0.87
4668.00,0.88
4667.00,0.88
4666.00,0.88
4665.00,0.88
4664.00,0.88
4663.00,0.88
4662.00,0.88
4661.00,0.88
4660.00,0.88
4659.00,0.89
4658.00,0.89
4657.00,0.89
4656.00,0.89
4655.00,0.89
4654.00,0.89
4653.00,0.90
4652.00,0.90
4651.00,0.90
4650.00,0.90
4649.00,0.90
4648.00,0.90
4647.00,0.90
4646.00,0.90
4645.00,0.90
4644.00,0.90
4643.00,0.90
4642.00,0.90
4641.00,0.90
4640.00,0.91
4639.00,0.91
4638.00,0.91
4637.00,0.91
4636.00,0.91
4635.00,0.91
4634.00,0.91
4633.00,0.91
4632.00,0.91
4631.00,0.91
4630.00,0.91
4629.00,0.91
4628.00,0.91
4627.00,0.91
4626.00,0.92
4625.00,0.92
4624.00,0.92
4623.00,0.92
4622.00,0.92
4621.00,0.92
4620.00,0.92
4619.00,0.92
4618.00,0.92
4617.00,0.93
4616.00,0.93
4615.00,0.93
4614.00,0.93
4613.00,0.93
4612.00,0.93
4611.00,0.93
4610.00,0.93
4609.00,0.93
4608.00,0.93
4607.00,0.93
4606.00,0.93
4605.00,0.93
4604.00,0.93
4603.00,0.93
4602.00,0.93
4601.00,0.94
4600.00,0.94
4599.00,0.94
4598.00,0.94
4597.00,0.94
4596.00,0.94
4595.00,0.94
4594.00,0.94
4593.00,0.94
4592.00,0.94
4591.00,0.94
4590.00,0.94
4589.00,0.94
4588.00,0.94
4587.00,0.94
4586.00,0.95
4585.00,0.95
4584.00,0.95
4583.00,0.95
4582.00,0.95
4581.00,0.95
4580.00,0.95
4579.00,0.95
4578.00,0.95
4577.00,0.95
4576.00,0.95
4575.00,0.96
4574.00,0.96
4573.00,0.96
4572.00,0.96
4571.00,0.96
4570.00,0.96
4569.00,0.96
4568.00,0.96
4567.00,0.96
4566.00,0.96
4565.00,0.96
4564.00,0.96
4563.00,0.97
4562.00,0.97
4561.00,0.97
4560.00,0.97
4559.00,0.97
4558.00,0.97
4557.00,0.97
4556.00,0.97
4555.00,0.97
4554.00,0.97
4553.00,0.97
4552.00,0.97
4551.00,0.97
4550.00,0.97
4549.00,0.97
4548.00,0.97
4547.00,0.97
4546.00,0.98
4545.00,0.98
4544.00,0.98
4543.00,0.98
4542.00,0.98
4541.00,0.98
4540.00,0.98
4539.00,0.98
4538.00,0.98
4537.00,0.98
4536.00,0.98
4535.00,0.98
4534.00,0.98
4533.00,0.99
4532.00,0.99
4531.00,0.99
4530.00,0.99
4529.00,0.99
4528.00,0.99
4527.00,0.99
4526.00,0.99
4525.00,0.99
4524.00,0.99
4523.00,0.99
4522.00,0.99
4521.00,0.99
4520.00,0.99
4519.00,0.99
4518.00,0.99
4517.00,0.99
4516.00,0.99
4515.00,0.99
4514.00,0.99
4513.00,0.99
4512.00,0.99
4511.00,0.99
4510.00,0.99
4509.00,0.99
4508.00,0.99
4507.00,0.99
4506.00,0.99
4505.00,0.99
4504.00,0.99
4503.00,0.99
4502.00,0.99
4501.00,0.99
4500.00,0.99
4499.00,0.99
4498.00,0.99
4497.00,0.99
4496.00,0.99
4495.00,0.99
4494.00,0.99
4493.00,0.99
4492.00,0.99
4491.00,0.99
4490.00,0.98
4489.00,0.98
4488.00,0.98
4487.00,0.98
4486.00,0.98
4485.00,0.98
4484.00,0.98
4483.00,0.97
4482.00,0.97
4481.00,0.97
4480.00,0.97
4479.00,0.97
4478.00,0.97
4477.00,0.97
4476.00,0.97
4475.00,0.97
4474.00,0.97
4473.00,0.97
4472.00,0.96
4471.00,0.96
4470.00,0.96
4469.00,0.96
4468.00,0.96
4467.00,0.96
4466.00,0.96
4465.00,0.96
4464.00,0.95
4463.00,0.95
4462.00,0.95
4461.00,0.95
4460.00,0.95
4459.00,0.94
4458.00,0.94
4457.00,0.94
4456.00,0.94
4455.00,0.94
4454.00,0.93
4453.00,0.93
4452.00,0.93
4451.00,0.92
4450.00,0.92
4449.00,0.92
4448.00,0.92
4447.00,0.91
4446.00,0.91
4445.00,0.90
4444.00,0.90
4443.00,0.90
4442.00,0.89
4441.00,0.89
4440.00,0.89
4439.00,0.88
4438.00,0.88
4437.00,0.88
4436.00,0.87
4435.00,0.87
4434.00,0.87
4433.00,0.86
4432.00,0.86
4431.00,0.86
4430.00,0.86
4429.00,0.85
4428.00,0.85
4427.00,0.85
4426.00,0.85
4425.00,0.85
4424.00,0.85
4423.00,0.85
4422.00,0.85
4421.00,0.84
4420.00,0.84
4419.00,0.84
4418.00,0.84
4417.00,0.84
4416.00,0.84
4415.00,0.84
4414.00,0.84
4413.00,0.84
4412.00,0.84
4411.00,0.84
4410.00,0.84
4409.00,0.84
4408.00,0.84
4407.00,0.84
4406.00,0.84
4405.00,0.84
4404.00,0.85
4403.00,0.85
4402.00,0.85
4401.00,0.85
4400.00,0.85
4399.00,0.85
4398.00,0.85
4397.00,0.85
4396.00,0.85
4395.00,0.85
4394.00,0.85
4393.00,0.86
4392.00,0.86
4391.00,0.86
4390.00,0.86
4389.00,0.86
4388.00,0.86
4387.00,0.86
4386.00,0.87
4385.00,0.87
4384.00,0.87
4383.00,0.87
4382.00,0.87
4381.00,0.87
4380.00,0.88
4379.00,0.88
4378.00,0.88
4377.00,0.88
4376.00,0.88
4375.00,0.88
4374.00,0.88
4373.00,0.88
4372.00,0.88
4371.00,0.88
4370.00,0.88
4369.00,0.88
4368.00,0.88
4367.00,0.88
4366.00,0.88
4365.00,0.88
4364.00,0.88
4363.00,0.88
4362.00,0.88
4361.00,0.88
4360.00,0.88
4359.00,0.88
4358.00,0.88
4357.00,0.88
4356.00,0.88
4355.00,0.88
4354.00,0.88
4353.00,0.87
4352.00,0.87
4351.00,0.87
4350.00,0.87
4349.00,0.87
4348.00,0.87
4347.00,0.87
4346.00,0.87
4345.00,0.87
4344.00,0.87
4343.00,0.87
4342.00,0.87
4341.00,0.87
4340.00,0.87
4339.00,0.87
4338.00,0.87
4337.00,0.87
4336.00,0.88
4335.00,0.88
4334.00,0.88
4333.00,0.88
4332.00,0.88
4331.00,0.88
4330.00,0.88
4329.00,0.88
4328.00,0.89
4327.00,0.89
4326.00,0.89
4325.00,0.89
4324.00,0.89
4323.00,0.89
4322.00,0.90
4321.00,0.90
4320.00,0.90
4319.00,0.90
4318.00,0.90
4317.00,0.90
4316.00,0.91
4315.00,0.91
4314.00,0.91
4313.00,0.91
4312.00,0.91
4311.00,0.91
4310.00,0.92
4309.00,0.92
4308.00,0.92
4307.00,0.92
4306.00,0.92
4305.00,0.92
4304.00,0.92
4303.00,0.93
4302.00,0.93
4301.00,0.93
4300.00,0.93
4299.00,0.93
4298.00,0.93
4297.00,0.93
4296.00,0.93
4295.00,0.94
4294.00,0.94
4293.00,0.94
4292.00,0.94
4291.00,0.94
4290.00,0.94
4289.00,0.94
4288.00,0.94
4287.00,0.94
4286.00,0.95
4285.00,0.95
4284.00,0.95
4283.00,0.95
4282.00,0.95
4281.00,0.95
4280.00,0.95
4279.00,0.95
4278.00,0.95
4277.00,0.95
4276.00,0.95
4275.00,0.95
4274.00,0.95
4273.00,0.95
4272.00,0.94
4271.00,0.94
4270.00,0.94
4269.00,0.94
4268.00,0.94
4267.00,0.94
4266.00,0.94
4265.00,0.94
4264.00,0.94
4263.00,0.94
4262.00,0.94
4261.00,0.94
4260.00,0.94
4259.00,0.94
4258.00,0.94
4257.00,0.94
4256.00,0.94
4255.00,0.94
4254.00,0.94
4253.00,0.94
4252.00,0.94
4251.00,0.94
4250.00,0.94
4249.00,0.95
4248.00,0.95
4247.00,0.95
4246.00,0.95
4245.00,0.95
4244.00,0.95
4243.00,0.95
4242.00,0.95
4241.00,0.96
4240.00,0.96
4239.00,0.96
4238.00,0.96
4237.00,0.96
4236.00,0.96
4235.00,0.96
4234.00,0.97
4233.00,0.97
4232.00,0.97
4231.00,0.97
4230.00,0.97
4229.00,0.97
4228.00,0.97
4227.00,0.97
4226.00,0.97
4225.00,0.97
4224.00,0.98
4223.00,0.98
4222.00,0.98
4221.00,0.98
4220.00,0.98
4219.00,0.98
4218.00,0.98
4217.00,0.98
4216.00,0.98
4215.00,0.98
4214.00,0.98
4213.00,0.98
4212.00,0.98
4211.00,0.97
4210.00,0.97
4209.00,0.97
4208.00,0.97
4207.00,0.97
4206.00,0.97
4205.00,0.97
4204.00,0.97
4203.00,0.97
4202.00,0.97
4201.00,0.97
4200.00,0.97
4199.00,0.97
4198.00,0.97
4197.00,0.98
4196.00,0.98
4195.00,0.98
4194.00,0.98
4193.00,0.98
4192.00,0.98
4191.00,0.98
4190.00,0.99
4189.00,0.99
4188.00,0.99
4187.00,0.99
4186.00,0.99
4185.00,0.99
4184.00,1.00
4183.00,1.00
4182.00,1.00
4181.00,1.00
4180.00,1.00
4179.00,1.00
4178.00,1.00
4177.00,1.00
4176.00,1.00
4175.00,1.00
4174.00,1.00
4173.00,0.99
4172.00,0.99
4171.00,0.99
4170.00,0.99
4169.00,0.99
4168.00,0.99
4167.00,0.99
4166.00,0.99
4165.00,0.99
4164.00,0.99
4163.00,0.99
4162.00,0.99
4161.00,1.00
4160.00,1.00
4159.00,1.00
4158.00,1.00
4157.00,1.00
4156.00,1.00
4155.00,1.00
4154.00,1.00
4153.00,1.00
4152.00,1.01
4151.00,1.01
4150.00,1.01
4149.00,1.01
4148.00,1.01
4147.00,1.01
4146.00,1.01
4145.00,1.01
4144.00,1.01
4143.00,1.01
4142.00,1.01
4141.00,1.01
4140.00,1.01
4139.00,1.01
4138.00,1.01
4137.00,1.01
4136.00,1.01
4135.00,1.01
4134.00,1.01
4133.00,1.01
4132.00,1.01
4131.00,1.01
4130.00,1.01
4129.00,1.01
4128.00,1.01
4127.00,1.01
4126.00,1.01
4125.00,1.01
4124.00,1.01
4123.00,1.01
4122.00,1.01
4121.00,1.01
4120.00,1.01
4119.00,1.01
4118.00,1.01
4117.00,1.01
4116.00,1.01
4115.00,1.01
4114.00,1.01
4113.00,1.02
4112.00,1.02
4111.00,1.02
4110.00,1.02
4109.00,1.02
4108.00,1.02
4107.00,1.02
4106.00,1.02
4105.00,1.03
4104.00,1.03
4103.00,1.03
4102.00,1.03
4101.00,1.03
4100.00,1.03
4099.00,1.04
4098.00,1.04
4097.00,1.04
4096.00,1.04
4095.00,1.04
4094.00,1.04
4093.00,1.04
4092.00,1.04
4091.00,1.05
4090.00,1.05
4089.00,1.05
4088.00,1.05
4087.00,1.05
4086.00,1.05
4085.00,1.04
4084.00,1.04
4083.00,1.04
4082.00,1.04
4081.00,1.04
4080.00,1.04
4079.00,1.04
4078.00,1.04
4077.00,1.04
4076.00,1.04
4075.00,1.04
4074.00,1.04
4073.00,1.04
4072.00,1.04
4071.00,1.04
4070.00,1.04
4069.00,1.04
4068.00,1.04
4067.00,1.04
4066.00,1.04
4065.00,1.04
4064.00,1.04
4063.00,1.04
4062.00,1.04
4061.00,1.05
4060.00,1.05
4059.00,1.05
4058.00,1.05
4057.00,1.05
4056.00,1.05
4055.00,1.05
4054.00,1.05
4053.00,1.06
4052.00,1.06
4051.00,1.06
4050.00,1.06
4049.00,1.06
4048.00,1.06
4047.00,1.06
4046.00,1.06
4045.00,1.06
4044.00,1.06
4043.00,1.06
4042.00,1.05
4041.00,1.05
4040.00,1.05
4039.00,1.05
4038.00,1.05
4037.00,1.05
4036.00,1.05
4035.00,1.05
4034.00,1.05
4033.00,1.05
4032.00,1.06
4031.00,1.06
4030.00,1.06
4029.00,1.06
4028.00,1.06
4027.00,1.06
4026.00,1.06
4025.00,1.06
4024.00,1.06
4023.00,1.06
4022.00,1.06
4021.00,1.06
4020.00,1.05
4019.00,1.05
4018.00,1.05
4017.00,1.05
4016.00,1.05
4015.00,1.05
4014.00,1.05
4013.00,1.05
4012.00,1.05
4011.00,1.05
4010.00,1.05
4009.00,1.05
4008.00,1.05
4007.00,1.06
4006.00,1.06
4005.00,1.06
4004.00,1.06
4003.00,1.07
4002.00,1.07
4001.00,1.07
4000.00,1.07
