创建为新数据集,样品 243 用户 Administrator 日期 星期日, 七月 22 2018
cm-1,%T
10000.00,1.12
9999.00,1.12
9998.00,1.12
9997.00,1.12
9996.00,1.12
9995.00,1.12
9994.00,1.12
9993.00,1.12
9992.00,1.12
9991.00,1.12
9990.00,1.12
9989.00,1.12
9988.00,1.12
9987.00,1.12
9986.00,1.12
9985.00,1.12
9984.00,1.11
9983.00,1.11
9982.00,1.11
9981.00,1.11
9980.00,1.11
9979.00,1.11
9978.00,1.11
9977.00,1.11
9976.00,1.10
9975.00,1.10
9974.00,1.10
9973.00,1.10
9972.00,1.10
9971.00,1.10
9970.00,1.09
9969.00,1.09
9968.00,1.09
9967.00,1.09
9966.00,1.09
9965.00,1.08
9964.00,1.08
9963.00,1.08
9962.00,1.08
9961.00,1.08
9960.00,1.07
9959.00,1.07
9958.00,1.07
9957.00,1.07
9956.00,1.07
9955.00,1.07
9954.00,1.07
9953.00,1.07
9952.00,1.07
9951.00,1.07
9950.00,1.07
9949.00,1.07
9948.00,1.07
9947.00,1.08
9946.00,1.08
9945.00,1.08
9944.00,1.08
9943.00,1.09
9942.00,1.09
9941.00,1.09
9940.00,1.09
9939.00,1.10
9938.00,1.10
9937.00,1.10
9936.00,1.11
9935.00,1.11
9934.00,1.11
9933.00,1.11
9932.00,1.11
9931.00,1.12
9930.00,1.12
9929.00,1.12
9928.00,1.12
9927.00,1.12
9926.00,1.12
9925.00,1.12
9924.00,1.11
9923.00,1.11
9922.00,1.11
9921.00,1.11
9920.00,1.11
9919.00,1.11
9918.00,1.11
9917.00,1.10
9916.00,1.10
9915.00,1.10
9914.00,1.10
9913.00,1.10
9912.00,1.10
9911.00,1.10
9910.00,1.10
9909.00,1.10
9908.00,1.09
9907.00,1.09
9906.00,1.09
9905.00,1.09
9904.00,1.09
9903.00,1.09
9902.00,1.09
9901.00,1.08
9900.00,1.08
9899.00,1.08
9898.00,1.08
9897.00,1.08
9896.00,1.07
9895.00,1.07
9894.00,1.07
9893.00,1.06
9892.00,1.06
9891.00,1.06
9890.00,1.06
9889.00,1.05
9888.00,1.05
9887.00,1.05
9886.00,1.05
9885.00,1.04
9884.00,1.04
9883.00,1.04
9882.00,1.04
9881.00,1.04
9880.00,1.04
9879.00,1.04
9878.00,1.04
9877.00,1.05
9876.00,1.05
9875.00,1.05
9874.00,1.05
9873.00,1.05
9872.00,1.06
9871.00,1.06
9870.00,1.06
9869.00,1.07
9868.00,1.07
9867.00,1.07
9866.00,1.07
9865.00,1.07
9864.00,1.08
9863.00,1.08
9862.00,1.08
9861.00,1.08
9860.00,1.08
9859.00,1.08
9858.00,1.08
9857.00,1.09
9856.00,1.09
9855.00,1.09
9854.00,1.09
9853.00,1.09
9852.00,1.09
9851.00,1.09
9850.00,1.09
9849.00,1.09
9848.00,1.09
9847.00,1.09
9846.00,1.09
9845.00,1.09
9844.00,1.09
9843.00,1.09
9842.00,1.08
9841.00,1.08
9840.00,1.08
9839.00,1.08
9838.00,1.08
9837.00,1.08
9836.00,1.08
9835.00,1.07
9834.00,1.07
9833.00,1.07
9832.00,1.07
9831.00,1.07
9830.00,1.08
9829.00,1.08
9828.00,1.08
9827.00,1.08
9826.00,1.08
9825.00,1.09
9824.00,1.09
9823.00,1.09
9822.00,1.09
9821.00,1.10
9820.00,1.10
9819.00,1.10
9818.00,1.11
9817.00,1.11
9816.00,1.11
9815.00,1.11
9814.00,1.11
9813.00,1.11
9812.00,1.11
9811.00,1.11
9810.00,1.11
9809.00,1.11
9808.00,1.11
9807.00,1.11
9806.00,1.11
9805.00,1.11
9804.00,1.11
9803.00,1.10
9802.00,1.10
9801.00,1.10
9800.00,1.10
9799.00,1.09
9798.00,1.09
9797.00,1.09
9796.00,1.08
9795.00,1.08
9794.00,1.08
9793.00,1.08
9792.00,1.07
9791.00,1.07
9790.00,1.07
9789.00,1.07
9788.00,1.07
9787.00,1.06
9786.00,1.06
9785.00,1.06
9784.00,1.06
9783.00,1.06
9782.00,1.06
9781.00,1.05
9780.00,1.05
9779.00,1.05
9778.00,1.05
9777.00,1.05
9776.00,1.05
9775.00,1.05
9774.00,1.04
9773.00,1.04
9772.00,1.04
9771.00,1.04
9770.00,1.04
9769.00,1.05
9768.00,1.05
9767.00,1.05
9766.00,1.05
9765.00,1.05
9764.00,1.05
9763.00,1.06
9762.00,1.06
9761.00,1.06
9760.00,1.06
9759.00,1.07
9758.00,1.07
9757.00,1.07
9756.00,1.07
9755.00,1.07
9754.00,1.07
9753.00,1.07
9752.00,1.07
9751.00,1.07
9750.00,1.07
9749.00,1.07
9748.00,1.07
9747.00,1.07
9746.00,1.07
9745.00,1.07
9744.00,1.07
9743.00,1.07
9742.00,1.07
9741.00,1.07
9740.00,1.07
9739.00,1.07
9738.00,1.07
9737.00,1.07
9736.00,1.07
9735.00,1.07
9734.00,1.07
9733.00,1.07
9732.00,1.07
9731.00,1.07
9730.00,1.07
9729.00,1.07
9728.00,1.07
9727.00,1.07
9726.00,1.07
9725.00,1.07
9724.00,1.07
9723.00,1.07
9722.00,1.07
9721.00,1.07
9720.00,1.07
9719.00,1.08
9718.00,1.08
9717.00,1.08
9716.00,1.08
9715.00,1.08
9714.00,1.08
9713.00,1.08
9712.00,1.08
9711.00,1.09
9710.00,1.09
9709.00,1.09
9708.00,1.09
9707.00,1.09
9706.00,1.09
9705.00,1.09
9704.00,1.09
9703.00,1.09
9702.00,1.09
9701.00,1.09
9700.00,1.09
9699.00,1.09
9698.00,1.09
9697.00,1.09
9696.00,1.09
9695.00,1.09
9694.00,1.08
9693.00,1.08
9692.00,1.08
9691.00,1.08
9690.00,1.08
9689.00,1.08
9688.00,1.08
9687.00,1.08
9686.00,1.08
9685.00,1.08
9684.00,1.08
9683.00,1.08
9682.00,1.08
9681.00,1.08
9680.00,1.08
9679.00,1.08
9678.00,1.08
9677.00,1.09
9676.00,1.09
9675.00,1.09
9674.00,1.09
9673.00,1.09
9672.00,1.09
9671.00,1.09
9670.00,1.09
9669.00,1.09
9668.00,1.09
9667.00,1.09
9666.00,1.09
9665.00,1.10
9664.00,1.10
9663.00,1.10
9662.00,1.10
9661.00,1.10
9660.00,1.10
9659.00,1.11
9658.00,1.11
9657.00,1.11
9656.00,1.11
9655.00,1.11
9654.00,1.11
9653.00,1.11
9652.00,1.12
9651.00,1.12
9650.00,1.12
9649.00,1.12
9648.00,1.12
9647.00,1.12
9646.00,1.12
9645.00,1.12
9644.00,1.11
9643.00,1.11
9642.00,1.11
9641.00,1.11
9640.00,1.11
9639.00,1.11
9638.00,1.11
9637.00,1.10
9636.00,1.10
9635.00,1.10
9634.00,1.10
9633.00,1.10
9632.00,1.09
9631.00,1.09
9630.00,1.09
9629.00,1.09
9628.00,1.09
9627.00,1.09
9626.00,1.08
9625.00,1.08
9624.00,1.08
9623.00,1.08
9622.00,1.08
9621.00,1.08
9620.00,1.08
9619.00,1.08
9618.00,1.08
9617.00,1.08
9616.00,1.08
9615.00,1.08
9614.00,1.08
9613.00,1.07
9612.00,1.07
9611.00,1.07
9610.00,1.07
9609.00,1.07
9608.00,1.07
9607.00,1.07
9606.00,1.07
9605.00,1.07
9604.00,1.07
9603.00,1.07
9602.00,1.07
9601.00,1.07
9600.00,1.07
9599.00,1.07
9598.00,1.07
9597.00,1.07
9596.00,1.07
9595.00,1.07
9594.00,1.07
9593.00,1.07
9592.00,1.08
9591.00,1.08
9590.00,1.08
9589.00,1.08
9588.00,1.08
9587.00,1.08
9586.00,1.08
9585.00,1.08
9584.00,1.08
9583.00,1.08
9582.00,1.08
9581.00,1.08
9580.00,1.08
9579.00,1.07
9578.00,1.07
9577.00,1.07
9576.00,1.07
9575.00,1.07
9574.00,1.07
9573.00,1.07
9572.00,1.07
9571.00,1.07
9570.00,1.06
9569.00,1.06
9568.00,1.06
9567.00,1.06
9566.00,1.06
9565.00,1.06
9564.00,1.06
9563.00,1.06
9562.00,1.06
9561.00,1.06
9560.00,1.06
9559.00,1.06
9558.00,1.06
9557.00,1.06
9556.00,1.06
9555.00,1.06
9554.00,1.06
9553.00,1.06
9552.00,1.06
9551.00,1.06
9550.00,1.06
9549.00,1.06
9548.00,1.06
9547.00,1.06
9546.00,1.06
9545.00,1.06
9544.00,1.06
9543.00,1.06
9542.00,1.07
9541.00,1.07
9540.00,1.07
9539.00,1.07
9538.00,1.07
9537.00,1.07
9536.00,1.07
9535.00,1.07
9534.00,1.07
9533.00,1.07
9532.00,1.07
9531.00,1.07
9530.00,1.07
9529.00,1.07
9528.00,1.07
9527.00,1.07
9526.00,1.07
9525.00,1.07
9524.00,1.07
9523.00,1.07
9522.00,1.07
9521.00,1.07
9520.00,1.07
9519.00,1.07
9518.00,1.07
9517.00,1.07
9516.00,1.07
9515.00,1.07
9514.00,1.07
9513.00,1.07
9512.00,1.07
9511.00,1.07
9510.00,1.07
9509.00,1.07
9508.00,1.07
9507.00,1.07
9506.00,1.07
9505.00,1.07
9504.00,1.07
9503.00,1.07
9502.00,1.07
9501.00,1.07
9500.00,1.07
9499.00,1.07
9498.00,1.07
9497.00,1.07
9496.00,1.07
9495.00,1.07
9494.00,1.07
9493.00,1.07
9492.00,1.08
9491.00,1.08
9490.00,1.08
9489.00,1.08
9488.00,1.09
9487.00,1.09
9486.00,1.10
9485.00,1.10
9484.00,1.10
9483.00,1.11
9482.00,1.11
9481.00,1.11
9480.00,1.12
9479.00,1.12
9478.00,1.12
9477.00,1.12
9476.00,1.12
9475.00,1.12
9474.00,1.12
9473.00,1.12
9472.00,1.12
9471.00,1.12
9470.00,1.11
9469.00,1.11
9468.00,1.11
9467.00,1.10
9466.00,1.10
9465.00,1.09
9464.00,1.09
9463.00,1.09
9462.00,1.08
9461.00,1.08
9460.00,1.08
9459.00,1.08
9458.00,1.08
9457.00,1.08
9456.00,1.08
9455.00,1.08
9454.00,1.08
9453.00,1.08
9452.00,1.08
9451.00,1.09
9450.00,1.09
9449.00,1.09
9448.00,1.09
9447.00,1.09
9446.00,1.09
9445.00,1.09
9444.00,1.09
9443.00,1.09
9442.00,1.09
9441.00,1.09
9440.00,1.09
9439.00,1.09
9438.00,1.09
9437.00,1.08
9436.00,1.08
9435.00,1.08
9434.00,1.08
9433.00,1.08
9432.00,1.08
9431.00,1.08
9430.00,1.07
9429.00,1.07
9428.00,1.07
9427.00,1.07
9426.00,1.07
9425.00,1.07
9424.00,1.07
9423.00,1.08
9422.00,1.08
9421.00,1.08
9420.00,1.08
9419.00,1.08
9418.00,1.08
9417.00,1.09
9416.00,1.09
9415.00,1.09
9414.00,1.09
9413.00,1.09
9412.00,1.09
9411.00,1.10
9410.00,1.10
9409.00,1.10
9408.00,1.10
9407.00,1.10
9406.00,1.10
9405.00,1.09
9404.00,1.09
9403.00,1.09
9402.00,1.09
9401.00,1.09
9400.00,1.09
9399.00,1.09
9398.00,1.09
9397.00,1.09
9396.00,1.09
9395.00,1.09
9394.00,1.09
9393.00,1.09
9392.00,1.09
9391.00,1.09
9390.00,1.09
9389.00,1.09
9388.00,1.09
9387.00,1.09
9386.00,1.10
9385.00,1.10
9384.00,1.10
9383.00,1.10
9382.00,1.10
9381.00,1.10
9380.00,1.10
9379.00,1.10
9378.00,1.10
9377.00,1.09
9376.00,1.09
9375.00,1.09
9374.00,1.09
9373.00,1.09
9372.00,1.09
9371.00,1.08
9370.00,1.08
9369.00,1.08
9368.00,1.08
9367.00,1.07
9366.00,1.07
9365.00,1.07
9364.00,1.07
9363.00,1.07
9362.00,1.07
9361.00,1.07
9360.00,1.07
9359.00,1.07
9358.00,1.07
9357.00,1.08
9356.00,1.08
9355.00,1.08
9354.00,1.08
9353.00,1.08
9352.00,1.09
9351.00,1.09
9350.00,1.09
9349.00,1.09
9348.00,1.09
9347.00,1.09
9346.00,1.09
9345.00,1.09
9344.00,1.09
9343.00,1.09
9342.00,1.09
9341.00,1.09
9340.00,1.08
9339.00,1.08
9338.00,1.08
9337.00,1.08
9336.00,1.07
9335.00,1.07
9334.00,1.07
9333.00,1.07
9332.00,1.07
9331.00,1.07
9330.00,1.06
9329.00,1.06
9328.00,1.06
9327.00,1.06
9326.00,1.06
9325.00,1.07
9324.00,1.07
9323.00,1.07
9322.00,1.07
9321.00,1.07
9320.00,1.07
9319.00,1.07
9318.00,1.08
9317.00,1.08
9316.00,1.08
9315.00,1.08
9314.00,1.08
9313.00,1.08
9312.00,1.08
9311.00,1.08
9310.00,1.08
9309.00,1.09
9308.00,1.09
9307.00,1.09
9306.00,1.09
9305.00,1.09
9304.00,1.09
9303.00,1.09
9302.00,1.09
9301.00,1.09
9300.00,1.09
9299.00,1.09
9298.00,1.09
9297.00,1.09
9296.00,1.10
9295.00,1.10
9294.00,1.10
9293.00,1.10
9292.00,1.10
9291.00,1.10
9290.00,1.10
9289.00,1.10
9288.00,1.10
9287.00,1.10
9286.00,1.11
9285.00,1.11
9284.00,1.11
9283.00,1.11
9282.00,1.11
9281.00,1.11
9280.00,1.11
9279.00,1.11
9278.00,1.11
9277.00,1.11
9276.00,1.11
9275.00,1.11
9274.00,1.11
9273.00,1.11
9272.00,1.11
9271.00,1.11
9270.00,1.11
9269.00,1.10
9268.00,1.10
9267.00,1.10
9266.00,1.10
9265.00,1.10
9264.00,1.09
9263.00,1.09
9262.00,1.09
9261.00,1.09
9260.00,1.08
9259.00,1.08
9258.00,1.08
9257.00,1.08
9256.00,1.08
9255.00,1.08
9254.00,1.07
9253.00,1.07
9252.00,1.07
9251.00,1.07
9250.00,1.08
9249.00,1.08
9248.00,1.08
9247.00,1.08
9246.00,1.08
9245.00,1.09
9244.00,1.09
9243.00,1.09
9242.00,1.09
9241.00,1.09
9240.00,1.10
9239.00,1.10
9238.00,1.10
9237.00,1.10
9236.00,1.10
9235.00,1.10
9234.00,1.10
9233.00,1.10
9232.00,1.10
9231.00,1.10
9230.00,1.10
9229.00,1.09
9228.00,1.09
9227.00,1.09
9226.00,1.09
9225.00,1.09
9224.00,1.09
9223.00,1.09
9222.00,1.09
9221.00,1.09
9220.00,1.09
9219.00,1.09
9218.00,1.09
9217.00,1.09
9216.00,1.09
9215.00,1.09
9214.00,1.09
9213.00,1.09
9212.00,1.09
9211.00,1.09
9210.00,1.09
9209.00,1.09
9208.00,1.09
9207.00,1.09
9206.00,1.09
9205.00,1.09
9204.00,1.09
9203.00,1.09
9202.00,1.09
9201.00,1.09
9200.00,1.09
9199.00,1.09
9198.00,1.09
9197.00,1.09
9196.00,1.09
9195.00,1.09
9194.00,1.09
9193.00,1.09
9192.00,1.09
9191.00,1.09
9190.00,1.09
9189.00,1.09
9188.00,1.09
9187.00,1.09
9186.00,1.09
9185.00,1.08
9184.00,1.08
9183.00,1.08
9182.00,1.08
9181.00,1.08
9180.00,1.08
9179.00,1.08
9178.00,1.08
9177.00,1.08
9176.00,1.08
9175.00,1.09
9174.00,1.09
9173.00,1.09
9172.00,1.09
9171.00,1.09
9170.00,1.10
9169.00,1.10
9168.00,1.10
9167.00,1.10
9166.00,1.11
9165.00,1.11
9164.00,1.11
9163.00,1.11
9162.00,1.11
9161.00,1.11
9160.00,1.11
9159.00,1.11
9158.00,1.11
9157.00,1.11
9156.00,1.11
9155.00,1.11
9154.00,1.11
9153.00,1.11
9152.00,1.11
9151.00,1.11
9150.00,1.10
9149.00,1.10
9148.00,1.10
9147.00,1.10
9146.00,1.10
9145.00,1.10
9144.00,1.10
9143.00,1.09
9142.00,1.09
9141.00,1.09
9140.00,1.09
9139.00,1.09
9138.00,1.09
9137.00,1.09
9136.00,1.09
9135.00,1.09
9134.00,1.09
9133.00,1.09
9132.00,1.09
9131.00,1.09
9130.00,1.09
9129.00,1.09
9128.00,1.09
9127.00,1.09
9126.00,1.09
9125.00,1.09
9124.00,1.10
9123.00,1.10
9122.00,1.10
9121.00,1.10
9120.00,1.10
9119.00,1.11
9118.00,1.11
9117.00,1.11
9116.00,1.11
9115.00,1.11
9114.00,1.11
9113.00,1.11
9112.00,1.11
9111.00,1.12
9110.00,1.12
9109.00,1.12
9108.00,1.12
9107.00,1.12
9106.00,1.12
9105.00,1.12
9104.00,1.12
9103.00,1.12
9102.00,1.12
9101.00,1.12
9100.00,1.12
9099.00,1.11
9098.00,1.11
9097.00,1.11
9096.00,1.11
9095.00,1.11
9094.00,1.11
9093.00,1.11
9092.00,1.11
9091.00,1.11
9090.00,1.11
9089.00,1.11
9088.00,1.10
9087.00,1.10
9086.00,1.10
9085.00,1.10
9084.00,1.10
9083.00,1.10
9082.00,1.10
9081.00,1.10
9080.00,1.10
9079.00,1.10
9078.00,1.10
9077.00,1.10
9076.00,1.10
9075.00,1.10
9074.00,1.10
9073.00,1.10
9072.00,1.10
9071.00,1.10
9070.00,1.10
9069.00,1.10
9068.00,1.10
9067.00,1.10
9066.00,1.10
9065.00,1.11
9064.00,1.11
9063.00,1.11
9062.00,1.11
9061.00,1.11
9060.00,1.11
9059.00,1.11
9058.00,1.11
9057.00,1.11
9056.00,1.11
9055.00,1.11
9054.00,1.11
9053.00,1.11
9052.00,1.11
9051.00,1.11
9050.00,1.11
9049.00,1.11
9048.00,1.11
9047.00,1.11
9046.00,1.11
9045.00,1.11
9044.00,1.11
9043.00,1.11
9042.00,1.11
9041.00,1.11
9040.00,1.11
9039.00,1.11
9038.00,1.11
9037.00,1.11
9036.00,1.11
9035.00,1.11
9034.00,1.11
9033.00,1.11
9032.00,1.11
9031.00,1.11
9030.00,1.11
9029.00,1.11
9028.00,1.11
9027.00,1.11
9026.00,1.10
9025.00,1.10
9024.00,1.10
9023.00,1.10
9022.00,1.10
9021.00,1.10
9020.00,1.10
9019.00,1.10
9018.00,1.10
9017.00,1.10
9016.00,1.10
9015.00,1.10
9014.00,1.10
9013.00,1.10
9012.00,1.10
9011.00,1.10
9010.00,1.10
9009.00,1.10
9008.00,1.10
9007.00,1.10
9006.00,1.11
9005.00,1.11
9004.00,1.11
9003.00,1.11
9002.00,1.11
9001.00,1.11
9000.00,1.11
8999.00,1.11
8998.00,1.11
8997.00,1.11
8996.00,1.12
8995.00,1.12
8994.00,1.12
8993.00,1.12
8992.00,1.12
8991.00,1.12
8990.00,1.12
8989.00,1.12
8988.00,1.12
8987.00,1.12
8986.00,1.12
8985.00,1.12
8984.00,1.12
8983.00,1.12
8982.00,1.12
8981.00,1.11
8980.00,1.11
8979.00,1.11
8978.00,1.11
8977.00,1.11
8976.00,1.11
8975.00,1.11
8974.00,1.10
8973.00,1.10
8972.00,1.10
8971.00,1.10
8970.00,1.10
8969.00,1.10
8968.00,1.10
8967.00,1.10
8966.00,1.09
8965.00,1.09
8964.00,1.09
8963.00,1.09
8962.00,1.09
8961.00,1.09
8960.00,1.09
8959.00,1.10
8958.00,1.10
8957.00,1.10
8956.00,1.10
8955.00,1.10
8954.00,1.10
8953.00,1.10
8952.00,1.09
8951.00,1.09
8950.00,1.09
8949.00,1.09
8948.00,1.09
8947.00,1.10
8946.00,1.10
8945.00,1.10
8944.00,1.10
8943.00,1.10
8942.00,1.10
8941.00,1.10
8940.00,1.10
8939.00,1.10
8938.00,1.10
8937.00,1.10
8936.00,1.10
8935.00,1.10
8934.00,1.10
8933.00,1.10
8932.00,1.11
8931.00,1.11
8930.00,1.11
8929.00,1.11
8928.00,1.11
8927.00,1.11
8926.00,1.11
8925.00,1.11
8924.00,1.11
8923.00,1.11
8922.00,1.11
8921.00,1.10
8920.00,1.10
8919.00,1.10
8918.00,1.10
8917.00,1.10
8916.00,1.10
8915.00,1.10
8914.00,1.10
8913.00,1.10
8912.00,1.09
8911.00,1.09
8910.00,1.09
8909.00,1.09
8908.00,1.09
8907.00,1.09
8906.00,1.09
8905.00,1.09
8904.00,1.09
8903.00,1.09
8902.00,1.09
8901.00,1.09
8900.00,1.09
8899.00,1.10
8898.00,1.10
8897.00,1.10
8896.00,1.10
8895.00,1.10
8894.00,1.10
8893.00,1.10
8892.00,1.10
8891.00,1.10
8890.00,1.10
8889.00,1.10
8888.00,1.10
8887.00,1.10
8886.00,1.10
8885.00,1.10
8884.00,1.10
8883.00,1.09
8882.00,1.09
8881.00,1.09
8880.00,1.09
8879.00,1.09
8878.00,1.09
8877.00,1.09
8876.00,1.09
8875.00,1.09
8874.00,1.09
8873.00,1.09
8872.00,1.09
8871.00,1.09
8870.00,1.09
8869.00,1.09
8868.00,1.09
8867.00,1.09
8866.00,1.09
8865.00,1.09
8864.00,1.09
8863.00,1.09
8862.00,1.09
8861.00,1.09
8860.00,1.09
8859.00,1.09
8858.00,1.09
8857.00,1.09
8856.00,1.09
8855.00,1.09
8854.00,1.09
8853.00,1.09
8852.00,1.10
8851.00,1.10
8850.00,1.10
8849.00,1.10
8848.00,1.10
8847.00,1.10
8846.00,1.09
8845.00,1.09
8844.00,1.09
8843.00,1.09
8842.00,1.09
8841.00,1.09
8840.00,1.09
8839.00,1.09
8838.00,1.09
8837.00,1.09
8836.00,1.09
8835.00,1.09
8834.00,1.09
8833.00,1.09
8832.00,1.09
8831.00,1.09
8830.00,1.09
8829.00,1.09
8828.00,1.10
8827.00,1.10
8826.00,1.10
8825.00,1.10
8824.00,1.10
8823.00,1.10
8822.00,1.10
8821.00,1.10
8820.00,1.10
8819.00,1.09
8818.00,1.09
8817.00,1.09
8816.00,1.09
8815.00,1.09
8814.00,1.09
8813.00,1.09
8812.00,1.09
8811.00,1.09
8810.00,1.09
8809.00,1.10
8808.00,1.10
8807.00,1.10
8806.00,1.10
8805.00,1.10
8804.00,1.10
8803.00,1.10
8802.00,1.10
8801.00,1.10
8800.00,1.10
8799.00,1.10
8798.00,1.10
8797.00,1.10
8796.00,1.10
8795.00,1.09
8794.00,1.09
8793.00,1.09
8792.00,1.09
8791.00,1.09
8790.00,1.09
8789.00,1.08
8788.00,1.08
8787.00,1.08
8786.00,1.08
8785.00,1.08
8784.00,1.08
8783.00,1.08
8782.00,1.08
8781.00,1.08
8780.00,1.08
8779.00,1.07
8778.00,1.07
8777.00,1.07
8776.00,1.07
8775.00,1.07
8774.00,1.07
8773.00,1.07
8772.00,1.07
8771.00,1.07
8770.00,1.07
8769.00,1.07
8768.00,1.07
8767.00,1.07
8766.00,1.07
8765.00,1.07
8764.00,1.07
8763.00,1.07
8762.00,1.07
8761.00,1.07
8760.00,1.07
8759.00,1.07
8758.00,1.07
8757.00,1.06
8756.00,1.06
8755.00,1.06
8754.00,1.06
8753.00,1.06
8752.00,1.06
8751.00,1.06
8750.00,1.06
8749.00,1.06
8748.00,1.06
8747.00,1.06
8746.00,1.06
8745.00,1.06
8744.00,1.06
8743.00,1.06
8742.00,1.06
8741.00,1.07
8740.00,1.07
8739.00,1.07
8738.00,1.07
8737.00,1.07
8736.00,1.07
8735.00,1.07
8734.00,1.07
8733.00,1.07
8732.00,1.07
8731.00,1.07
8730.00,1.08
8729.00,1.08
8728.00,1.08
8727.00,1.08
8726.00,1.08
8725.00,1.08
8724.00,1.08
8723.00,1.08
8722.00,1.08
8721.00,1.08
8720.00,1.08
8719.00,1.08
8718.00,1.08
8717.00,1.08
8716.00,1.07
8715.00,1.07
8714.00,1.07
8713.00,1.07
8712.00,1.07
8711.00,1.07
8710.00,1.07
8709.00,1.06
8708.00,1.06
8707.00,1.06
8706.00,1.06
8705.00,1.06
8704.00,1.06
8703.00,1.06
8702.00,1.06
8701.00,1.06
8700.00,1.06
8699.00,1.06
8698.00,1.05
8697.00,1.05
8696.00,1.05
8695.00,1.05
8694.00,1.05
8693.00,1.05
8692.00,1.05
8691.00,1.05
8690.00,1.05
8689.00,1.05
8688.00,1.05
8687.00,1.05
8686.00,1.05
8685.00,1.05
8684.00,1.05
8683.00,1.05
8682.00,1.05
8681.00,1.05
8680.00,1.05
8679.00,1.05
8678.00,1.05
8677.00,1.05
8676.00,1.05
8675.00,1.06
8674.00,1.06
8673.00,1.06
8672.00,1.06
8671.00,1.06
8670.00,1.06
8669.00,1.06
8668.00,1.06
8667.00,1.07
8666.00,1.07
8665.00,1.07
8664.00,1.07
8663.00,1.07
8662.00,1.07
8661.00,1.07
8660.00,1.07
8659.00,1.07
8658.00,1.07
8657.00,1.07
8656.00,1.07
8655.00,1.07
8654.00,1.07
8653.00,1.07
8652.00,1.06
8651.00,1.06
8650.00,1.06
8649.00,1.06
8648.00,1.06
8647.00,1.06
8646.00,1.06
8645.00,1.06
8644.00,1.06
8643.00,1.06
8642.00,1.06
8641.00,1.06
8640.00,1.06
8639.00,1.06
8638.00,1.06
8637.00,1.06
8636.00,1.06
8635.00,1.06
8634.00,1.06
8633.00,1.05
8632.00,1.05
8631.00,1.05
8630.00,1.05
8629.00,1.05
8628.00,1.05
8627.00,1.05
8626.00,1.05
8625.00,1.05
8624.00,1.05
8623.00,1.05
8622.00,1.04
8621.00,1.04
8620.00,1.04
8619.00,1.04
8618.00,1.04
8617.00,1.04
8616.00,1.04
8615.00,1.04
8614.00,1.04
8613.00,1.04
8612.00,1.04
8611.00,1.04
8610.00,1.04
8609.00,1.04
8608.00,1.04
8607.00,1.04
8606.00,1.04
8605.00,1.04
8604.00,1.04
8603.00,1.04
8602.00,1.04
8601.00,1.04
8600.00,1.04
8599.00,1.04
8598.00,1.04
8597.00,1.04
8596.00,1.04
8595.00,1.04
8594.00,1.04
8593.00,1.04
8592.00,1.04
8591.00,1.04
8590.00,1.04
8589.00,1.04
8588.00,1.04
8587.00,1.04
8586.00,1.04
8585.00,1.04
8584.00,1.04
8583.00,1.04
8582.00,1.04
8581.00,1.04
8580.00,1.04
8579.00,1.04
8578.00,1.04
8577.00,1.03
8576.00,1.03
8575.00,1.03
8574.00,1.03
8573.00,1.03
8572.00,1.03
8571.00,1.02
8570.00,1.02
8569.00,1.02
8568.00,1.02
8567.00,1.01
8566.00,1.01
8565.00,1.01
8564.00,1.01
8563.00,1.01
8562.00,1.01
8561.00,1.01
8560.00,1.01
8559.00,1.01
8558.00,1.01
8557.00,1.01
8556.00,1.02
8555.00,1.02
8554.00,1.02
8553.00,1.02
8552.00,1.02
8551.00,1.03
8550.00,1.03
8549.00,1.03
8548.00,1.03
8547.00,1.03
8546.00,1.03
8545.00,1.03
8544.00,1.03
8543.00,1.03
8542.00,1.03
8541.00,1.03
8540.00,1.03
8539.00,1.03
8538.00,1.03
8537.00,1.03
8536.00,1.03
8535.00,1.03
8534.00,1.02
8533.00,1.02
8532.00,1.02
8531.00,1.02
8530.00,1.02
8529.00,1.01
8528.00,1.01
8527.00,1.01
8526.00,1.01
8525.00,1.01
8524.00,1.01
8523.00,1.01
8522.00,1.01
8521.00,1.01
8520.00,1.01
8519.00,1.00
8518.00,1.00
8517.00,1.00
8516.00,1.00
8515.00,1.00
8514.00,1.00
8513.00,1.00
8512.00,1.00
8511.00,1.00
8510.00,1.00
8509.00,1.00
8508.00,1.00
8507.00,1.00
8506.00,1.00
8505.00,1.00
8504.00,1.00
8503.00,1.00
8502.00,1.00
8501.00,1.00
8500.00,1.00
8499.00,1.00
8498.00,0.99
8497.00,0.99
8496.00,0.99
8495.00,0.99
8494.00,0.99
8493.00,0.99
8492.00,0.99
8491.00,0.99
8490.00,0.99
8489.00,0.99
8488.00,0.99
8487.00,0.98
8486.00,0.98
8485.00,0.98
8484.00,0.98
8483.00,0.98
8482.00,0.98
8481.00,0.98
8480.00,0.98
8479.00,0.98
8478.00,0.98
8477.00,0.98
8476.00,0.98
8475.00,0.97
8474.00,0.97
8473.00,0.97
8472.00,0.97
8471.00,0.97
8470.00,0.97
8469.00,0.97
8468.00,0.96
8467.00,0.96
8466.00,0.96
8465.00,0.96
8464.00,0.96
8463.00,0.96
8462.00,0.96
8461.00,0.96
8460.00,0.96
8459.00,0.96
8458.00,0.96
8457.00,0.96
8456.00,0.96
8455.00,0.96
8454.00,0.96
8453.00,0.96
8452.00,0.96
8451.00,0.96
8450.00,0.96
8449.00,0.96
8448.00,0.96
8447.00,0.96
8446.00,0.96
8445.00,0.96
8444.00,0.96
8443.00,0.96
8442.00,0.96
8441.00,0.96
8440.00,0.96
8439.00,0.97
8438.00,0.97
8437.00,0.97
8436.00,0.97
8435.00,0.97
8434.00,0.97
8433.00,0.97
8432.00,0.97
8431.00,0.98
8430.00,0.98
8429.00,0.98
8428.00,0.98
8427.00,0.98
8426.00,0.98
8425.00,0.98
8424.00,0.98
8423.00,0.98
8422.00,0.98
8421.00,0.98
8420.00,0.98
8419.00,0.97
8418.00,0.97
8417.00,0.97
8416.00,0.97
8415.00,0.97
8414.00,0.97
8413.00,0.97
8412.00,0.97
8411.00,0.98
8410.00,0.98
8409.00,0.98
8408.00,0.98
8407.00,0.98
8406.00,0.98
8405.00,0.98
8404.00,0.98
8403.00,0.99
8402.00,0.99
8401.00,0.99
8400.00,0.99
8399.00,0.99
8398.00,0.99
8397.00,0.99
8396.00,1.00
8395.00,1.00
8394.00,1.00
8393.00,1.00
8392.00,1.00
8391.00,1.00
8390.00,1.00
8389.00,1.00
8388.00,1.00
8387.00,1.00
8386.00,1.00
8385.00,1.00
8384.00,1.00
8383.00,1.00
8382.00,1.00
8381.00,1.00
8380.00,1.00
8379.00,1.00
8378.00,1.00
8377.00,1.00
8376.00,1.00
8375.00,1.00
8374.00,1.00
8373.00,1.00
8372.00,1.00
8371.00,1.00
8370.00,1.01
8369.00,1.01
8368.00,1.01
8367.00,1.01
8366.00,1.01
8365.00,1.01
8364.00,1.01
8363.00,1.01
8362.00,1.02
8361.00,1.02
8360.00,1.02
8359.00,1.02
8358.00,1.02
8357.00,1.02
8356.00,1.02
8355.00,1.02
8354.00,1.02
8353.00,1.02
8352.00,1.02
8351.00,1.02
8350.00,1.02
8349.00,1.02
8348.00,1.02
8347.00,1.02
8346.00,1.02
8345.00,1.02
8344.00,1.01
8343.00,1.01
8342.00,1.01
8341.00,1.01
8340.00,1.01
8339.00,1.01
8338.00,1.01
8337.00,1.01
8336.00,1.01
8335.00,1.01
8334.00,1.01
8333.00,1.01
8332.00,1.01
8331.00,1.01
8330.00,1.01
8329.00,1.01
8328.00,1.01
8327.00,1.01
8326.00,1.01
8325.00,1.01
8324.00,1.01
8323.00,1.01
8322.00,1.01
8321.00,1.01
8320.00,1.01
8319.00,1.01
8318.00,1.01
8317.00,1.01
8316.00,1.01
8315.00,1.01
8314.00,1.01
8313.00,1.01
8312.00,1.01
8311.00,1.01
8310.00,1.01
8309.00,1.01
8308.00,1.01
8307.00,1.01
8306.00,1.01
8305.00,1.01
8304.00,1.01
8303.00,1.01
8302.00,1.01
8301.00,1.01
8300.00,1.01
8299.00,1.01
8298.00,1.01
8297.00,1.01
8296.00,1.01
8295.00,1.01
8294.00,1.01
8293.00,1.01
8292.00,1.01
8291.00,1.01
8290.00,1.01
8289.00,1.01
8288.00,1.01
8287.00,1.01
8286.00,1.01
8285.00,1.01
8284.00,1.01
8283.00,1.01
8282.00,1.01
8281.00,1.01
8280.00,1.01
8279.00,1.01
8278.00,1.01
8277.00,1.01
8276.00,1.01
8275.00,1.01
8274.00,1.01
8273.00,1.01
8272.00,1.02
8271.00,1.02
8270.00,1.02
8269.00,1.02
8268.00,1.02
8267.00,1.02
8266.00,1.02
8265.00,1.02
8264.00,1.02
8263.00,1.02
8262.00,1.03
8261.00,1.03
8260.00,1.03
8259.00,1.03
8258.00,1.03
8257.00,1.03
8256.00,1.03
8255.00,1.03
8254.00,1.03
8253.00,1.03
8252.00,1.03
8251.00,1.03
8250.00,1.03
8249.00,1.03
8248.00,1.03
8247.00,1.03
8246.00,1.03
8245.00,1.03
8244.00,1.03
8243.00,1.03
8242.00,1.03
8241.00,1.03
8240.00,1.03
8239.00,1.03
8238.00,1.03
8237.00,1.03
8236.00,1.03
8235.00,1.03
8234.00,1.03
8233.00,1.03
8232.00,1.03
8231.00,1.03
8230.00,1.03
8229.00,1.03
8228.00,1.03
8227.00,1.03
8226.00,1.03
8225.00,1.03
8224.00,1.03
8223.00,1.03
8222.00,1.03
8221.00,1.03
8220.00,1.03
8219.00,1.03
8218.00,1.03
8217.00,1.03
8216.00,1.03
8215.00,1.03
8214.00,1.03
8213.00,1.03
8212.00,1.03
8211.00,1.03
8210.00,1.03
8209.00,1.03
8208.00,1.03
8207.00,1.03
8206.00,1.03
8205.00,1.03
8204.00,1.03
8203.00,1.03
8202.00,1.03
8201.00,1.03
8200.00,1.03
8199.00,1.03
8198.00,1.03
8197.00,1.04
8196.00,1.04
8195.00,1.04
8194.00,1.04
8193.00,1.04
8192.00,1.04
8191.00,1.04
8190.00,1.04
8189.00,1.04
8188.00,1.05
8187.00,1.05
8186.00,1.05
8185.00,1.05
8184.00,1.05
8183.00,1.05
8182.00,1.05
8181.00,1.06
8180.00,1.06
8179.00,1.06
8178.00,1.06
8177.00,1.06
8176.00,1.06
8175.00,1.06
8174.00,1.06
8173.00,1.06
8172.00,1.06
8171.00,1.06
8170.00,1.05
8169.00,1.05
8168.00,1.05
8167.00,1.05
8166.00,1.05
8165.00,1.05
8164.00,1.04
8163.00,1.04
8162.00,1.04
8161.00,1.04
8160.00,1.04
8159.00,1.04
8158.00,1.04
8157.00,1.04
8156.00,1.03
8155.00,1.03
8154.00,1.03
8153.00,1.03
8152.00,1.03
8151.00,1.03
8150.00,1.03
8149.00,1.04
8148.00,1.04
8147.00,1.04
8146.00,1.04
8145.00,1.04
8144.00,1.04
8143.00,1.04
8142.00,1.04
8141.00,1.05
8140.00,1.05
8139.00,1.05
8138.00,1.05
8137.00,1.05
8136.00,1.05
8135.00,1.06
8134.00,1.06
8133.00,1.06
8132.00,1.06
8131.00,1.06
8130.00,1.06
8129.00,1.06
8128.00,1.06
8127.00,1.06
8126.00,1.06
8125.00,1.06
8124.00,1.06
8123.00,1.06
8122.00,1.07
8121.00,1.07
8120.00,1.07
8119.00,1.07
8118.00,1.07
8117.00,1.07
8116.00,1.07
8115.00,1.07
8114.00,1.07
8113.00,1.07
8112.00,1.07
8111.00,1.06
8110.00,1.06
8109.00,1.06
8108.00,1.06
8107.00,1.06
8106.00,1.06
8105.00,1.06
8104.00,1.06
8103.00,1.06
8102.00,1.06
8101.00,1.06
8100.00,1.06
8099.00,1.06
8098.00,1.06
8097.00,1.06
8096.00,1.06
8095.00,1.06
8094.00,1.06
8093.00,1.06
8092.00,1.06
8091.00,1.06
8090.00,1.06
8089.00,1.06
8088.00,1.06
8087.00,1.06
8086.00,1.06
8085.00,1.06
8084.00,1.06
8083.00,1.06
8082.00,1.06
8081.00,1.06
8080.00,1.06
8079.00,1.05
8078.00,1.05
8077.00,1.05
8076.00,1.05
8075.00,1.05
8074.00,1.05
8073.00,1.06
8072.00,1.06
8071.00,1.06
8070.00,1.06
8069.00,1.06
8068.00,1.06
8067.00,1.06
8066.00,1.06
8065.00,1.06
8064.00,1.06
8063.00,1.07
8062.00,1.07
8061.00,1.07
8060.00,1.07
8059.00,1.07
8058.00,1.07
8057.00,1.07
8056.00,1.08
8055.00,1.08
8054.00,1.08
8053.00,1.08
8052.00,1.08
8051.00,1.08
8050.00,1.08
8049.00,1.08
8048.00,1.08
8047.00,1.08
8046.00,1.08
8045.00,1.08
8044.00,1.07
8043.00,1.07
8042.00,1.07
8041.00,1.07
8040.00,1.07
8039.00,1.07
8038.00,1.07
8037.00,1.07
8036.00,1.07
8035.00,1.07
8034.00,1.07
8033.00,1.07
8032.00,1.07
8031.00,1.07
8030.00,1.07
8029.00,1.07
8028.00,1.07
8027.00,1.07
8026.00,1.07
8025.00,1.07
8024.00,1.07
8023.00,1.07
8022.00,1.07
8021.00,1.07
8020.00,1.07
8019.00,1.07
8018.00,1.07
8017.00,1.07
8016.00,1.07
8015.00,1.07
8014.00,1.07
8013.00,1.07
8012.00,1.07
8011.00,1.07
8010.00,1.07
8009.00,1.07
8008.00,1.07
8007.00,1.07
8006.00,1.07
8005.00,1.07
8004.00,1.07
8003.00,1.07
8002.00,1.07
8001.00,1.07
8000.00,1.07
7999.00,1.07
7998.00,1.07
7997.00,1.07
7996.00,1.07
7995.00,1.07
7994.00,1.07
7993.00,1.07
7992.00,1.07
7991.00,1.07
7990.00,1.07
7989.00,1.07
7988.00,1.07
7987.00,1.08
7986.00,1.08
7985.00,1.08
7984.00,1.08
7983.00,1.08
7982.00,1.08
7981.00,1.08
7980.00,1.08
7979.00,1.08
7978.00,1.08
7977.00,1.08
7976.00,1.08
7975.00,1.08
7974.00,1.08
7973.00,1.08
7972.00,1.09
7971.00,1.09
7970.00,1.09
7969.00,1.09
7968.00,1.09
7967.00,1.09
7966.00,1.09
7965.00,1.09
7964.00,1.09
7963.00,1.09
7962.00,1.09
7961.00,1.09
7960.00,1.09
7959.00,1.09
7958.00,1.09
7957.00,1.09
7956.00,1.09
7955.00,1.09
7954.00,1.09
7953.00,1.10
7952.00,1.10
7951.00,1.10
7950.00,1.09
7949.00,1.09
7948.00,1.09
7947.00,1.09
7946.00,1.09
7945.00,1.09
7944.00,1.09
7943.00,1.09
7942.00,1.09
7941.00,1.09
7940.00,1.08
7939.00,1.08
7938.00,1.08
7937.00,1.08
7936.00,1.08
7935.00,1.08
7934.00,1.08
7933.00,1.08
7932.00,1.08
7931.00,1.08
7930.00,1.08
7929.00,1.08
7928.00,1.07
7927.00,1.07
7926.00,1.07
7925.00,1.07
7924.00,1.07
7923.00,1.07
7922.00,1.07
7921.00,1.07
7920.00,1.07
7919.00,1.07
7918.00,1.07
7917.00,1.07
7916.00,1.07
7915.00,1.07
7914.00,1.07
7913.00,1.08
7912.00,1.08
7911.00,1.08
7910.00,1.08
7909.00,1.08
7908.00,1.08
7907.00,1.08
7906.00,1.08
7905.00,1.08
7904.00,1.08
7903.00,1.08
7902.00,1.09
7901.00,1.09
7900.00,1.09
7899.00,1.09
7898.00,1.09
7897.00,1.09
7896.00,1.09
7895.00,1.09
7894.00,1.10
7893.00,1.10
7892.00,1.10
7891.00,1.10
7890.00,1.10
7889.00,1.10
7888.00,1.10
7887.00,1.10
7886.00,1.10
7885.00,1.10
7884.00,1.10
7883.00,1.10
7882.00,1.10
7881.00,1.10
7880.00,1.10
7879.00,1.10
7878.00,1.10
7877.00,1.09
7876.00,1.09
7875.00,1.09
7874.00,1.09
7873.00,1.09
7872.00,1.09
7871.00,1.09
7870.00,1.09
7869.00,1.09
7868.00,1.09
7867.00,1.09
7866.00,1.09
7865.00,1.09
7864.00,1.09
7863.00,1.09
7862.00,1.09
7861.00,1.09
7860.00,1.09
7859.00,1.09
7858.00,1.09
7857.00,1.09
7856.00,1.09
7855.00,1.09
7854.00,1.09
7853.00,1.09
7852.00,1.09
7851.00,1.09
7850.00,1.09
7849.00,1.10
7848.00,1.10
7847.00,1.10
7846.00,1.10
7845.00,1.10
7844.00,1.10
7843.00,1.10
7842.00,1.10
7841.00,1.10
7840.00,1.10
7839.00,1.10
7838.00,1.10
7837.00,1.10
7836.00,1.10
7835.00,1.10
7834.00,1.10
7833.00,1.10
7832.00,1.10
7831.00,1.10
7830.00,1.10
7829.00,1.10
7828.00,1.10
7827.00,1.10
7826.00,1.10
7825.00,1.10
7824.00,1.10
7823.00,1.10
7822.00,1.11
7821.00,1.11
7820.00,1.11
7819.00,1.11
7818.00,1.11
7817.00,1.11
7816.00,1.11
7815.00,1.11
7814.00,1.11
7813.00,1.11
7812.00,1.12
7811.00,1.12
7810.00,1.12
7809.00,1.12
7808.00,1.12
7807.00,1.12
7806.00,1.11
7805.00,1.11
7804.00,1.11
7803.00,1.11
7802.00,1.11
7801.00,1.11
7800.00,1.11
7799.00,1.11
7798.00,1.11
7797.00,1.11
7796.00,1.11
7795.00,1.10
7794.00,1.10
7793.00,1.10
7792.00,1.10
7791.00,1.10
7790.00,1.10
7789.00,1.10
7788.00,1.10
7787.00,1.10
7786.00,1.10
7785.00,1.10
7784.00,1.10
7783.00,1.10
7782.00,1.10
7781.00,1.10
7780.00,1.10
7779.00,1.10
7778.00,1.10
7777.00,1.10
7776.00,1.10
7775.00,1.10
7774.00,1.10
7773.00,1.11
7772.00,1.11
7771.00,1.11
7770.00,1.11
7769.00,1.11
7768.00,1.11
7767.00,1.11
7766.00,1.11
7765.00,1.11
7764.00,1.11
7763.00,1.11
7762.00,1.11
7761.00,1.11
7760.00,1.11
7759.00,1.11
7758.00,1.11
7757.00,1.11
7756.00,1.11
7755.00,1.11
7754.00,1.11
7753.00,1.11
7752.00,1.12
7751.00,1.12
7750.00,1.12
7749.00,1.12
7748.00,1.12
7747.00,1.12
7746.00,1.12
7745.00,1.12
7744.00,1.12
7743.00,1.12
7742.00,1.12
7741.00,1.12
7740.00,1.12
7739.00,1.12
7738.00,1.12
7737.00,1.12
7736.00,1.12
7735.00,1.12
7734.00,1.11
7733.00,1.11
7732.00,1.11
7731.00,1.11
7730.00,1.11
7729.00,1.11
7728.00,1.11
7727.00,1.11
7726.00,1.11
7725.00,1.11
7724.00,1.11
7723.00,1.11
7722.00,1.11
7721.00,1.11
7720.00,1.11
7719.00,1.11
7718.00,1.11
7717.00,1.11
7716.00,1.10
7715.00,1.10
7714.00,1.10
7713.00,1.10
7712.00,1.10
7711.00,1.10
7710.00,1.10
7709.00,1.10
7708.00,1.10
7707.00,1.10
7706.00,1.10
7705.00,1.10
7704.00,1.10
7703.00,1.10
7702.00,1.10
7701.00,1.10
7700.00,1.10
7699.00,1.10
7698.00,1.11
7697.00,1.11
7696.00,1.11
7695.00,1.11
7694.00,1.11
7693.00,1.11
7692.00,1.11
7691.00,1.11
7690.00,1.11
7689.00,1.11
7688.00,1.11
7687.00,1.11
7686.00,1.11
7685.00,1.11
7684.00,1.11
7683.00,1.11
7682.00,1.12
7681.00,1.12
7680.00,1.11
7679.00,1.11
7678.00,1.11
7677.00,1.11
7676.00,1.11
7675.00,1.11
7674.00,1.11
7673.00,1.11
7672.00,1.11
7671.00,1.11
7670.00,1.11
7669.00,1.11
7668.00,1.11
7667.00,1.11
7666.00,1.11
7665.00,1.10
7664.00,1.10
7663.00,1.10
7662.00,1.10
7661.00,1.10
7660.00,1.10
7659.00,1.10
7658.00,1.10
7657.00,1.10
7656.00,1.10
7655.00,1.10
7654.00,1.10
7653.00,1.10
7652.00,1.11
7651.00,1.11
7650.00,1.11
7649.00,1.11
7648.00,1.11
7647.00,1.11
7646.00,1.11
7645.00,1.11
7644.00,1.11
7643.00,1.11
7642.00,1.11
7641.00,1.11
7640.00,1.11
7639.00,1.11
7638.00,1.11
7637.00,1.11
7636.00,1.11
7635.00,1.11
7634.00,1.11
7633.00,1.11
7632.00,1.11
7631.00,1.12
7630.00,1.12
7629.00,1.12
7628.00,1.12
7627.00,1.12
7626.00,1.12
7625.00,1.12
7624.00,1.12
7623.00,1.12
7622.00,1.12
7621.00,1.12
7620.00,1.11
7619.00,1.11
7618.00,1.11
7617.00,1.11
7616.00,1.11
7615.00,1.11
7614.00,1.11
7613.00,1.11
7612.00,1.11
7611.00,1.11
7610.00,1.10
7609.00,1.10
7608.00,1.10
7607.00,1.10
7606.00,1.10
7605.00,1.10
7604.00,1.10
7603.00,1.10
7602.00,1.10
7601.00,1.10
7600.00,1.10
7599.00,1.10
7598.00,1.10
7597.00,1.10
7596.00,1.10
7595.00,1.10
7594.00,1.10
7593.00,1.10
7592.00,1.10
7591.00,1.10
7590.00,1.10
7589.00,1.10
7588.00,1.10
7587.00,1.10
7586.00,1.10
7585.00,1.10
7584.00,1.10
7583.00,1.10
7582.00,1.11
7581.00,1.11
7580.00,1.11
7579.00,1.11
7578.00,1.11
7577.00,1.11
7576.00,1.11
7575.00,1.11
7574.00,1.11
7573.00,1.11
7572.00,1.11
7571.00,1.11
7570.00,1.11
7569.00,1.11
7568.00,1.11
7567.00,1.11
7566.00,1.10
7565.00,1.10
7564.00,1.10
7563.00,1.10
7562.00,1.10
7561.00,1.10
7560.00,1.10
7559.00,1.10
7558.00,1.10
7557.00,1.10
7556.00,1.10
7555.00,1.10
7554.00,1.10
7553.00,1.10
7552.00,1.10
7551.00,1.09
7550.00,1.09
7549.00,1.09
7548.00,1.09
7547.00,1.09
7546.00,1.09
7545.00,1.09
7544.00,1.09
7543.00,1.09
7542.00,1.09
7541.00,1.08
7540.00,1.08
7539.00,1.08
7538.00,1.08
7537.00,1.08
7536.00,1.08
7535.00,1.09
7534.00,1.09
7533.00,1.09
7532.00,1.09
7531.00,1.09
7530.00,1.09
7529.00,1.09
7528.00,1.09
7527.00,1.09
7526.00,1.09
7525.00,1.09
7524.00,1.09
7523.00,1.09
7522.00,1.09
7521.00,1.09
7520.00,1.09
7519.00,1.09
7518.00,1.09
7517.00,1.09
7516.00,1.09
7515.00,1.09
7514.00,1.09
7513.00,1.09
7512.00,1.09
7511.00,1.09
7510.00,1.09
7509.00,1.09
7508.00,1.09
7507.00,1.09
7506.00,1.09
7505.00,1.09
7504.00,1.09
7503.00,1.09
7502.00,1.09
7501.00,1.09
7500.00,1.09
7499.00,1.09
7498.00,1.09
7497.00,1.09
7496.00,1.09
7495.00,1.09
7494.00,1.09
7493.00,1.09
7492.00,1.09
7491.00,1.09
7490.00,1.08
7489.00,1.08
7488.00,1.08
7487.00,1.08
7486.00,1.08
7485.00,1.08
7484.00,1.08
7483.00,1.08
7482.00,1.08
7481.00,1.08
7480.00,1.08
7479.00,1.08
7478.00,1.08
7477.00,1.08
7476.00,1.08
7475.00,1.08
7474.00,1.08
7473.00,1.08
7472.00,1.08
7471.00,1.08
7470.00,1.08
7469.00,1.08
7468.00,1.08
7467.00,1.08
7466.00,1.08
7465.00,1.08
7464.00,1.08
7463.00,1.08
7462.00,1.08
7461.00,1.08
7460.00,1.08
7459.00,1.08
7458.00,1.07
7457.00,1.07
7456.00,1.07
7455.00,1.07
7454.00,1.07
7453.00,1.07
7452.00,1.07
7451.00,1.07
7450.00,1.07
7449.00,1.06
7448.00,1.06
7447.00,1.06
7446.00,1.06
7445.00,1.06
7444.00,1.06
7443.00,1.06
7442.00,1.06
7441.00,1.06
7440.00,1.06
7439.00,1.06
7438.00,1.06
7437.00,1.06
7436.00,1.06
7435.00,1.06
7434.00,1.06
7433.00,1.06
7432.00,1.06
7431.00,1.06
7430.00,1.06
7429.00,1.06
7428.00,1.06
7427.00,1.06
7426.00,1.05
7425.00,1.05
7424.00,1.05
7423.00,1.05
7422.00,1.05
7421.00,1.05
7420.00,1.05
7419.00,1.05
7418.00,1.05
7417.00,1.05
7416.00,1.05
7415.00,1.05
7414.00,1.05
7413.00,1.05
7412.00,1.04
7411.00,1.04
7410.00,1.04
7409.00,1.04
7408.00,1.04
7407.00,1.04
7406.00,1.04
7405.00,1.04
7404.00,1.04
7403.00,1.04
7402.00,1.04
7401.00,1.04
7400.00,1.04
7399.00,1.03
7398.00,1.03
7397.00,1.03
7396.00,1.03
7395.00,1.03
7394.00,1.03
7393.00,1.03
7392.00,1.03
7391.00,1.03
7390.00,1.03
7389.00,1.03
7388.00,1.03
7387.00,1.03
7386.00,1.03
7385.00,1.03
7384.00,1.03
7383.00,1.03
7382.00,1.03
7381.00,1.02
7380.00,1.02
7379.00,1.02
7378.00,1.02
7377.00,1.02
7376.00,1.02
7375.00,1.02
7374.00,1.02
7373.00,1.02
7372.00,1.02
7371.00,1.02
7370.00,1.02
7369.00,1.02
7368.00,1.02
7367.00,1.02
7366.00,1.02
7365.00,1.02
7364.00,1.02
7363.00,1.02
7362.00,1.02
7361.00,1.02
7360.00,1.02
7359.00,1.02
7358.00,1.02
7357.00,1.02
7356.00,1.01
7355.00,1.01
7354.00,1.01
7353.00,1.01
7352.00,1.01
7351.00,1.01
7350.00,1.01
7349.00,1.01
7348.00,1.01
7347.00,1.01
7346.00,1.01
7345.00,1.01
7344.00,1.01
7343.00,1.01
7342.00,1.01
7341.00,1.01
7340.00,1.01
7339.00,1.01
7338.00,1.01
7337.00,1.01
7336.00,1.01
7335.00,1.01
7334.00,1.01
7333.00,1.01
7332.00,1.01
7331.00,1.01
7330.00,1.01
7329.00,1.01
7328.00,1.01
7327.00,1.01
7326.00,1.01
7325.00,1.01
7324.00,1.01
7323.00,1.01
7322.00,1.01
7321.00,1.01
7320.00,1.00
7319.00,1.00
7318.00,1.00
7317.00,1.00
7316.00,1.00
7315.00,1.00
7314.00,1.00
7313.00,1.00
7312.00,1.00
7311.00,1.00
7310.00,1.00
7309.00,1.00
7308.00,1.00
7307.00,1.00
7306.00,1.00
7305.00,1.00
7304.00,1.00
7303.00,1.00
7302.00,1.00
7301.00,1.00
7300.00,0.99
7299.00,0.99
7298.00,0.99
7297.00,0.99
7296.00,0.99
7295.00,0.99
7294.00,0.99
7293.00,0.99
7292.00,0.99
7291.00,0.98
7290.00,0.98
7289.00,0.98
7288.00,0.98
7287.00,0.98
7286.00,0.98
7285.00,0.98
7284.00,0.98
7283.00,0.98
7282.00,0.98
7281.00,0.98
7280.00,0.97
7279.00,0.97
7278.00,0.97
7277.00,0.97
7276.00,0.97
7275.00,0.97
7274.00,0.97
7273.00,0.97
7272.00,0.97
7271.00,0.97
7270.00,0.97
7269.00,0.97
7268.00,0.97
7267.00,0.97
7266.00,0.97
7265.00,0.97
7264.00,0.97
7263.00,0.97
7262.00,0.97
7261.00,0.97
7260.00,0.97
7259.00,0.96
7258.00,0.96
7257.00,0.96
7256.00,0.96
7255.00,0.96
7254.00,0.96
7253.00,0.96
7252.00,0.95
7251.00,0.95
7250.00,0.95
7249.00,0.95
7248.00,0.95
7247.00,0.94
7246.00,0.94
7245.00,0.94
7244.00,0.94
7243.00,0.94
7242.00,0.93
7241.00,0.93
7240.00,0.93
7239.00,0.93
7238.00,0.92
7237.00,0.92
7236.00,0.92
7235.00,0.92
7234.00,0.91
7233.00,0.91
7232.00,0.91
7231.00,0.90
7230.00,0.90
7229.00,0.90
7228.00,0.89
7227.00,0.89
7226.00,0.89
7225.00,0.88
7224.00,0.88
7223.00,0.88
7222.00,0.88
7221.00,0.87
7220.00,0.87
7219.00,0.87
7218.00,0.86
7217.00,0.86
7216.00,0.86
7215.00,0.86
7214.00,0.85
7213.00,0.85
7212.00,0.85
7211.00,0.84
7210.00,0.84
7209.00,0.84
7208.00,0.84
7207.00,0.83
7206.00,0.83
7205.00,0.83
7204.00,0.83
7203.00,0.82
7202.00,0.82
7201.00,0.82
7200.00,0.81
7199.00,0.81
7198.00,0.81
7197.00,0.81
7196.00,0.81
7195.00,0.80
7194.00,0.80
7193.00,0.80
7192.00,0.80
7191.00,0.79
7190.00,0.79
7189.00,0.79
7188.00,0.79
7187.00,0.79
7186.00,0.78
7185.00,0.78
7184.00,0.78
7183.00,0.78
7182.00,0.77
7181.00,0.77
7180.00,0.77
7179.00,0.77
7178.00,0.77
7177.00,0.76
7176.00,0.76
7175.00,0.76
7174.00,0.76
7173.00,0.75
7172.00,0.75
7171.00,0.75
7170.00,0.75
7169.00,0.75
7168.00,0.75
7167.00,0.74
7166.00,0.74
7165.00,0.74
7164.00,0.74
7163.00,0.74
7162.00,0.73
7161.00,0.73
7160.00,0.73
7159.00,0.73
7158.00,0.73
7157.00,0.72
7156.00,0.72
7155.00,0.72
7154.00,0.72
7153.00,0.71
7152.00,0.71
7151.00,0.71
7150.00,0.71
7149.00,0.70
7148.00,0.70
7147.00,0.70
7146.00,0.70
7145.00,0.70
7144.00,0.70
7143.00,0.69
7142.00,0.69
7141.00,0.69
7140.00,0.69
7139.00,0.69
7138.00,0.68
7137.00,0.68
7136.00,0.68
7135.00,0.68
7134.00,0.68
7133.00,0.67
7132.00,0.67
7131.00,0.67
7130.00,0.67
7129.00,0.67
7128.00,0.66
7127.00,0.66
7126.00,0.66
7125.00,0.66
7124.00,0.65
7123.00,0.65
7122.00,0.65
7121.00,0.65
7120.00,0.64
7119.00,0.64
7118.00,0.64
7117.00,0.64
7116.00,0.63
7115.00,0.63
7114.00,0.63
7113.00,0.63
7112.00,0.62
7111.00,0.62
7110.00,0.62
7109.00,0.62
7108.00,0.62
7107.00,0.62
7106.00,0.61
7105.00,0.61
7104.00,0.61
7103.00,0.61
7102.00,0.61
7101.00,0.61
7100.00,0.61
7099.00,0.60
7098.00,0.60
7097.00,0.60
7096.00,0.60
7095.00,0.60
7094.00,0.60
7093.00,0.60
7092.00,0.60
7091.00,0.59
7090.00,0.59
7089.00,0.59
7088.00,0.59
7087.00,0.59
7086.00,0.59
7085.00,0.59
7084.00,0.59
7083.00,0.59
7082.00,0.59
7081.00,0.59
7080.00,0.59
7079.00,0.58
7078.00,0.58
7077.00,0.58
7076.00,0.58
7075.00,0.58
7074.00,0.58
7073.00,0.58
7072.00,0.58
7071.00,0.57
7070.00,0.57
7069.00,0.57
7068.00,0.57
7067.00,0.57
7066.00,0.57
7065.00,0.57
7064.00,0.57
7063.00,0.57
7062.00,0.57
7061.00,0.57
7060.00,0.57
7059.00,0.57
7058.00,0.56
7057.00,0.56
7056.00,0.56
7055.00,0.56
7054.00,0.56
7053.00,0.56
7052.00,0.56
7051.00,0.56
7050.00,0.56
7049.00,0.56
7048.00,0.56
7047.00,0.55
7046.00,0.55
7045.00,0.55
7044.00,0.55
7043.00,0.55
7042.00,0.55
7041.00,0.55
7040.00,0.55
7039.00,0.55
7038.00,0.54
7037.00,0.54
7036.00,0.54
7035.00,0.54
7034.00,0.54
7033.00,0.54
7032.00,0.54
7031.00,0.54
7030.00,0.54
7029.00,0.54
7028.00,0.54
7027.00,0.54
7026.00,0.54
7025.00,0.54
7024.00,0.54
7023.00,0.54
7022.00,0.54
7021.00,0.53
7020.00,0.53
7019.00,0.53
7018.00,0.53
7017.00,0.53
7016.00,0.53
7015.00,0.53
7014.00,0.53
7013.00,0.53
7012.00,0.53
7011.00,0.53
7010.00,0.53
7009.00,0.52
7008.00,0.52
7007.00,0.52
7006.00,0.52
7005.00,0.52
7004.00,0.52
7003.00,0.52
7002.00,0.52
7001.00,0.52
7000.00,0.52
6999.00,0.52
6998.00,0.52
6997.00,0.52
6996.00,0.52
6995.00,0.52
6994.00,0.52
6993.00,0.52
6992.00,0.52
6991.00,0.52
6990.00,0.52
6989.00,0.52
6988.00,0.52
6987.00,0.52
6986.00,0.52
6985.00,0.52
6984.00,0.52
6983.00,0.52
6982.00,0.52
6981.00,0.52
6980.00,0.52
6979.00,0.52
6978.00,0.52
6977.00,0.52
6976.00,0.52
6975.00,0.51
6974.00,0.51
6973.00,0.51
6972.00,0.51
6971.00,0.51
6970.00,0.51
6969.00,0.51
6968.00,0.51
6967.00,0.50
6966.00,0.50
6965.00,0.50
6964.00,0.50
6963.00,0.50
6962.00,0.50
6961.00,0.50
6960.00,0.50
6959.00,0.50
6958.00,0.50
6957.00,0.50
6956.00,0.50
6955.00,0.50
6954.00,0.50
6953.00,0.49
6952.00,0.49
6951.00,0.49
6950.00,0.49
6949.00,0.49
6948.00,0.49
6947.00,0.49
6946.00,0.49
6945.00,0.49
6944.00,0.49
6943.00,0.49
6942.00,0.49
6941.00,0.49
6940.00,0.49
6939.00,0.49
6938.00,0.49
6937.00,0.50
6936.00,0.50
6935.00,0.50
6934.00,0.50
6933.00,0.50
6932.00,0.50
6931.00,0.50
6930.00,0.50
6929.00,0.50
6928.00,0.50
6927.00,0.50
6926.00,0.50
6925.00,0.50
6924.00,0.50
6923.00,0.50
6922.00,0.50
6921.00,0.50
6920.00,0.50
6919.00,0.50
6918.00,0.50
6917.00,0.50
6916.00,0.50
6915.00,0.50
6914.00,0.50
6913.00,0.50
6912.00,0.50
6911.00,0.50
6910.00,0.50
6909.00,0.50
6908.00,0.50
6907.00,0.50
6906.00,0.50
6905.00,0.50
6904.00,0.50
6903.00,0.50
6902.00,0.49
6901.00,0.49
6900.00,0.49
6899.00,0.49
6898.00,0.49
6897.00,0.49
6896.00,0.49
6895.00,0.49
6894.00,0.49
6893.00,0.49
6892.00,0.49
6891.00,0.49
6890.00,0.49
6889.00,0.49
6888.00,0.49
6887.00,0.49
6886.00,0.49
6885.00,0.49
6884.00,0.49
6883.00,0.49
6882.00,0.49
6881.00,0.49
6880.00,0.49
6879.00,0.49
6878.00,0.49
6877.00,0.49
6876.00,0.49
6875.00,0.49
6874.00,0.49
6873.00,0.49
6872.00,0.49
6871.00,0.49
6870.00,0.49
6869.00,0.49
6868.00,0.49
6867.00,0.49
6866.00,0.49
6865.00,0.49
6864.00,0.49
6863.00,0.49
6862.00,0.49
6861.00,0.49
6860.00,0.49
6859.00,0.49
6858.00,0.49
6857.00,0.49
6856.00,0.49
6855.00,0.49
6854.00,0.49
6853.00,0.49
6852.00,0.49
6851.00,0.49
6850.00,0.50
6849.00,0.50
6848.00,0.50
6847.00,0.50
6846.00,0.50
6845.00,0.50
6844.00,0.50
6843.00,0.50
6842.00,0.50
6841.00,0.50
6840.00,0.50
6839.00,0.50
6838.00,0.50
6837.00,0.50
6836.00,0.50
6835.00,0.50
6834.00,0.50
6833.00,0.50
6832.00,0.50
6831.00,0.50
6830.00,0.50
6829.00,0.50
6828.00,0.50
6827.00,0.50
6826.00,0.50
6825.00,0.50
6824.00,0.50
6823.00,0.51
6822.00,0.51
6821.00,0.51
6820.00,0.51
6819.00,0.51
6818.00,0.51
6817.00,0.51
6816.00,0.51
6815.00,0.51
6814.00,0.51
6813.00,0.51
6812.00,0.51
6811.00,0.51
6810.00,0.51
6809.00,0.51
6808.00,0.51
6807.00,0.51
6806.00,0.51
6805.00,0.51
6804.00,0.51
6803.00,0.51
6802.00,0.51
6801.00,0.52
6800.00,0.52
6799.00,0.52
6798.00,0.52
6797.00,0.52
6796.00,0.52
6795.00,0.52
6794.00,0.52
6793.00,0.52
6792.00,0.52
6791.00,0.52
6790.00,0.52
6789.00,0.52
6788.00,0.51
6787.00,0.51
6786.00,0.51
6785.00,0.51
6784.00,0.51
6783.00,0.51
6782.00,0.51
6781.00,0.51
6780.00,0.51
6779.00,0.51
6778.00,0.51
6777.00,0.51
6776.00,0.51
6775.00,0.51
6774.00,0.51
6773.00,0.51
6772.00,0.51
6771.00,0.52
6770.00,0.52
6769.00,0.52
6768.00,0.52
6767.00,0.52
6766.00,0.52
6765.00,0.52
6764.00,0.52
6763.00,0.52
6762.00,0.52
6761.00,0.52
6760.00,0.52
6759.00,0.52
6758.00,0.52
6757.00,0.52
6756.00,0.52
6755.00,0.52
6754.00,0.52
6753.00,0.52
6752.00,0.52
6751.00,0.52
6750.00,0.53
6749.00,0.53
6748.00,0.53
6747.00,0.53
6746.00,0.53
6745.00,0.53
6744.00,0.53
6743.00,0.53
6742.00,0.53
6741.00,0.53
6740.00,0.53
6739.00,0.53
6738.00,0.53
6737.00,0.54
6736.00,0.54
6735.00,0.54
6734.00,0.54
6733.00,0.54
6732.00,0.54
6731.00,0.54
6730.00,0.54
6729.00,0.54
6728.00,0.54
6727.00,0.54
6726.00,0.54
6725.00,0.54
6724.00,0.54
6723.00,0.54
6722.00,0.55
6721.00,0.55
6720.00,0.55
6719.00,0.55
6718.00,0.55
6717.00,0.55
6716.00,0.55
6715.00,0.55
6714.00,0.55
6713.00,0.55
6712.00,0.55
6711.00,0.55
6710.00,0.55
6709.00,0.55
6708.00,0.55
6707.00,0.55
6706.00,0.55
6705.00,0.55
6704.00,0.55
6703.00,0.55
6702.00,0.56
6701.00,0.56
6700.00,0.56
6699.00,0.56
6698.00,0.56
6697.00,0.56
6696.00,0.56
6695.00,0.56
6694.00,0.56
6693.00,0.56
6692.00,0.56
6691.00,0.56
6690.00,0.56
6689.00,0.56
6688.00,0.57
6687.00,0.57
6686.00,0.57
6685.00,0.57
6684.00,0.57
6683.00,0.57
6682.00,0.57
6681.00,0.57
6680.00,0.57
6679.00,0.57
6678.00,0.57
6677.00,0.57
6676.00,0.57
6675.00,0.57
6674.00,0.57
6673.00,0.58
6672.00,0.58
6671.00,0.58
6670.00,0.58
6669.00,0.58
6668.00,0.58
6667.00,0.58
6666.00,0.58
6665.00,0.58
6664.00,0.58
6663.00,0.59
6662.00,0.59
6661.00,0.59
6660.00,0.59
6659.00,0.59
6658.00,0.59
6657.00,0.59
6656.00,0.59
6655.00,0.59
6654.00,0.59
6653.00,0.59
6652.00,0.59
6651.00,0.59
6650.00,0.59
6649.00,0.59
6648.00,0.60
6647.00,0.60
6646.00,0.60
6645.00,0.60
6644.00,0.60
6643.00,0.60
6642.00,0.60
6641.00,0.60
6640.00,0.60
6639.00,0.60
6638.00,0.60
6637.00,0.60
6636.00,0.60
6635.00,0.60
6634.00,0.60
6633.00,0.60
6632.00,0.60
6631.00,0.61
6630.00,0.61
6629.00,0.61
6628.00,0.61
6627.00,0.61
6626.00,0.61
6625.00,0.61
6624.00,0.61
6623.00,0.61
6622.00,0.61
6621.00,0.62
6620.00,0.62
6619.00,0.62
6618.00,0.62
6617.00,0.62
6616.00,0.62
6615.00,0.62
6614.00,0.62
6613.00,0.62
6612.00,0.62
6611.00,0.62
6610.00,0.62
6609.00,0.62
6608.00,0.62
6607.00,0.62
6606.00,0.63
6605.00,0.63
6604.00,0.63
6603.00,0.63
6602.00,0.63
6601.00,0.63
6600.00,0.63
6599.00,0.63
6598.00,0.63
6597.00,0.63
6596.00,0.64
6595.00,0.64
6594.00,0.64
6593.00,0.64
6592.00,0.64
6591.00,0.64
6590.00,0.64
6589.00,0.64
6588.00,0.64
6587.00,0.64
6586.00,0.64
6585.00,0.64
6584.00,0.64
6583.00,0.64
6582.00,0.64
6581.00,0.64
6580.00,0.64
6579.00,0.64
6578.00,0.64
6577.00,0.64
6576.00,0.64
6575.00,0.64
6574.00,0.64
6573.00,0.64
6572.00,0.64
6571.00,0.65
6570.00,0.65
6569.00,0.65
6568.00,0.65
6567.00,0.65
6566.00,0.65
6565.00,0.65
6564.00,0.65
6563.00,0.66
6562.00,0.66
6561.00,0.66
6560.00,0.66
6559.00,0.66
6558.00,0.66
6557.00,0.66
6556.00,0.66
6555.00,0.66
6554.00,0.66
6553.00,0.66
6552.00,0.66
6551.00,0.66
6550.00,0.66
6549.00,0.66
6548.00,0.66
6547.00,0.66
6546.00,0.66
6545.00,0.66
6544.00,0.66
6543.00,0.66
6542.00,0.66
6541.00,0.66
6540.00,0.67
6539.00,0.67
6538.00,0.67
6537.00,0.67
6536.00,0.67
6535.00,0.67
6534.00,0.67
6533.00,0.67
6532.00,0.67
6531.00,0.67
6530.00,0.67
6529.00,0.67
6528.00,0.67
6527.00,0.67
6526.00,0.67
6525.00,0.67
6524.00,0.68
6523.00,0.68
6522.00,0.68
6521.00,0.68
6520.00,0.68
6519.00,0.68
6518.00,0.68
6517.00,0.68
6516.00,0.68
6515.00,0.68
6514.00,0.68
6513.00,0.68
6512.00,0.68
6511.00,0.68
6510.00,0.68
6509.00,0.68
6508.00,0.69
6507.00,0.69
6506.00,0.69
6505.00,0.69
6504.00,0.69
6503.00,0.69
6502.00,0.69
6501.00,0.69
6500.00,0.69
6499.00,0.69
6498.00,0.69
6497.00,0.69
6496.00,0.69
6495.00,0.70
6494.00,0.70
6493.00,0.70
6492.00,0.70
6491.00,0.70
6490.00,0.70
6489.00,0.70
6488.00,0.70
6487.00,0.70
6486.00,0.70
6485.00,0.70
6484.00,0.71
6483.00,0.71
6482.00,0.71
6481.00,0.71
6480.00,0.71
6479.00,0.71
6478.00,0.71
6477.00,0.71
6476.00,0.71
6475.00,0.71
6474.00,0.71
6473.00,0.71
6472.00,0.71
6471.00,0.71
6470.00,0.71
6469.00,0.71
6468.00,0.71
6467.00,0.71
6466.00,0.71
6465.00,0.71
6464.00,0.71
6463.00,0.71
6462.00,0.71
6461.00,0.71
6460.00,0.71
6459.00,0.71
6458.00,0.71
6457.00,0.71
6456.00,0.71
6455.00,0.71
6454.00,0.71
6453.00,0.71
6452.00,0.71
6451.00,0.72
6450.00,0.72
6449.00,0.72
6448.00,0.72
6447.00,0.72
6446.00,0.72
6445.00,0.72
6444.00,0.72
6443.00,0.72
6442.00,0.72
6441.00,0.72
6440.00,0.72
6439.00,0.72
6438.00,0.72
6437.00,0.72
6436.00,0.73
6435.00,0.73
6434.00,0.73
6433.00,0.73
6432.00,0.73
6431.00,0.73
6430.00,0.73
6429.00,0.73
6428.00,0.73
6427.00,0.73
6426.00,0.73
6425.00,0.73
6424.00,0.73
6423.00,0.73
6422.00,0.73
6421.00,0.73
6420.00,0.73
6419.00,0.73
6418.00,0.73
6417.00,0.73
6416.00,0.73
6415.00,0.73
6414.00,0.73
6413.00,0.73
6412.00,0.74
6411.00,0.74
6410.00,0.74
6409.00,0.74
6408.00,0.74
6407.00,0.74
6406.00,0.74
6405.00,0.74
6404.00,0.74
6403.00,0.74
6402.00,0.74
6401.00,0.74
6400.00,0.74
6399.00,0.74
6398.00,0.74
6397.00,0.75
6396.00,0.75
6395.00,0.75
6394.00,0.75
6393.00,0.75
6392.00,0.75
6391.00,0.75
6390.00,0.75
6389.00,0.75
6388.00,0.75
6387.00,0.75
6386.00,0.75
6385.00,0.75
6384.00,0.75
6383.00,0.75
6382.00,0.75
6381.00,0.75
6380.00,0.75
6379.00,0.75
6378.00,0.75
6377.00,0.75
6376.00,0.75
6375.00,0.75
6374.00,0.75
6373.00,0.75
6372.00,0.75
6371.00,0.75
6370.00,0.75
6369.00,0.75
6368.00,0.75
6367.00,0.76
6366.00,0.76
6365.00,0.76
6364.00,0.76
6363.00,0.76
6362.00,0.76
6361.00,0.76
6360.00,0.76
6359.00,0.76
6358.00,0.77
6357.00,0.77
6356.00,0.77
6355.00,0.77
6354.00,0.77
6353.00,0.77
6352.00,0.77
6351.00,0.77
6350.00,0.77
6349.00,0.77
6348.00,0.77
6347.00,0.77
6346.00,0.77
6345.00,0.77
6344.00,0.77
6343.00,0.77
6342.00,0.77
6341.00,0.77
6340.00,0.77
6339.00,0.77
6338.00,0.77
6337.00,0.77
6336.00,0.77
6335.00,0.77
6334.00,0.77
6333.00,0.77
6332.00,0.78
6331.00,0.78
6330.00,0.78
6329.00,0.78
6328.00,0.78
6327.00,0.78
6326.00,0.78
6325.00,0.78
6324.00,0.79
6323.00,0.79
6322.00,0.79
6321.00,0.79
6320.00,0.79
6319.00,0.79
6318.00,0.79
6317.00,0.79
6316.00,0.80
6315.00,0.80
6314.00,0.80
6313.00,0.80
6312.00,0.80
6311.00,0.80
6310.00,0.80
6309.00,0.80
6308.00,0.80
6307.00,0.80
6306.00,0.81
6305.00,0.81
6304.00,0.81
6303.00,0.81
6302.00,0.81
6301.00,0.81
6300.00,0.81
6299.00,0.81
6298.00,0.81
6297.00,0.81
6296.00,0.81
6295.00,0.81
6294.00,0.81
6293.00,0.81
6292.00,0.81
6291.00,0.81
6290.00,0.81
6289.00,0.82
6288.00,0.82
6287.00,0.82
6286.00,0.82
6285.00,0.82
6284.00,0.82
6283.00,0.82
6282.00,0.82
6281.00,0.82
6280.00,0.82
6279.00,0.82
6278.00,0.83
6277.00,0.83
6276.00,0.83
6275.00,0.83
6274.00,0.83
6273.00,0.83
6272.00,0.83
6271.00,0.83
6270.00,0.83
6269.00,0.83
6268.00,0.83
6267.00,0.83
6266.00,0.83
6265.00,0.83
6264.00,0.84
6263.00,0.84
6262.00,0.84
6261.00,0.84
6260.00,0.84
6259.00,0.84
6258.00,0.84
6257.00,0.84
6256.00,0.84
6255.00,0.84
6254.00,0.85
6253.00,0.85
6252.00,0.85
6251.00,0.85
6250.00,0.85
6249.00,0.85
6248.00,0.85
6247.00,0.85
6246.00,0.85
6245.00,0.86
6244.00,0.86
6243.00,0.86
6242.00,0.86
6241.00,0.86
6240.00,0.86
6239.00,0.86
6238.00,0.86
6237.00,0.86
6236.00,0.86
6235.00,0.86
6234.00,0.86
6233.00,0.86
6232.00,0.86
6231.00,0.86
6230.00,0.87
6229.00,0.87
6228.00,0.87
6227.00,0.87
6226.00,0.87
6225.00,0.87
6224.00,0.87
6223.00,0.87
6222.00,0.87
6221.00,0.87
6220.00,0.87
6219.00,0.87
6218.00,0.87
6217.00,0.88
6216.00,0.88
6215.00,0.88
6214.00,0.88
6213.00,0.88
6212.00,0.88
6211.00,0.88
6210.00,0.89
6209.00,0.89
6208.00,0.89
6207.00,0.89
6206.00,0.89
6205.00,0.89
6204.00,0.89
6203.00,0.89
6202.00,0.89
6201.00,0.90
6200.00,0.90
6199.00,0.90
6198.00,0.90
6197.00,0.90
6196.00,0.90
6195.00,0.90
6194.00,0.90
6193.00,0.90
6192.00,0.90
6191.00,0.90
6190.00,0.90
6189.00,0.90
6188.00,0.90
6187.00,0.91
6186.00,0.91
6185.00,0.91
6184.00,0.91
6183.00,0.91
6182.00,0.91
6181.00,0.91
6180.00,0.91
6179.00,0.91
6178.00,0.92
6177.00,0.92
6176.00,0.92
6175.00,0.92
6174.00,0.92
6173.00,0.92
6172.00,0.92
6171.00,0.92
6170.00,0.92
6169.00,0.92
6168.00,0.93
6167.00,0.93
6166.00,0.93
6165.00,0.93
6164.00,0.93
6163.00,0.93
6162.00,0.93
6161.00,0.93
6160.00,0.93
6159.00,0.94
6158.00,0.94
6157.00,0.94
6156.00,0.94
6155.00,0.94
6154.00,0.94
6153.00,0.94
6152.00,0.94
6151.00,0.95
6150.00,0.95
6149.00,0.95
6148.00,0.95
6147.00,0.95
6146.00,0.95
6145.00,0.95
6144.00,0.95
6143.00,0.95
6142.00,0.96
6141.00,0.96
6140.00,0.96
6139.00,0.96
6138.00,0.96
6137.00,0.96
6136.00,0.96
6135.00,0.96
6134.00,0.96
6133.00,0.96
6132.00,0.97
6131.00,0.97
6130.00,0.97
6129.00,0.97
6128.00,0.97
6127.00,0.97
6126.00,0.97
6125.00,0.97
6124.00,0.97
6123.00,0.98
6122.00,0.98
6121.00,0.98
6120.00,0.98
6119.00,0.98
6118.00,0.98
6117.00,0.98
6116.00,0.98
6115.00,0.99
6114.00,0.99
6113.00,0.99
6112.00,0.99
6111.00,0.99
6110.00,0.99
6109.00,0.99
6108.00,0.99
6107.00,0.99
6106.00,0.99
6105.00,1.00
6104.00,1.00
6103.00,1.00
6102.00,1.00
6101.00,1.00
6100.00,1.00
6099.00,1.00
6098.00,1.00
6097.00,1.00
6096.00,1.00
6095.00,1.01
6094.00,1.01
6093.00,1.01
6092.00,1.01
6091.00,1.01
6090.00,1.01
6089.00,1.01
6088.00,1.02
6087.00,1.02
6086.00,1.02
6085.00,1.02
6084.00,1.02
6083.00,1.02
6082.00,1.02
6081.00,1.02
6080.00,1.03
6079.00,1.03
6078.00,1.03
6077.00,1.03
6076.00,1.03
6075.00,1.03
6074.00,1.03
6073.00,1.03
6072.00,1.03
6071.00,1.03
6070.00,1.03
6069.00,1.03
6068.00,1.03
6067.00,1.03
6066.00,1.03
6065.00,1.04
6064.00,1.04
6063.00,1.04
6062.00,1.04
6061.00,1.04
6060.00,1.04
6059.00,1.04
6058.00,1.04
6057.00,1.04
6056.00,1.04
6055.00,1.04
6054.00,1.04
6053.00,1.04
6052.00,1.04
6051.00,1.04
6050.00,1.04
6049.00,1.04
6048.00,1.04
6047.00,1.04
6046.00,1.04
6045.00,1.05
6044.00,1.05
6043.00,1.05
6042.00,1.05
6041.00,1.05
6040.00,1.05
6039.00,1.05
6038.00,1.05
6037.00,1.05
6036.00,1.05
6035.00,1.05
6034.00,1.05
6033.00,1.05
6032.00,1.05
6031.00,1.05
6030.00,1.05
6029.00,1.05
6028.00,1.05
6027.00,1.05
6026.00,1.05
6025.00,1.05
6024.00,1.05
6023.00,1.05
6022.00,1.05
6021.00,1.06
6020.00,1.06
6019.00,1.06
6018.00,1.06
6017.00,1.06
6016.00,1.06
6015.00,1.06
6014.00,1.06
6013.00,1.06
6012.00,1.06
6011.00,1.06
6010.00,1.06
6009.00,1.06
6008.00,1.06
6007.00,1.06
6006.00,1.06
6005.00,1.06
6004.00,1.06
6003.00,1.06
6002.00,1.06
6001.00,1.05
6000.00,1.05
5999.00,1.05
5998.00,1.05
5997.00,1.05
5996.00,1.05
5995.00,1.05
5994.00,1.05
5993.00,1.05
5992.00,1.04
5991.00,1.04
5990.00,1.04
5989.00,1.04
5988.00,1.04
5987.00,1.04
5986.00,1.04
5985.00,1.04
5984.00,1.03
5983.00,1.03
5982.00,1.03
5981.00,1.03
5980.00,1.03
5979.00,1.02
5978.00,1.02
5977.00,1.02
5976.00,1.02
5975.00,1.01
5974.00,1.01
5973.00,1.01
5972.00,1.00
5971.00,1.00
5970.00,0.99
5969.00,0.99
5968.00,0.98
5967.00,0.98
5966.00,0.97
5965.00,0.97
5964.00,0.96
5963.00,0.96
5962.00,0.95
5961.00,0.95
5960.00,0.94
5959.00,0.94
5958.00,0.93
5957.00,0.93
5956.00,0.92
5955.00,0.91
5954.00,0.91
5953.00,0.91
5952.00,0.90
5951.00,0.90
5950.00,0.89
5949.00,0.89
5948.00,0.89
5947.00,0.88
5946.00,0.88
5945.00,0.88
5944.00,0.88
5943.00,0.88
5942.00,0.88
5941.00,0.87
5940.00,0.87
5939.00,0.87
5938.00,0.87
5937.00,0.87
5936.00,0.87
5935.00,0.87
5934.00,0.87
5933.00,0.87
5932.00,0.87
5931.00,0.87
5930.00,0.87
5929.00,0.87
5928.00,0.87
5927.00,0.86
5926.00,0.86
5925.00,0.86
5924.00,0.86
5923.00,0.86
5922.00,0.86
5921.00,0.85
5920.00,0.85
5919.00,0.85
5918.00,0.85
5917.00,0.85
5916.00,0.84
5915.00,0.84
5914.00,0.84
5913.00,0.84
5912.00,0.84
5911.00,0.83
5910.00,0.83
5909.00,0.83
5908.00,0.83
5907.00,0.83
5906.00,0.83
5905.00,0.83
5904.00,0.82
5903.00,0.82
5902.00,0.82
5901.00,0.82
5900.00,0.82
5899.00,0.82
5898.00,0.83
5897.00,0.83
5896.00,0.83
5895.00,0.83
5894.00,0.83
5893.00,0.83
5892.00,0.83
5891.00,0.84
5890.00,0.84
5889.00,0.84
5888.00,0.84
5887.00,0.84
5886.00,0.85
5885.00,0.85
5884.00,0.85
5883.00,0.85
5882.00,0.86
5881.00,0.86
5880.00,0.86
5879.00,0.86
5878.00,0.86
5877.00,0.87
5876.00,0.87
5875.00,0.87
5874.00,0.87
5873.00,0.87
5872.00,0.88
5871.00,0.88
5870.00,0.88
5869.00,0.88
5868.00,0.88
5867.00,0.88
5866.00,0.89
5865.00,0.89
5864.00,0.89
5863.00,0.89
5862.00,0.89
5861.00,0.89
5860.00,0.89
5859.00,0.90
5858.00,0.90
5857.00,0.90
5856.00,0.90
5855.00,0.90
5854.00,0.90
5853.00,0.90
5852.00,0.90
5851.00,0.90
5850.00,0.90
5849.00,0.90
5848.00,0.90
5847.00,0.90
5846.00,0.90
5845.00,0.90
5844.00,0.90
5843.00,0.90
5842.00,0.90
5841.00,0.90
5840.00,0.90
5839.00,0.90
5838.00,0.90
5837.00,0.90
5836.00,0.90
5835.00,0.90
5834.00,0.90
5833.00,0.90
5832.00,0.90
5831.00,0.90
5830.00,0.90
5829.00,0.90
5828.00,0.90
5827.00,0.90
5826.00,0.90
5825.00,0.90
5824.00,0.90
5823.00,0.90
5822.00,0.90
5821.00,0.90
5820.00,0.90
5819.00,0.90
5818.00,0.90
5817.00,0.90
5816.00,0.90
5815.00,0.90
5814.00,0.90
5813.00,0.90
5812.00,0.90
5811.00,0.90
5810.00,0.90
5809.00,0.90
5808.00,0.90
5807.00,0.90
5806.00,0.90
5805.00,0.90
5804.00,0.90
5803.00,0.90
5802.00,0.90
5801.00,0.89
5800.00,0.89
5799.00,0.89
5798.00,0.89
5797.00,0.89
5796.00,0.89
5795.00,0.89
5794.00,0.89
5793.00,0.89
5792.00,0.88
5791.00,0.88
5790.00,0.88
5789.00,0.88
5788.00,0.88
5787.00,0.88
5786.00,0.87
5785.00,0.87
5784.00,0.87
5783.00,0.87
5782.00,0.87
5781.00,0.87
5780.00,0.87
5779.00,0.86
5778.00,0.86
5777.00,0.86
5776.00,0.86
5775.00,0.86
5774.00,0.86
5773.00,0.86
5772.00,0.86
5771.00,0.86
5770.00,0.86
5769.00,0.86
5768.00,0.86
5767.00,0.86
5766.00,0.86
5765.00,0.86
5764.00,0.87
5763.00,0.87
5762.00,0.87
5761.00,0.87
5760.00,0.87
5759.00,0.87
5758.00,0.88
5757.00,0.88
5756.00,0.88
5755.00,0.88
5754.00,0.88
5753.00,0.89
5752.00,0.89
5751.00,0.89
5750.00,0.89
5749.00,0.90
5748.00,0.90
5747.00,0.90
5746.00,0.90
5745.00,0.91
5744.00,0.91
5743.00,0.91
5742.00,0.91
5741.00,0.92
5740.00,0.92
5739.00,0.92
5738.00,0.92
5737.00,0.92
5736.00,0.93
5735.00,0.93
5734.00,0.93
5733.00,0.93
5732.00,0.93
5731.00,0.93
5730.00,0.93
5729.00,0.93
5728.00,0.94
5727.00,0.94
5726.00,0.94
5725.00,0.94
5724.00,0.94
5723.00,0.94
5722.00,0.94
5721.00,0.94
5720.00,0.94
5719.00,0.94
5718.00,0.94
5717.00,0.94
5716.00,0.94
5715.00,0.94
5714.00,0.94
5713.00,0.94
5712.00,0.94
5711.00,0.94
5710.00,0.94
5709.00,0.94
5708.00,0.94
5707.00,0.94
5706.00,0.94
5705.00,0.94
5704.00,0.94
5703.00,0.94
5702.00,0.94
5701.00,0.93
5700.00,0.93
5699.00,0.93
5698.00,0.93
5697.00,0.93
5696.00,0.93
5695.00,0.93
5694.00,0.93
5693.00,0.93
5692.00,0.93
5691.00,0.93
5690.00,0.92
5689.00,0.92
5688.00,0.92
5687.00,0.92
5686.00,0.92
5685.00,0.92
5684.00,0.92
5683.00,0.92
5682.00,0.92
5681.00,0.92
5680.00,0.91
5679.00,0.91
5678.00,0.91
5677.00,0.91
5676.00,0.91
5675.00,0.91
5674.00,0.91
5673.00,0.91
5672.00,0.91
5671.00,0.91
5670.00,0.91
5669.00,0.91
5668.00,0.91
5667.00,0.91
5666.00,0.91
5665.00,0.91
5664.00,0.91
5663.00,0.91
5662.00,0.91
5661.00,0.91
5660.00,0.92
5659.00,0.92
5658.00,0.92
5657.00,0.92
5656.00,0.92
5655.00,0.92
5654.00,0.92
5653.00,0.92
5652.00,0.93
5651.00,0.93
5650.00,0.93
5649.00,0.93
5648.00,0.93
5647.00,0.93
5646.00,0.94
5645.00,0.94
5644.00,0.94
5643.00,0.94
5642.00,0.94
5641.00,0.94
5640.00,0.95
5639.00,0.95
5638.00,0.95
5637.00,0.95
5636.00,0.95
5635.00,0.95
5634.00,0.95
5633.00,0.96
5632.00,0.96
5631.00,0.96
5630.00,0.96
5629.00,0.96
5628.00,0.96
5627.00,0.96
5626.00,0.96
5625.00,0.96
5624.00,0.96
5623.00,0.96
5622.00,0.97
5621.00,0.97
5620.00,0.97
5619.00,0.97
5618.00,0.97
5617.00,0.97
5616.00,0.97
5615.00,0.97
5614.00,0.97
5613.00,0.98
5612.00,0.98
5611.00,0.98
5610.00,0.98
5609.00,0.98
5608.00,0.98
5607.00,0.98
5606.00,0.98
5605.00,0.99
5604.00,0.99
5603.00,0.99
5602.00,0.99
5601.00,0.99
5600.00,0.99
5599.00,1.00
5598.00,1.00
5597.00,1.00
5596.00,1.00
5595.00,1.00
5594.00,1.00
5593.00,1.00
5592.00,1.00
5591.00,1.01
5590.00,1.01
5589.00,1.01
5588.00,1.01
5587.00,1.01
5586.00,1.01
5585.00,1.01
5584.00,1.01
5583.00,1.01
5582.00,1.01
5581.00,1.01
5580.00,1.02
5579.00,1.02
5578.00,1.02
5577.00,1.02
5576.00,1.02
5575.00,1.02
5574.00,1.02
5573.00,1.02
5572.00,1.02
5571.00,1.02
5570.00,1.02
5569.00,1.02
5568.00,1.02
5567.00,1.03
5566.00,1.03
5565.00,1.03
5564.00,1.03
5563.00,1.03
5562.00,1.03
5561.00,1.03
5560.00,1.03
5559.00,1.04
5558.00,1.04
5557.00,1.04
5556.00,1.04
5555.00,1.04
5554.00,1.04
5553.00,1.04
5552.00,1.04
5551.00,1.05
5550.00,1.05
5549.00,1.05
5548.00,1.05
5547.00,1.05
5546.00,1.05
5545.00,1.05
5544.00,1.05
5543.00,1.05
5542.00,1.05
5541.00,1.05
5540.00,1.05
5539.00,1.06
5538.00,1.06
5537.00,1.06
5536.00,1.06
5535.00,1.06
5534.00,1.06
5533.00,1.06
5532.00,1.06
5531.00,1.06
5530.00,1.06
5529.00,1.06
5528.00,1.06
5527.00,1.07
5526.00,1.07
5525.00,1.07
5524.00,1.07
5523.00,1.07
5522.00,1.07
5521.00,1.07
5520.00,1.07
5519.00,1.07
5518.00,1.07
5517.00,1.07
5516.00,1.07
5515.00,1.07
5514.00,1.07
5513.00,1.07
5512.00,1.07
5511.00,1.07
5510.00,1.07
5509.00,1.07
5508.00,1.07
5507.00,1.07
5506.00,1.07
5505.00,1.07
5504.00,1.07
5503.00,1.07
5502.00,1.08
5501.00,1.08
5500.00,1.08
5499.00,1.08
5498.00,1.08
5497.00,1.08
5496.00,1.08
5495.00,1.08
5494.00,1.08
5493.00,1.08
5492.00,1.08
5491.00,1.08
5490.00,1.08
5489.00,1.08
5488.00,1.08
5487.00,1.09
5486.00,1.09
5485.00,1.09
5484.00,1.09
5483.00,1.09
5482.00,1.09
5481.00,1.09
5480.00,1.09
5479.00,1.09
5478.00,1.09
5477.00,1.10
5476.00,1.10
5475.00,1.10
5474.00,1.10
5473.00,1.10
5472.00,1.10
5471.00,1.10
5470.00,1.10
5469.00,1.10
5468.00,1.10
5467.00,1.10
5466.00,1.10
5465.00,1.10
5464.00,1.11
5463.00,1.11
5462.00,1.11
5461.00,1.11
5460.00,1.11
5459.00,1.11
5458.00,1.11
5457.00,1.11
5456.00,1.11
5455.00,1.11
5454.00,1.11
5453.00,1.12
5452.00,1.12
5451.00,1.12
5450.00,1.12
5449.00,1.12
5448.00,1.12
5447.00,1.12
5446.00,1.12
5445.00,1.12
5444.00,1.12
5443.00,1.12
5442.00,1.12
5441.00,1.12
5440.00,1.12
5439.00,1.12
5438.00,1.12
5437.00,1.12
5436.00,1.12
5435.00,1.12
5434.00,1.12
5433.00,1.12
5432.00,1.12
5431.00,1.12
5430.00,1.12
5429.00,1.12
5428.00,1.12
5427.00,1.12
5426.00,1.12
5425.00,1.12
5424.00,1.12
5423.00,1.12
5422.00,1.12
5421.00,1.12
5420.00,1.12
5419.00,1.12
5418.00,1.12
5417.00,1.12
5416.00,1.12
5415.00,1.12
5414.00,1.12
5413.00,1.12
5412.00,1.12
5411.00,1.12
5410.00,1.12
5409.00,1.12
5408.00,1.12
5407.00,1.12
5406.00,1.12
5405.00,1.12
5404.00,1.12
5403.00,1.12
5402.00,1.12
5401.00,1.12
5400.00,1.12
5399.00,1.12
5398.00,1.11
5397.00,1.11
5396.00,1.11
5395.00,1.11
5394.00,1.11
5393.00,1.11
5392.00,1.11
5391.00,1.11
5390.00,1.10
5389.00,1.10
5388.00,1.10
5387.00,1.10
5386.00,1.10
5385.00,1.09
5384.00,1.09
5383.00,1.09
5382.00,1.09
5381.00,1.09
5380.00,1.08
5379.00,1.08
5378.00,1.08
5377.00,1.08
5376.00,1.07
5375.00,1.07
5374.00,1.07
5373.00,1.06
5372.00,1.06
5371.00,1.06
5370.00,1.05
5369.00,1.05
5368.00,1.05
5367.00,1.04
5366.00,1.04
5365.00,1.04
5364.00,1.03
5363.00,1.03
5362.00,1.02
5361.00,1.02
5360.00,1.01
5359.00,1.01
5358.00,1.00
5357.00,1.00
5356.00,0.99
5355.00,0.99
5354.00,0.98
5353.00,0.98
5352.00,0.97
5351.00,0.96
5350.00,0.96
5349.00,0.95
5348.00,0.94
5347.00,0.94
5346.00,0.93
5345.00,0.92
5344.00,0.91
5343.00,0.91
5342.00,0.90
5341.00,0.89
5340.00,0.88
5339.00,0.88
5338.00,0.87
5337.00,0.86
5336.00,0.85
5335.00,0.85
5334.00,0.84
5333.00,0.83
5332.00,0.82
5331.00,0.81
5330.00,0.81
5329.00,0.80
5328.00,0.79
5327.00,0.78
5326.00,0.78
5325.00,0.77
5324.00,0.76
5323.00,0.75
5322.00,0.75
5321.00,0.74
5320.00,0.73
5319.00,0.73
5318.00,0.72
5317.00,0.71
5316.00,0.70
5315.00,0.70
5314.00,0.69
5313.00,0.69
5312.00,0.68
5311.00,0.67
5310.00,0.67
5309.00,0.66
5308.00,0.66
5307.00,0.65
5306.00,0.65
5305.00,0.64
5304.00,0.64
5303.00,0.63
5302.00,0.63
5301.00,0.63
5300.00,0.62
5299.00,0.62
5298.00,0.62
5297.00,0.61
5296.00,0.61
5295.00,0.61
5294.00,0.61
5293.00,0.60
5292.00,0.60
5291.00,0.60
5290.00,0.60
5289.00,0.60
5288.00,0.59
5287.00,0.59
5286.00,0.59
5285.00,0.59
5284.00,0.59
5283.00,0.59
5282.00,0.59
5281.00,0.59
5280.00,0.58
5279.00,0.58
5278.00,0.58
5277.00,0.58
5276.00,0.58
5275.00,0.58
5274.00,0.58
5273.00,0.58
5272.00,0.58
5271.00,0.58
5270.00,0.58
5269.00,0.58
5268.00,0.58
5267.00,0.58
5266.00,0.58
5265.00,0.58
5264.00,0.58
5263.00,0.58
5262.00,0.58
5261.00,0.58
5260.00,0.58
5259.00,0.58
5258.00,0.58
5257.00,0.58
5256.00,0.58
5255.00,0.58
5254.00,0.58
5253.00,0.58
5252.00,0.58
5251.00,0.58
5250.00,0.58
5249.00,0.58
5248.00,0.58
5247.00,0.58
5246.00,0.58
5245.00,0.58
5244.00,0.58
5243.00,0.58
5242.00,0.58
5241.00,0.58
5240.00,0.58
5239.00,0.58
5238.00,0.58
5237.00,0.58
5236.00,0.58
5235.00,0.58
5234.00,0.58
5233.00,0.58
5232.00,0.58
5231.00,0.58
5230.00,0.58
5229.00,0.58
5228.00,0.58
5227.00,0.58
5226.00,0.58
5225.00,0.58
5224.00,0.58
5223.00,0.58
5222.00,0.58
5221.00,0.59
5220.00,0.59
5219.00,0.59
5218.00,0.59
5217.00,0.59
5216.00,0.59
5215.00,0.59
5214.00,0.59
5213.00,0.59
5212.00,0.59
5211.00,0.59
5210.00,0.59
5209.00,0.59
5208.00,0.59
5207.00,0.59
5206.00,0.59
5205.00,0.59
5204.00,0.59
5203.00,0.59
5202.00,0.59
5201.00,0.59
5200.00,0.59
5199.00,0.59
5198.00,0.59
5197.00,0.59
5196.00,0.59
5195.00,0.59
5194.00,0.59
5193.00,0.59
5192.00,0.59
5191.00,0.59
5190.00,0.59
5189.00,0.59
5188.00,0.59
5187.00,0.59
5186.00,0.59
5185.00,0.59
5184.00,0.59
5183.00,0.59
5182.00,0.59
5181.00,0.59
5180.00,0.59
5179.00,0.59
5178.00,0.59
5177.00,0.59
5176.00,0.59
5175.00,0.59
5174.00,0.59
5173.00,0.59
5172.00,0.59
5171.00,0.59
5170.00,0.59
5169.00,0.59
5168.00,0.59
5167.00,0.59
5166.00,0.59
5165.00,0.59
5164.00,0.59
5163.00,0.59
5162.00,0.59
5161.00,0.60
5160.00,0.60
5159.00,0.60
5158.00,0.60
5157.00,0.60
5156.00,0.60
5155.00,0.60
5154.00,0.60
5153.00,0.60
5152.00,0.60
5151.00,0.60
5150.00,0.60
5149.00,0.60
5148.00,0.60
5147.00,0.60
5146.00,0.60
5145.00,0.60
5144.00,0.60
5143.00,0.61
5142.00,0.61
5141.00,0.61
5140.00,0.61
5139.00,0.61
5138.00,0.61
5137.00,0.61
5136.00,0.61
5135.00,0.61
5134.00,0.61
5133.00,0.61
5132.00,0.61
5131.00,0.61
5130.00,0.61
5129.00,0.61
5128.00,0.61
5127.00,0.61
5126.00,0.61
5125.00,0.61
5124.00,0.61
5123.00,0.61
5122.00,0.61
5121.00,0.62
5120.00,0.62
5119.00,0.62
5118.00,0.62
5117.00,0.62
5116.00,0.62
5115.00,0.62
5114.00,0.62
5113.00,0.62
5112.00,0.62
5111.00,0.62
5110.00,0.62
5109.00,0.62
5108.00,0.62
5107.00,0.62
5106.00,0.62
5105.00,0.62
5104.00,0.62
5103.00,0.62
5102.00,0.62
5101.00,0.63
5100.00,0.63
5099.00,0.63
5098.00,0.63
5097.00,0.63
5096.00,0.63
5095.00,0.63
5094.00,0.63
5093.00,0.63
5092.00,0.63
5091.00,0.63
5090.00,0.63
5089.00,0.63
5088.00,0.63
5087.00,0.63
5086.00,0.63
5085.00,0.63
5084.00,0.63
5083.00,0.63
5082.00,0.63
5081.00,0.63
5080.00,0.63
5079.00,0.63
5078.00,0.63
5077.00,0.63
5076.00,0.63
5075.00,0.63
5074.00,0.63
5073.00,0.63
5072.00,0.63
5071.00,0.63
5070.00,0.63
5069.00,0.63
5068.00,0.64
5067.00,0.64
5066.00,0.64
5065.00,0.64
5064.00,0.64
5063.00,0.64
5062.00,0.64
5061.00,0.64
5060.00,0.64
5059.00,0.64
5058.00,0.64
5057.00,0.64
5056.00,0.64
5055.00,0.64
5054.00,0.64
5053.00,0.64
5052.00,0.64
5051.00,0.64
5050.00,0.64
5049.00,0.64
5048.00,0.64
5047.00,0.64
5046.00,0.65
5045.00,0.65
5044.00,0.65
5043.00,0.65
5042.00,0.65
5041.00,0.65
5040.00,0.65
5039.00,0.65
5038.00,0.65
5037.00,0.65
5036.00,0.65
5035.00,0.65
5034.00,0.65
5033.00,0.65
5032.00,0.65
5031.00,0.65
5030.00,0.66
5029.00,0.66
5028.00,0.66
5027.00,0.66
5026.00,0.66
5025.00,0.66
5024.00,0.66
5023.00,0.66
5022.00,0.66
5021.00,0.66
5020.00,0.66
5019.00,0.66
5018.00,0.66
5017.00,0.66
5016.00,0.66
5015.00,0.66
5014.00,0.66
5013.00,0.67
5012.00,0.67
5011.00,0.67
5010.00,0.67
5009.00,0.67
5008.00,0.67
5007.00,0.67
5006.00,0.67
5005.00,0.67
5004.00,0.67
5003.00,0.67
5002.00,0.67
5001.00,0.67
5000.00,0.67
4999.00,0.67
4998.00,0.67
4997.00,0.68
4996.00,0.68
4995.00,0.68
4994.00,0.68
4993.00,0.68
4992.00,0.68
4991.00,0.68
4990.00,0.68
4989.00,0.68
4988.00,0.68
4987.00,0.68
4986.00,0.68
4985.00,0.68
4984.00,0.68
4983.00,0.68
4982.00,0.69
4981.00,0.69
4980.00,0.69
4979.00,0.69
4978.00,0.69
4977.00,0.69
4976.00,0.69
4975.00,0.69
4974.00,0.69
4973.00,0.69
4972.00,0.69
4971.00,0.69
4970.00,0.69
4969.00,0.69
4968.00,0.69
4967.00,0.69
4966.00,0.69
4965.00,0.70
4964.00,0.70
4963.00,0.70
4962.00,0.70
4961.00,0.70
4960.00,0.70
4959.00,0.70
4958.00,0.70
4957.00,0.70
4956.00,0.70
4955.00,0.70
4954.00,0.70
4953.00,0.70
4952.00,0.70
4951.00,0.70
4950.00,0.71
4949.00,0.71
4948.00,0.71
4947.00,0.71
4946.00,0.71
4945.00,0.71
4944.00,0.71
4943.00,0.71
4942.00,0.71
4941.00,0.71
4940.00,0.71
4939.00,0.71
4938.00,0.71
4937.00,0.71
4936.00,0.71
4935.00,0.71
4934.00,0.71
4933.00,0.71
4932.00,0.71
4931.00,0.71
4930.00,0.71
4929.00,0.71
4928.00,0.71
4927.00,0.72
4926.00,0.72
4925.00,0.72
4924.00,0.72
4923.00,0.72
4922.00,0.72
4921.00,0.72
4920.00,0.72
4919.00,0.72
4918.00,0.72
4917.00,0.72
4916.00,0.72
4915.00,0.72
4914.00,0.72
4913.00,0.72
4912.00,0.72
4911.00,0.72
4910.00,0.72
4909.00,0.72
4908.00,0.72
4907.00,0.72
4906.00,0.73
4905.00,0.73
4904.00,0.73
4903.00,0.73
4902.00,0.73
4901.00,0.73
4900.00,0.73
4899.00,0.73
4898.00,0.73
4897.00,0.73
4896.00,0.73
4895.00,0.73
4894.00,0.73
4893.00,0.73
4892.00,0.74
4891.00,0.74
4890.00,0.74
4889.00,0.74
4888.00,0.74
4887.00,0.74
4886.00,0.74
4885.00,0.74
4884.00,0.74
4883.00,0.74
4882.00,0.74
4881.00,0.74
4880.00,0.74
4879.00,0.74
4878.00,0.74
4877.00,0.74
4876.00,0.74
4875.00,0.74
4874.00,0.74
4873.00,0.74
4872.00,0.74
4871.00,0.74
4870.00,0.74
4869.00,0.74
4868.00,0.74
4867.00,0.74
4866.00,0.74
4865.00,0.74
4864.00,0.74
4863.00,0.75
4862.00,0.75
4861.00,0.75
4860.00,0.75
4859.00,0.75
4858.00,0.75
4857.00,0.75
4856.00,0.75
4855.00,0.75
4854.00,0.75
4853.00,0.75
4852.00,0.75
4851.00,0.76
4850.00,0.76
4849.00,0.76
4848.00,0.76
4847.00,0.76
4846.00,0.76
4845.00,0.76
4844.00,0.76
4843.00,0.76
4842.00,0.76
4841.00,0.76
4840.00,0.76
4839.00,0.76
4838.00,0.77
4837.00,0.77
4836.00,0.77
4835.00,0.77
4834.00,0.77
4833.00,0.77
4832.00,0.77
4831.00,0.77
4830.00,0.77
4829.00,0.77
4828.00,0.77
4827.00,0.77
4826.00,0.77
4825.00,0.77
4824.00,0.78
4823.00,0.78
4822.00,0.78
4821.00,0.78
4820.00,0.78
4819.00,0.78
4818.00,0.78
4817.00,0.78
4816.00,0.78
4815.00,0.78
4814.00,0.78
4813.00,0.78
4812.00,0.78
4811.00,0.78
4810.00,0.78
4809.00,0.79
4808.00,0.79
4807.00,0.79
4806.00,0.79
4805.00,0.79
4804.00,0.79
4803.00,0.79
4802.00,0.79
4801.00,0.79
4800.00,0.80
4799.00,0.80
4798.00,0.80
4797.00,0.80
4796.00,0.80
4795.00,0.80
4794.00,0.80
4793.00,0.80
4792.00,0.80
4791.00,0.80
4790.00,0.80
4789.00,0.80
4788.00,0.80
4787.00,0.80
4786.00,0.80
4785.00,0.80
4784.00,0.80
4783.00,0.80
4782.00,0.81
4781.00,0.81
4780.00,0.81
4779.00,0.81
4778.00,0.81
4777.00,0.81
4776.00,0.81
4775.00,0.81
4774.00,0.81
4773.00,0.81
4772.00,0.81
4771.00,0.81
4770.00,0.82
4769.00,0.82
4768.00,0.82
4767.00,0.82
4766.00,0.82
4765.00,0.82
4764.00,0.82
4763.00,0.82
4762.00,0.82
4761.00,0.82
4760.00,0.82
4759.00,0.83
4758.00,0.83
4757.00,0.83
4756.00,0.83
4755.00,0.83
4754.00,0.83
4753.00,0.83
4752.00,0.83
4751.00,0.83
4750.00,0.83
4749.00,0.83
4748.00,0.83
4747.00,0.83
4746.00,0.83
4745.00,0.83
4744.00,0.84
4743.00,0.84
4742.00,0.84
4741.00,0.84
4740.00,0.84
4739.00,0.84
4738.00,0.84
4737.00,0.85
4736.00,0.85
4735.00,0.85
4734.00,0.85
4733.00,0.85
4732.00,0.85
4731.00,0.85
4730.00,0.86
4729.00,0.86
4728.00,0.86
4727.00,0.86
4726.00,0.86
4725.00,0.86
4724.00,0.86
4723.00,0.86
4722.00,0.86
4721.00,0.86
4720.00,0.86
4719.00,0.86
4718.00,0.86
4717.00,0.87
4716.00,0.87
4715.00,0.87
4714.00,0.87
4713.00,0.87
4712.00,0.87
4711.00,0.87
4710.00,0.88
4709.00,0.88
4708.00,0.88
4707.00,0.88
4706.00,0.88
4705.00,0.89
4704.00,0.89
4703.00,0.89
4702.00,0.89
4701.00,0.89
4700.00,0.89
4699.00,0.90
4698.00,0.90
4697.00,0.90
4696.00,0.90
4695.00,0.90
4694.00,0.90
4693.00,0.90
4692.00,0.90
4691.00,0.91
4690.00,0.91
4689.00,0.91
4688.00,0.91
4687.00,0.91
4686.00,0.91
4685.00,0.91
4684.00,0.92
4683.00,0.92
4682.00,0.92
4681.00,0.92
4680.00,0.92
4679.00,0.92
4678.00,0.92
4677.00,0.92
4676.00,0.92
4675.00,0.93
4674.00,0.93
4673.00,0.93
4672.00,0.93
4671.00,0.93
4670.00,0.93
4669.00,0.93
4668.00,0.93
4667.00,0.93
4666.00,0.93
4665.00,0.93
4664.00,0.93
4663.00,0.93
4662.00,0.93
4661.00,0.94
4660.00,0.94
4659.00,0.94
4658.00,0.94
4657.00,0.94
4656.00,0.94
4655.00,0.94
4654.00,0.94
4653.00,0.94
4652.00,0.94
4651.00,0.94
4650.00,0.94
4649.00,0.94
4648.00,0.94
4647.00,0.94
4646.00,0.94
4645.00,0.94
4644.00,0.94
4643.00,0.94
4642.00,0.94
4641.00,0.94
4640.00,0.94
4639.00,0.94
4638.00,0.95
4637.00,0.95
4636.00,0.95
4635.00,0.95
4634.00,0.95
4633.00,0.95
4632.00,0.95
4631.00,0.96
4630.00,0.96
4629.00,0.96
4628.00,0.96
4627.00,0.96
4626.00,0.96
4625.00,0.96
4624.00,0.97
4623.00,0.97
4622.00,0.97
4621.00,0.97
4620.00,0.97
4619.00,0.97
4618.00,0.97
4617.00,0.97
4616.00,0.97
4615.00,0.97
4614.00,0.97
4613.00,0.97
4612.00,0.97
4611.00,0.97
4610.00,0.97
4609.00,0.97
4608.00,0.97
4607.00,0.97
4606.00,0.97
4605.00,0.97
4604.00,0.97
4603.00,0.97
4602.00,0.97
4601.00,0.97
4600.00,0.97
4599.00,0.97
4598.00,0.98
4597.00,0.98
4596.00,0.98
4595.00,0.98
4594.00,0.98
4593.00,0.98
4592.00,0.98
4591.00,0.98
4590.00,0.98
4589.00,0.98
4588.00,0.98
4587.00,0.99
4586.00,0.99
4585.00,0.99
4584.00,0.99
4583.00,0.99
4582.00,0.99
4581.00,0.99
4580.00,0.99
4579.00,1.00
4578.00,1.00
4577.00,1.00
4576.00,1.00
4575.00,1.00
4574.00,1.00
4573.00,1.00
4572.00,1.00
4571.00,1.00
4570.00,1.00
4569.00,1.00
4568.00,1.00
4567.00,1.00
4566.00,1.00
4565.00,1.00
4564.00,1.01
4563.00,1.01
4562.00,1.01
4561.00,1.01
4560.00,1.01
4559.00,1.01
4558.00,1.01
4557.00,1.01
4556.00,1.01
4555.00,1.01
4554.00,1.01
4553.00,1.01
4552.00,1.01
4551.00,1.01
4550.00,1.01
4549.00,1.01
4548.00,1.01
4547.00,1.01
4546.00,1.01
4545.00,1.02
4544.00,1.02
4543.00,1.02
4542.00,1.02
4541.00,1.02
4540.00,1.02
4539.00,1.02
4538.00,1.03
4537.00,1.03
4536.00,1.03
4535.00,1.03
4534.00,1.03
4533.00,1.03
4532.00,1.03
4531.00,1.04
4530.00,1.04
4529.00,1.04
4528.00,1.04
4527.00,1.04
4526.00,1.04
4525.00,1.04
4524.00,1.04
4523.00,1.04
4522.00,1.04
4521.00,1.04
4520.00,1.04
4519.00,1.03
4518.00,1.03
4517.00,1.03
4516.00,1.03
4515.00,1.03
4514.00,1.03
4513.00,1.03
4512.00,1.03
4511.00,1.03
4510.00,1.03
4509.00,1.03
4508.00,1.03
4507.00,1.03
4506.00,1.03
4505.00,1.03
4504.00,1.03
4503.00,1.03
4502.00,1.03
4501.00,1.03
4500.00,1.03
4499.00,1.03
4498.00,1.03
4497.00,1.03
4496.00,1.03
4495.00,1.03
4494.00,1.03
4493.00,1.03
4492.00,1.03
4491.00,1.03
4490.00,1.02
4489.00,1.02
4488.00,1.02
4487.00,1.02
4486.00,1.02
4485.00,1.02
4484.00,1.02
4483.00,1.02
4482.00,1.02
4481.00,1.02
4480.00,1.01
4479.00,1.01
4478.00,1.01
4477.00,1.01
4476.00,1.01
4475.00,1.01
4474.00,1.01
4473.00,1.00
4472.00,1.00
4471.00,1.00
4470.00,1.00
4469.00,1.00
4468.00,1.00
4467.00,1.00
4466.00,0.99
4465.00,0.99
4464.00,0.99
4463.00,0.99
4462.00,0.99
4461.00,0.99
4460.00,0.98
4459.00,0.98
4458.00,0.98
4457.00,0.98
4456.00,0.98
4455.00,0.97
4454.00,0.97
4453.00,0.97
4452.00,0.97
4451.00,0.96
4450.00,0.96
4449.00,0.96
4448.00,0.96
4447.00,0.95
4446.00,0.95
4445.00,0.95
4444.00,0.95
4443.00,0.94
4442.00,0.94
4441.00,0.94
4440.00,0.94
4439.00,0.93
4438.00,0.93
4437.00,0.93
4436.00,0.93
4435.00,0.92
4434.00,0.92
4433.00,0.92
4432.00,0.92
4431.00,0.92
4430.00,0.91
4429.00,0.91
4428.00,0.91
4427.00,0.91
4426.00,0.91
4425.00,0.91
4424.00,0.91
4423.00,0.91
4422.00,0.90
4421.00,0.90
4420.00,0.90
4419.00,0.90
4418.00,0.90
4417.00,0.90
4416.00,0.90
4415.00,0.90
4414.00,0.90
4413.00,0.90
4412.00,0.90
4411.00,0.90
4410.00,0.90
4409.00,0.90
4408.00,0.91
4407.00,0.91
4406.00,0.91
4405.00,0.91
4404.00,0.91
4403.00,0.91
4402.00,0.91
4401.00,0.91
4400.00,0.91
4399.00,0.91
4398.00,0.91
4397.00,0.91
4396.00,0.91
4395.00,0.91
4394.00,0.91
4393.00,0.91
4392.00,0.91
4391.00,0.91
4390.00,0.91
4389.00,0.91
4388.00,0.91
4387.00,0.91
4386.00,0.92
4385.00,0.92
4384.00,0.92
4383.00,0.92
4382.00,0.92
4381.00,0.92
4380.00,0.93
4379.00,0.93
4378.00,0.93
4377.00,0.93
4376.00,0.93
4375.00,0.93
4374.00,0.93
4373.00,0.93
4372.00,0.93
4371.00,0.93
4370.00,0.93
4369.00,0.93
4368.00,0.93
4367.00,0.93
4366.00,0.93
4365.00,0.93
4364.00,0.93
4363.00,0.93
4362.00,0.93
4361.00,0.93
4360.00,0.93
4359.00,0.93
4358.00,0.93
4357.00,0.93
4356.00,0.93
4355.00,0.93
4354.00,0.93
4353.00,0.93
4352.00,0.93
4351.00,0.93
4350.00,0.93
4349.00,0.93
4348.00,0.93
4347.00,0.93
4346.00,0.93
4345.00,0.93
4344.00,0.93
4343.00,0.93
4342.00,0.93
4341.00,0.93
4340.00,0.93
4339.00,0.93
4338.00,0.93
4337.00,0.93
4336.00,0.93
4335.00,0.93
4334.00,0.93
4333.00,0.93
4332.00,0.93
4331.00,0.93
4330.00,0.93
4329.00,0.93
4328.00,0.93
4327.00,0.93
4326.00,0.94
4325.00,0.94
4324.00,0.94
4323.00,0.94
4322.00,0.94
4321.00,0.94
4320.00,0.94
4319.00,0.95
4318.00,0.95
4317.00,0.95
4316.00,0.95
4315.00,0.95
4314.00,0.96
4313.00,0.96
4312.00,0.96
4311.00,0.96
4310.00,0.96
4309.00,0.96
4308.00,0.97
4307.00,0.97
4306.00,0.97
4305.00,0.97
4304.00,0.97
4303.00,0.97
4302.00,0.97
4301.00,0.97
4300.00,0.97
4299.00,0.97
4298.00,0.98
4297.00,0.98
4296.00,0.98
4295.00,0.98
4294.00,0.98
4293.00,0.98
4292.00,0.98
4291.00,0.98
4290.00,0.98
4289.00,0.98
4288.00,0.98
4287.00,0.99
4286.00,0.99
4285.00,0.99
4284.00,0.99
4283.00,0.99
4282.00,0.99
4281.00,0.99
4280.00,0.99
4279.00,0.99
4278.00,0.99
4277.00,0.99
4276.00,0.99
4275.00,0.99
4274.00,0.99
4273.00,0.99
4272.00,0.99
4271.00,0.99
4270.00,0.99
4269.00,0.99
4268.00,0.99
4267.00,0.99
4266.00,0.99
4265.00,0.98
4264.00,0.98
4263.00,0.98
4262.00,0.98
4261.00,0.98
4260.00,0.98
4259.00,0.98
4258.00,0.98
4257.00,0.98
4256.00,0.98
4255.00,0.98
4254.00,0.98
4253.00,0.98
4252.00,0.98
4251.00,0.98
4250.00,0.98
4249.00,0.99
4248.00,0.99
4247.00,0.99
4246.00,0.99
4245.00,0.99
4244.00,0.99
4243.00,0.99
4242.00,0.99
4241.00,1.00
4240.00,1.00
4239.00,1.00
4238.00,1.00
4237.00,1.00
4236.00,1.01
4235.00,1.01
4234.00,1.01
4233.00,1.01
4232.00,1.01
4231.00,1.02
4230.00,1.02
4229.00,1.02
4228.00,1.02
4227.00,1.02
4226.00,1.02
4225.00,1.02
4224.00,1.02
4223.00,1.02
4222.00,1.02
4221.00,1.02
4220.00,1.02
4219.00,1.02
4218.00,1.02
4217.00,1.02
4216.00,1.02
4215.00,1.02
4214.00,1.02
4213.00,1.02
4212.00,1.02
4211.00,1.02
4210.00,1.02
4209.00,1.02
4208.00,1.02
4207.00,1.03
4206.00,1.03
4205.00,1.03
4204.00,1.03
4203.00,1.03
4202.00,1.03
4201.00,1.03
4200.00,1.03
4199.00,1.03
4198.00,1.03
4197.00,1.03
4196.00,1.03
4195.00,1.03
4194.00,1.03
4193.00,1.03
4192.00,1.03
4191.00,1.03
4190.00,1.03
4189.00,1.03
4188.00,1.03
4187.00,1.03
4186.00,1.03
4185.00,1.03
4184.00,1.03
4183.00,1.03
4182.00,1.04
4181.00,1.04
4180.00,1.04
4179.00,1.04
4178.00,1.04
4177.00,1.04
4176.00,1.04
4175.00,1.04
4174.00,1.04
4173.00,1.04
4172.00,1.04
4171.00,1.04
4170.00,1.04
4169.00,1.04
4168.00,1.05
4167.00,1.05
4166.00,1.05
4165.00,1.05
4164.00,1.05
4163.00,1.05
4162.00,1.05
4161.00,1.05
4160.00,1.05
4159.00,1.05
4158.00,1.05
4157.00,1.05
4156.00,1.05
4155.00,1.05
4154.00,1.05
4153.00,1.05
4152.00,1.05
4151.00,1.05
4150.00,1.05
4149.00,1.05
4148.00,1.06
4147.00,1.06
4146.00,1.06
4145.00,1.05
4144.00,1.05
4143.00,1.05
4142.00,1.05
4141.00,1.05
4140.00,1.05
4139.00,1.05
4138.00,1.05
4137.00,1.05
4136.00,1.05
4135.00,1.05
4134.00,1.05
4133.00,1.05
4132.00,1.05
4131.00,1.05
4130.00,1.05
4129.00,1.05
4128.00,1.05
4127.00,1.05
4126.00,1.05
4125.00,1.05
4124.00,1.05
4123.00,1.05
4122.00,1.05
4121.00,1.05
4120.00,1.05
4119.00,1.05
4118.00,1.05
4117.00,1.05
4116.00,1.05
4115.00,1.05
4114.00,1.05
4113.00,1.05
4112.00,1.05
4111.00,1.05
4110.00,1.05
4109.00,1.05
4108.00,1.05
4107.00,1.05
4106.00,1.05
4105.00,1.05
4104.00,1.05
4103.00,1.05
4102.00,1.06
4101.00,1.06
4100.00,1.06
4099.00,1.06
4098.00,1.06
4097.00,1.06
4096.00,1.06
4095.00,1.06
4094.00,1.06
4093.00,1.06
4092.00,1.06
4091.00,1.06
4090.00,1.06
4089.00,1.06
4088.00,1.07
4087.00,1.07
4086.00,1.07
4085.00,1.07
4084.00,1.07
4083.00,1.07
4082.00,1.07
4081.00,1.07
4080.00,1.07
4079.00,1.07
4078.00,1.07
4077.00,1.07
4076.00,1.07
4075.00,1.07
4074.00,1.07
4073.00,1.07
4072.00,1.07
4071.00,1.07
4070.00,1.07
4069.00,1.07
4068.00,1.07
4067.00,1.07
4066.00,1.07
4065.00,1.07
4064.00,1.07
4063.00,1.07
4062.00,1.07
4061.00,1.07
4060.00,1.07
4059.00,1.07
4058.00,1.07
4057.00,1.08
4056.00,1.08
4055.00,1.08
4054.00,1.08
4053.00,1.08
4052.00,1.08
4051.00,1.08
4050.00,1.08
4049.00,1.08
4048.00,1.08
4047.00,1.08
4046.00,1.08
4045.00,1.08
4044.00,1.08
4043.00,1.08
4042.00,1.08
4041.00,1.08
4040.00,1.09
4039.00,1.09
4038.00,1.09
4037.00,1.09
4036.00,1.09
4035.00,1.09
4034.00,1.09
4033.00,1.09
4032.00,1.09
4031.00,1.09
4030.00,1.09
4029.00,1.09
4028.00,1.09
4027.00,1.09
4026.00,1.09
4025.00,1.09
4024.00,1.09
4023.00,1.10
4022.00,1.10
4021.00,1.10
4020.00,1.10
4019.00,1.10
4018.00,1.10
4017.00,1.11
4016.00,1.11
4015.00,1.11
4014.00,1.11
4013.00,1.11
4012.00,1.11
4011.00,1.12
4010.00,1.12
4009.00,1.12
4008.00,1.12
4007.00,1.12
4006.00,1.12
4005.00,1.12
4004.00,1.12
4003.00,1.12
4002.00,1.12
4001.00,1.12
4000.00,1.11
