创建为新数据集,样品 246 用户 Administrator 日期 星期日, 七月 22 2018
cm-1,%T
10000.00,1.12
9999.00,1.12
9998.00,1.12
9997.00,1.12
9996.00,1.12
9995.00,1.11
9994.00,1.11
9993.00,1.11
9992.00,1.11
9991.00,1.11
9990.00,1.11
9989.00,1.10
9988.00,1.10
9987.00,1.10
9986.00,1.10
9985.00,1.10
9984.00,1.10
9983.00,1.09
9982.00,1.09
9981.00,1.09
9980.00,1.09
9979.00,1.09
9978.00,1.09
9977.00,1.09
9976.00,1.09
9975.00,1.09
9974.00,1.09
9973.00,1.09
9972.00,1.09
9971.00,1.09
9970.00,1.09
9969.00,1.09
9968.00,1.09
9967.00,1.09
9966.00,1.09
9965.00,1.09
9964.00,1.09
9963.00,1.09
9962.00,1.09
9961.00,1.08
9960.00,1.08
9959.00,1.08
9958.00,1.08
9957.00,1.08
9956.00,1.08
9955.00,1.08
9954.00,1.07
9953.00,1.07
9952.00,1.07
9951.00,1.07
9950.00,1.07
9949.00,1.07
9948.00,1.07
9947.00,1.07
9946.00,1.07
9945.00,1.07
9944.00,1.07
9943.00,1.07
9942.00,1.07
9941.00,1.07
9940.00,1.07
9939.00,1.07
9938.00,1.07
9937.00,1.07
9936.00,1.07
9935.00,1.07
9934.00,1.07
9933.00,1.07
9932.00,1.06
9931.00,1.06
9930.00,1.06
9929.00,1.06
9928.00,1.06
9927.00,1.06
9926.00,1.06
9925.00,1.06
9924.00,1.06
9923.00,1.06
9922.00,1.06
9921.00,1.06
9920.00,1.06
9919.00,1.06
9918.00,1.06
9917.00,1.06
9916.00,1.06
9915.00,1.07
9914.00,1.07
9913.00,1.07
9912.00,1.07
9911.00,1.07
9910.00,1.07
9909.00,1.07
9908.00,1.07
9907.00,1.07
9906.00,1.07
9905.00,1.07
9904.00,1.06
9903.00,1.06
9902.00,1.06
9901.00,1.06
9900.00,1.06
9899.00,1.06
9898.00,1.06
9897.00,1.05
9896.00,1.05
9895.00,1.05
9894.00,1.05
9893.00,1.05
9892.00,1.05
9891.00,1.05
9890.00,1.05
9889.00,1.06
9888.00,1.06
9887.00,1.06
9886.00,1.06
9885.00,1.06
9884.00,1.06
9883.00,1.06
9882.00,1.06
9881.00,1.06
9880.00,1.06
9879.00,1.06
9878.00,1.07
9877.00,1.07
9876.00,1.07
9875.00,1.07
9874.00,1.07
9873.00,1.07
9872.00,1.07
9871.00,1.07
9870.00,1.07
9869.00,1.07
9868.00,1.07
9867.00,1.07
9866.00,1.07
9865.00,1.06
9864.00,1.06
9863.00,1.06
9862.00,1.06
9861.00,1.06
9860.00,1.06
9859.00,1.06
9858.00,1.06
9857.00,1.06
9856.00,1.06
9855.00,1.06
9854.00,1.06
9853.00,1.06
9852.00,1.06
9851.00,1.06
9850.00,1.06
9849.00,1.06
9848.00,1.06
9847.00,1.06
9846.00,1.06
9845.00,1.05
9844.00,1.05
9843.00,1.05
9842.00,1.05
9841.00,1.05
9840.00,1.05
9839.00,1.05
9838.00,1.05
9837.00,1.05
9836.00,1.05
9835.00,1.06
9834.00,1.06
9833.00,1.06
9832.00,1.06
9831.00,1.06
9830.00,1.07
9829.00,1.07
9828.00,1.07
9827.00,1.07
9826.00,1.08
9825.00,1.08
9824.00,1.08
9823.00,1.08
9822.00,1.08
9821.00,1.08
9820.00,1.08
9819.00,1.08
9818.00,1.08
9817.00,1.08
9816.00,1.08
9815.00,1.08
9814.00,1.08
9813.00,1.08
9812.00,1.08
9811.00,1.08
9810.00,1.08
9809.00,1.08
9808.00,1.08
9807.00,1.09
9806.00,1.09
9805.00,1.09
9804.00,1.09
9803.00,1.09
9802.00,1.09
9801.00,1.09
9800.00,1.10
9799.00,1.10
9798.00,1.10
9797.00,1.10
9796.00,1.10
9795.00,1.10
9794.00,1.10
9793.00,1.10
9792.00,1.10
9791.00,1.10
9790.00,1.10
9789.00,1.10
9788.00,1.10
9787.00,1.10
9786.00,1.10
9785.00,1.10
9784.00,1.10
9783.00,1.10
9782.00,1.10
9781.00,1.10
9780.00,1.10
9779.00,1.10
9778.00,1.10
9777.00,1.10
9776.00,1.10
9775.00,1.10
9774.00,1.10
9773.00,1.10
9772.00,1.10
9771.00,1.10
9770.00,1.10
9769.00,1.10
9768.00,1.10
9767.00,1.10
9766.00,1.10
9765.00,1.10
9764.00,1.10
9763.00,1.10
9762.00,1.10
9761.00,1.10
9760.00,1.10
9759.00,1.10
9758.00,1.10
9757.00,1.10
9756.00,1.10
9755.00,1.10
9754.00,1.10
9753.00,1.10
9752.00,1.10
9751.00,1.10
9750.00,1.10
9749.00,1.09
9748.00,1.09
9747.00,1.09
9746.00,1.09
9745.00,1.09
9744.00,1.09
9743.00,1.09
9742.00,1.08
9741.00,1.08
9740.00,1.08
9739.00,1.08
9738.00,1.08
9737.00,1.08
9736.00,1.08
9735.00,1.08
9734.00,1.08
9733.00,1.08
9732.00,1.08
9731.00,1.08
9730.00,1.08
9729.00,1.08
9728.00,1.09
9727.00,1.09
9726.00,1.09
9725.00,1.09
9724.00,1.09
9723.00,1.09
9722.00,1.09
9721.00,1.09
9720.00,1.09
9719.00,1.09
9718.00,1.09
9717.00,1.09
9716.00,1.09
9715.00,1.09
9714.00,1.09
9713.00,1.09
9712.00,1.09
9711.00,1.08
9710.00,1.08
9709.00,1.08
9708.00,1.08
9707.00,1.08
9706.00,1.08
9705.00,1.08
9704.00,1.08
9703.00,1.08
9702.00,1.08
9701.00,1.08
9700.00,1.08
9699.00,1.08
9698.00,1.08
9697.00,1.08
9696.00,1.08
9695.00,1.08
9694.00,1.08
9693.00,1.08
9692.00,1.08
9691.00,1.08
9690.00,1.08
9689.00,1.08
9688.00,1.08
9687.00,1.08
9686.00,1.08
9685.00,1.09
9684.00,1.09
9683.00,1.09
9682.00,1.09
9681.00,1.09
9680.00,1.09
9679.00,1.09
9678.00,1.09
9677.00,1.09
9676.00,1.10
9675.00,1.10
9674.00,1.10
9673.00,1.10
9672.00,1.10
9671.00,1.10
9670.00,1.10
9669.00,1.10
9668.00,1.10
9667.00,1.10
9666.00,1.10
9665.00,1.10
9664.00,1.10
9663.00,1.10
9662.00,1.10
9661.00,1.10
9660.00,1.10
9659.00,1.10
9658.00,1.10
9657.00,1.10
9656.00,1.10
9655.00,1.10
9654.00,1.10
9653.00,1.10
9652.00,1.10
9651.00,1.10
9650.00,1.10
9649.00,1.10
9648.00,1.10
9647.00,1.10
9646.00,1.10
9645.00,1.10
9644.00,1.09
9643.00,1.09
9642.00,1.09
9641.00,1.09
9640.00,1.09
9639.00,1.09
9638.00,1.08
9637.00,1.08
9636.00,1.08
9635.00,1.07
9634.00,1.07
9633.00,1.07
9632.00,1.07
9631.00,1.07
9630.00,1.06
9629.00,1.06
9628.00,1.06
9627.00,1.06
9626.00,1.06
9625.00,1.07
9624.00,1.07
9623.00,1.07
9622.00,1.07
9621.00,1.07
9620.00,1.07
9619.00,1.08
9618.00,1.08
9617.00,1.08
9616.00,1.08
9615.00,1.08
9614.00,1.08
9613.00,1.08
9612.00,1.08
9611.00,1.08
9610.00,1.08
9609.00,1.08
9608.00,1.08
9607.00,1.08
9606.00,1.08
9605.00,1.08
9604.00,1.08
9603.00,1.09
9602.00,1.09
9601.00,1.09
9600.00,1.09
9599.00,1.09
9598.00,1.09
9597.00,1.10
9596.00,1.10
9595.00,1.10
9594.00,1.10
9593.00,1.10
9592.00,1.11
9591.00,1.11
9590.00,1.11
9589.00,1.11
9588.00,1.11
9587.00,1.11
9586.00,1.11
9585.00,1.11
9584.00,1.11
9583.00,1.10
9582.00,1.10
9581.00,1.10
9580.00,1.10
9579.00,1.09
9578.00,1.09
9577.00,1.09
9576.00,1.08
9575.00,1.08
9574.00,1.08
9573.00,1.08
9572.00,1.08
9571.00,1.07
9570.00,1.07
9569.00,1.07
9568.00,1.07
9567.00,1.07
9566.00,1.07
9565.00,1.07
9564.00,1.07
9563.00,1.07
9562.00,1.07
9561.00,1.07
9560.00,1.07
9559.00,1.07
9558.00,1.07
9557.00,1.07
9556.00,1.07
9555.00,1.07
9554.00,1.07
9553.00,1.07
9552.00,1.06
9551.00,1.06
9550.00,1.06
9549.00,1.06
9548.00,1.06
9547.00,1.06
9546.00,1.06
9545.00,1.06
9544.00,1.07
9543.00,1.07
9542.00,1.07
9541.00,1.07
9540.00,1.07
9539.00,1.07
9538.00,1.07
9537.00,1.07
9536.00,1.08
9535.00,1.08
9534.00,1.08
9533.00,1.08
9532.00,1.08
9531.00,1.09
9530.00,1.09
9529.00,1.09
9528.00,1.09
9527.00,1.09
9526.00,1.10
9525.00,1.10
9524.00,1.10
9523.00,1.10
9522.00,1.10
9521.00,1.10
9520.00,1.10
9519.00,1.10
9518.00,1.09
9517.00,1.09
9516.00,1.09
9515.00,1.09
9514.00,1.09
9513.00,1.09
9512.00,1.08
9511.00,1.08
9510.00,1.08
9509.00,1.07
9508.00,1.07
9507.00,1.07
9506.00,1.07
9505.00,1.07
9504.00,1.06
9503.00,1.06
9502.00,1.06
9501.00,1.06
9500.00,1.06
9499.00,1.06
9498.00,1.06
9497.00,1.06
9496.00,1.06
9495.00,1.07
9494.00,1.07
9493.00,1.07
9492.00,1.07
9491.00,1.07
9490.00,1.08
9489.00,1.08
9488.00,1.08
9487.00,1.08
9486.00,1.09
9485.00,1.09
9484.00,1.09
9483.00,1.09
9482.00,1.10
9481.00,1.10
9480.00,1.10
9479.00,1.10
9478.00,1.10
9477.00,1.10
9476.00,1.10
9475.00,1.10
9474.00,1.10
9473.00,1.10
9472.00,1.10
9471.00,1.10
9470.00,1.10
9469.00,1.10
9468.00,1.10
9467.00,1.10
9466.00,1.10
9465.00,1.10
9464.00,1.10
9463.00,1.10
9462.00,1.10
9461.00,1.10
9460.00,1.10
9459.00,1.10
9458.00,1.10
9457.00,1.10
9456.00,1.10
9455.00,1.10
9454.00,1.10
9453.00,1.10
9452.00,1.10
9451.00,1.10
9450.00,1.10
9449.00,1.10
9448.00,1.11
9447.00,1.11
9446.00,1.11
9445.00,1.11
9444.00,1.11
9443.00,1.11
9442.00,1.12
9441.00,1.12
9440.00,1.12
9439.00,1.12
9438.00,1.12
9437.00,1.12
9436.00,1.12
9435.00,1.12
9434.00,1.12
9433.00,1.12
9432.00,1.12
9431.00,1.11
9430.00,1.11
9429.00,1.11
9428.00,1.11
9427.00,1.11
9426.00,1.10
9425.00,1.10
9424.00,1.10
9423.00,1.10
9422.00,1.10
9421.00,1.10
9420.00,1.10
9419.00,1.10
9418.00,1.10
9417.00,1.10
9416.00,1.10
9415.00,1.09
9414.00,1.09
9413.00,1.09
9412.00,1.09
9411.00,1.09
9410.00,1.09
9409.00,1.09
9408.00,1.09
9407.00,1.08
9406.00,1.08
9405.00,1.08
9404.00,1.08
9403.00,1.08
9402.00,1.08
9401.00,1.08
9400.00,1.08
9399.00,1.08
9398.00,1.08
9397.00,1.09
9396.00,1.09
9395.00,1.09
9394.00,1.09
9393.00,1.09
9392.00,1.09
9391.00,1.09
9390.00,1.10
9389.00,1.10
9388.00,1.10
9387.00,1.10
9386.00,1.10
9385.00,1.10
9384.00,1.10
9383.00,1.10
9382.00,1.10
9381.00,1.10
9380.00,1.09
9379.00,1.09
9378.00,1.09
9377.00,1.09
9376.00,1.09
9375.00,1.09
9374.00,1.09
9373.00,1.09
9372.00,1.09
9371.00,1.09
9370.00,1.09
9369.00,1.09
9368.00,1.09
9367.00,1.09
9366.00,1.09
9365.00,1.09
9364.00,1.09
9363.00,1.09
9362.00,1.09
9361.00,1.09
9360.00,1.09
9359.00,1.10
9358.00,1.10
9357.00,1.10
9356.00,1.10
9355.00,1.10
9354.00,1.10
9353.00,1.10
9352.00,1.10
9351.00,1.10
9350.00,1.10
9349.00,1.10
9348.00,1.10
9347.00,1.10
9346.00,1.10
9345.00,1.10
9344.00,1.10
9343.00,1.10
9342.00,1.10
9341.00,1.11
9340.00,1.11
9339.00,1.11
9338.00,1.11
9337.00,1.11
9336.00,1.11
9335.00,1.11
9334.00,1.11
9333.00,1.11
9332.00,1.11
9331.00,1.11
9330.00,1.11
9329.00,1.11
9328.00,1.12
9327.00,1.12
9326.00,1.12
9325.00,1.11
9324.00,1.11
9323.00,1.11
9322.00,1.11
9321.00,1.11
9320.00,1.11
9319.00,1.10
9318.00,1.10
9317.00,1.10
9316.00,1.09
9315.00,1.09
9314.00,1.09
9313.00,1.08
9312.00,1.08
9311.00,1.08
9310.00,1.07
9309.00,1.07
9308.00,1.07
9307.00,1.07
9306.00,1.07
9305.00,1.06
9304.00,1.06
9303.00,1.06
9302.00,1.06
9301.00,1.06
9300.00,1.07
9299.00,1.07
9298.00,1.07
9297.00,1.07
9296.00,1.07
9295.00,1.07
9294.00,1.08
9293.00,1.08
9292.00,1.08
9291.00,1.08
9290.00,1.08
9289.00,1.08
9288.00,1.08
9287.00,1.08
9286.00,1.08
9285.00,1.08
9284.00,1.08
9283.00,1.08
9282.00,1.08
9281.00,1.08
9280.00,1.08
9279.00,1.08
9278.00,1.08
9277.00,1.08
9276.00,1.08
9275.00,1.08
9274.00,1.08
9273.00,1.08
9272.00,1.09
9271.00,1.09
9270.00,1.09
9269.00,1.09
9268.00,1.09
9267.00,1.09
9266.00,1.09
9265.00,1.09
9264.00,1.09
9263.00,1.09
9262.00,1.10
9261.00,1.10
9260.00,1.10
9259.00,1.10
9258.00,1.10
9257.00,1.10
9256.00,1.10
9255.00,1.10
9254.00,1.10
9253.00,1.10
9252.00,1.10
9251.00,1.11
9250.00,1.11
9249.00,1.11
9248.00,1.11
9247.00,1.11
9246.00,1.11
9245.00,1.11
9244.00,1.11
9243.00,1.11
9242.00,1.11
9241.00,1.11
9240.00,1.11
9239.00,1.11
9238.00,1.11
9237.00,1.11
9236.00,1.11
9235.00,1.11
9234.00,1.11
9233.00,1.11
9232.00,1.11
9231.00,1.11
9230.00,1.11
9229.00,1.11
9228.00,1.11
9227.00,1.11
9226.00,1.10
9225.00,1.10
9224.00,1.10
9223.00,1.10
9222.00,1.10
9221.00,1.10
9220.00,1.10
9219.00,1.10
9218.00,1.10
9217.00,1.10
9216.00,1.10
9215.00,1.09
9214.00,1.09
9213.00,1.09
9212.00,1.09
9211.00,1.09
9210.00,1.09
9209.00,1.09
9208.00,1.09
9207.00,1.09
9206.00,1.09
9205.00,1.09
9204.00,1.08
9203.00,1.08
9202.00,1.08
9201.00,1.08
9200.00,1.08
9199.00,1.08
9198.00,1.08
9197.00,1.08
9196.00,1.08
9195.00,1.08
9194.00,1.08
9193.00,1.09
9192.00,1.09
9191.00,1.09
9190.00,1.09
9189.00,1.09
9188.00,1.09
9187.00,1.09
9186.00,1.09
9185.00,1.09
9184.00,1.09
9183.00,1.09
9182.00,1.09
9181.00,1.09
9180.00,1.09
9179.00,1.09
9178.00,1.09
9177.00,1.09
9176.00,1.09
9175.00,1.09
9174.00,1.09
9173.00,1.09
9172.00,1.09
9171.00,1.09
9170.00,1.09
9169.00,1.09
9168.00,1.09
9167.00,1.09
9166.00,1.09
9165.00,1.09
9164.00,1.09
9163.00,1.09
9162.00,1.09
9161.00,1.09
9160.00,1.09
9159.00,1.09
9158.00,1.09
9157.00,1.09
9156.00,1.09
9155.00,1.09
9154.00,1.10
9153.00,1.10
9152.00,1.10
9151.00,1.10
9150.00,1.10
9149.00,1.10
9148.00,1.10
9147.00,1.10
9146.00,1.10
9145.00,1.10
9144.00,1.10
9143.00,1.10
9142.00,1.10
9141.00,1.10
9140.00,1.10
9139.00,1.10
9138.00,1.09
9137.00,1.09
9136.00,1.09
9135.00,1.09
9134.00,1.09
9133.00,1.09
9132.00,1.09
9131.00,1.09
9130.00,1.09
9129.00,1.09
9128.00,1.09
9127.00,1.09
9126.00,1.09
9125.00,1.09
9124.00,1.09
9123.00,1.09
9122.00,1.09
9121.00,1.09
9120.00,1.10
9119.00,1.10
9118.00,1.10
9117.00,1.10
9116.00,1.09
9115.00,1.09
9114.00,1.09
9113.00,1.09
9112.00,1.09
9111.00,1.09
9110.00,1.09
9109.00,1.09
9108.00,1.09
9107.00,1.09
9106.00,1.09
9105.00,1.09
9104.00,1.09
9103.00,1.09
9102.00,1.09
9101.00,1.09
9100.00,1.09
9099.00,1.09
9098.00,1.09
9097.00,1.09
9096.00,1.09
9095.00,1.09
9094.00,1.09
9093.00,1.09
9092.00,1.10
9091.00,1.10
9090.00,1.10
9089.00,1.10
9088.00,1.10
9087.00,1.10
9086.00,1.11
9085.00,1.11
9084.00,1.11
9083.00,1.11
9082.00,1.11
9081.00,1.11
9080.00,1.11
9079.00,1.11
9078.00,1.10
9077.00,1.10
9076.00,1.10
9075.00,1.10
9074.00,1.10
9073.00,1.10
9072.00,1.10
9071.00,1.10
9070.00,1.10
9069.00,1.10
9068.00,1.10
9067.00,1.10
9066.00,1.10
9065.00,1.10
9064.00,1.10
9063.00,1.11
9062.00,1.11
9061.00,1.11
9060.00,1.11
9059.00,1.11
9058.00,1.11
9057.00,1.11
9056.00,1.11
9055.00,1.11
9054.00,1.11
9053.00,1.11
9052.00,1.11
9051.00,1.11
9050.00,1.11
9049.00,1.11
9048.00,1.11
9047.00,1.11
9046.00,1.11
9045.00,1.10
9044.00,1.10
9043.00,1.10
9042.00,1.10
9041.00,1.10
9040.00,1.10
9039.00,1.09
9038.00,1.09
9037.00,1.09
9036.00,1.09
9035.00,1.09
9034.00,1.09
9033.00,1.08
9032.00,1.08
9031.00,1.08
9030.00,1.08
9029.00,1.08
9028.00,1.08
9027.00,1.08
9026.00,1.08
9025.00,1.08
9024.00,1.08
9023.00,1.09
9022.00,1.09
9021.00,1.09
9020.00,1.09
9019.00,1.09
9018.00,1.10
9017.00,1.10
9016.00,1.10
9015.00,1.10
9014.00,1.10
9013.00,1.11
9012.00,1.11
9011.00,1.11
9010.00,1.11
9009.00,1.11
9008.00,1.11
9007.00,1.11
9006.00,1.11
9005.00,1.10
9004.00,1.10
9003.00,1.10
9002.00,1.10
9001.00,1.10
9000.00,1.10
8999.00,1.09
8998.00,1.09
8997.00,1.09
8996.00,1.09
8995.00,1.09
8994.00,1.09
8993.00,1.09
8992.00,1.09
8991.00,1.09
8990.00,1.09
8989.00,1.09
8988.00,1.09
8987.00,1.09
8986.00,1.09
8985.00,1.09
8984.00,1.09
8983.00,1.09
8982.00,1.09
8981.00,1.09
8980.00,1.09
8979.00,1.09
8978.00,1.09
8977.00,1.09
8976.00,1.09
8975.00,1.09
8974.00,1.09
8973.00,1.09
8972.00,1.09
8971.00,1.09
8970.00,1.09
8969.00,1.09
8968.00,1.09
8967.00,1.09
8966.00,1.09
8965.00,1.09
8964.00,1.09
8963.00,1.09
8962.00,1.09
8961.00,1.09
8960.00,1.10
8959.00,1.10
8958.00,1.10
8957.00,1.10
8956.00,1.10
8955.00,1.10
8954.00,1.11
8953.00,1.11
8952.00,1.11
8951.00,1.11
8950.00,1.11
8949.00,1.11
8948.00,1.12
8947.00,1.12
8946.00,1.12
8945.00,1.12
8944.00,1.12
8943.00,1.12
8942.00,1.12
8941.00,1.12
8940.00,1.12
8939.00,1.12
8938.00,1.12
8937.00,1.12
8936.00,1.12
8935.00,1.12
8934.00,1.12
8933.00,1.12
8932.00,1.12
8931.00,1.12
8930.00,1.12
8929.00,1.12
8928.00,1.12
8927.00,1.12
8926.00,1.12
8925.00,1.11
8924.00,1.11
8923.00,1.11
8922.00,1.11
8921.00,1.11
8920.00,1.11
8919.00,1.10
8918.00,1.10
8917.00,1.10
8916.00,1.10
8915.00,1.10
8914.00,1.10
8913.00,1.10
8912.00,1.10
8911.00,1.09
8910.00,1.09
8909.00,1.09
8908.00,1.09
8907.00,1.09
8906.00,1.09
8905.00,1.09
8904.00,1.09
8903.00,1.09
8902.00,1.09
8901.00,1.09
8900.00,1.09
8899.00,1.09
8898.00,1.09
8897.00,1.09
8896.00,1.09
8895.00,1.09
8894.00,1.10
8893.00,1.10
8892.00,1.10
8891.00,1.10
8890.00,1.10
8889.00,1.10
8888.00,1.10
8887.00,1.10
8886.00,1.10
8885.00,1.10
8884.00,1.10
8883.00,1.10
8882.00,1.10
8881.00,1.10
8880.00,1.10
8879.00,1.10
8878.00,1.10
8877.00,1.10
8876.00,1.10
8875.00,1.10
8874.00,1.09
8873.00,1.09
8872.00,1.09
8871.00,1.09
8870.00,1.09
8869.00,1.09
8868.00,1.09
8867.00,1.09
8866.00,1.09
8865.00,1.09
8864.00,1.09
8863.00,1.09
8862.00,1.09
8861.00,1.09
8860.00,1.09
8859.00,1.09
8858.00,1.09
8857.00,1.09
8856.00,1.09
8855.00,1.09
8854.00,1.09
8853.00,1.09
8852.00,1.09
8851.00,1.09
8850.00,1.09
8849.00,1.09
8848.00,1.09
8847.00,1.09
8846.00,1.09
8845.00,1.09
8844.00,1.09
8843.00,1.09
8842.00,1.09
8841.00,1.08
8840.00,1.08
8839.00,1.08
8838.00,1.08
8837.00,1.08
8836.00,1.08
8835.00,1.08
8834.00,1.08
8833.00,1.08
8832.00,1.08
8831.00,1.09
8830.00,1.09
8829.00,1.09
8828.00,1.09
8827.00,1.09
8826.00,1.09
8825.00,1.09
8824.00,1.10
8823.00,1.10
8822.00,1.10
8821.00,1.10
8820.00,1.10
8819.00,1.10
8818.00,1.10
8817.00,1.10
8816.00,1.10
8815.00,1.09
8814.00,1.09
8813.00,1.09
8812.00,1.09
8811.00,1.09
8810.00,1.09
8809.00,1.09
8808.00,1.09
8807.00,1.09
8806.00,1.09
8805.00,1.09
8804.00,1.09
8803.00,1.09
8802.00,1.09
8801.00,1.09
8800.00,1.09
8799.00,1.09
8798.00,1.09
8797.00,1.09
8796.00,1.09
8795.00,1.09
8794.00,1.09
8793.00,1.09
8792.00,1.09
8791.00,1.09
8790.00,1.09
8789.00,1.09
8788.00,1.09
8787.00,1.09
8786.00,1.09
8785.00,1.09
8784.00,1.08
8783.00,1.08
8782.00,1.08
8781.00,1.08
8780.00,1.08
8779.00,1.08
8778.00,1.08
8777.00,1.08
8776.00,1.08
8775.00,1.08
8774.00,1.08
8773.00,1.08
8772.00,1.08
8771.00,1.08
8770.00,1.08
8769.00,1.08
8768.00,1.08
8767.00,1.08
8766.00,1.08
8765.00,1.08
8764.00,1.08
8763.00,1.08
8762.00,1.08
8761.00,1.08
8760.00,1.08
8759.00,1.08
8758.00,1.07
8757.00,1.07
8756.00,1.07
8755.00,1.07
8754.00,1.06
8753.00,1.06
8752.00,1.06
8751.00,1.06
8750.00,1.05
8749.00,1.05
8748.00,1.05
8747.00,1.05
8746.00,1.05
8745.00,1.05
8744.00,1.05
8743.00,1.05
8742.00,1.05
8741.00,1.05
8740.00,1.05
8739.00,1.05
8738.00,1.05
8737.00,1.05
8736.00,1.05
8735.00,1.05
8734.00,1.05
8733.00,1.05
8732.00,1.05
8731.00,1.05
8730.00,1.05
8729.00,1.05
8728.00,1.05
8727.00,1.05
8726.00,1.05
8725.00,1.05
8724.00,1.05
8723.00,1.05
8722.00,1.05
8721.00,1.05
8720.00,1.05
8719.00,1.05
8718.00,1.05
8717.00,1.05
8716.00,1.05
8715.00,1.05
8714.00,1.05
8713.00,1.05
8712.00,1.05
8711.00,1.05
8710.00,1.05
8709.00,1.05
8708.00,1.05
8707.00,1.05
8706.00,1.05
8705.00,1.05
8704.00,1.05
8703.00,1.05
8702.00,1.06
8701.00,1.06
8700.00,1.06
8699.00,1.06
8698.00,1.06
8697.00,1.06
8696.00,1.06
8695.00,1.06
8694.00,1.06
8693.00,1.07
8692.00,1.07
8691.00,1.07
8690.00,1.07
8689.00,1.07
8688.00,1.07
8687.00,1.07
8686.00,1.06
8685.00,1.06
8684.00,1.06
8683.00,1.06
8682.00,1.06
8681.00,1.06
8680.00,1.05
8679.00,1.05
8678.00,1.05
8677.00,1.05
8676.00,1.05
8675.00,1.04
8674.00,1.04
8673.00,1.04
8672.00,1.04
8671.00,1.04
8670.00,1.04
8669.00,1.04
8668.00,1.04
8667.00,1.04
8666.00,1.04
8665.00,1.04
8664.00,1.04
8663.00,1.05
8662.00,1.05
8661.00,1.05
8660.00,1.05
8659.00,1.05
8658.00,1.05
8657.00,1.05
8656.00,1.05
8655.00,1.04
8654.00,1.04
8653.00,1.04
8652.00,1.04
8651.00,1.04
8650.00,1.04
8649.00,1.04
8648.00,1.04
8647.00,1.04
8646.00,1.04
8645.00,1.04
8644.00,1.04
8643.00,1.04
8642.00,1.04
8641.00,1.04
8640.00,1.04
8639.00,1.04
8638.00,1.04
8637.00,1.04
8636.00,1.04
8635.00,1.04
8634.00,1.04
8633.00,1.03
8632.00,1.03
8631.00,1.03
8630.00,1.03
8629.00,1.03
8628.00,1.03
8627.00,1.03
8626.00,1.03
8625.00,1.03
8624.00,1.03
8623.00,1.03
8622.00,1.03
8621.00,1.03
8620.00,1.03
8619.00,1.03
8618.00,1.03
8617.00,1.03
8616.00,1.03
8615.00,1.03
8614.00,1.03
8613.00,1.04
8612.00,1.04
8611.00,1.04
8610.00,1.04
8609.00,1.04
8608.00,1.04
8607.00,1.04
8606.00,1.04
8605.00,1.04
8604.00,1.04
8603.00,1.04
8602.00,1.04
8601.00,1.04
8600.00,1.04
8599.00,1.03
8598.00,1.03
8597.00,1.03
8596.00,1.03
8595.00,1.03
8594.00,1.03
8593.00,1.03
8592.00,1.03
8591.00,1.03
8590.00,1.02
8589.00,1.02
8588.00,1.02
8587.00,1.02
8586.00,1.02
8585.00,1.02
8584.00,1.01
8583.00,1.01
8582.00,1.01
8581.00,1.01
8580.00,1.01
8579.00,1.01
8578.00,1.01
8577.00,1.01
8576.00,1.01
8575.00,1.01
8574.00,1.01
8573.00,1.01
8572.00,1.01
8571.00,1.01
8570.00,1.01
8569.00,1.01
8568.00,1.01
8567.00,1.01
8566.00,1.00
8565.00,1.00
8564.00,1.00
8563.00,1.00
8562.00,1.00
8561.00,1.00
8560.00,1.00
8559.00,1.00
8558.00,1.00
8557.00,1.00
8556.00,1.00
8555.00,1.00
8554.00,1.00
8553.00,1.00
8552.00,1.00
8551.00,1.00
8550.00,1.00
8549.00,1.00
8548.00,1.00
8547.00,1.00
8546.00,1.00
8545.00,1.00
8544.00,1.00
8543.00,1.00
8542.00,1.01
8541.00,1.01
8540.00,1.01
8539.00,1.01
8538.00,1.01
8537.00,1.01
8536.00,1.01
8535.00,1.01
8534.00,1.01
8533.00,1.01
8532.00,1.01
8531.00,1.01
8530.00,1.01
8529.00,1.01
8528.00,1.01
8527.00,1.01
8526.00,1.01
8525.00,1.00
8524.00,1.00
8523.00,1.00
8522.00,1.00
8521.00,1.00
8520.00,1.00
8519.00,0.99
8518.00,0.99
8517.00,0.99
8516.00,0.99
8515.00,0.99
8514.00,0.99
8513.00,0.99
8512.00,0.99
8511.00,0.98
8510.00,0.98
8509.00,0.98
8508.00,0.98
8507.00,0.98
8506.00,0.98
8505.00,0.98
8504.00,0.98
8503.00,0.98
8502.00,0.98
8501.00,0.98
8500.00,0.98
8499.00,0.98
8498.00,0.98
8497.00,0.99
8496.00,0.99
8495.00,0.99
8494.00,0.99
8493.00,0.99
8492.00,0.99
8491.00,0.99
8490.00,0.99
8489.00,0.99
8488.00,0.99
8487.00,0.99
8486.00,0.99
8485.00,0.99
8484.00,0.99
8483.00,0.98
8482.00,0.98
8481.00,0.98
8480.00,0.98
8479.00,0.98
8478.00,0.98
8477.00,0.98
8476.00,0.97
8475.00,0.97
8474.00,0.97
8473.00,0.97
8472.00,0.97
8471.00,0.97
8470.00,0.97
8469.00,0.97
8468.00,0.97
8467.00,0.96
8466.00,0.96
8465.00,0.96
8464.00,0.96
8463.00,0.96
8462.00,0.96
8461.00,0.96
8460.00,0.96
8459.00,0.96
8458.00,0.96
8457.00,0.96
8456.00,0.96
8455.00,0.96
8454.00,0.96
8453.00,0.96
8452.00,0.96
8451.00,0.96
8450.00,0.95
8449.00,0.95
8448.00,0.95
8447.00,0.95
8446.00,0.95
8445.00,0.95
8444.00,0.95
8443.00,0.95
8442.00,0.95
8441.00,0.95
8440.00,0.95
8439.00,0.95
8438.00,0.95
8437.00,0.95
8436.00,0.95
8435.00,0.95
8434.00,0.95
8433.00,0.95
8432.00,0.95
8431.00,0.95
8430.00,0.95
8429.00,0.95
8428.00,0.95
8427.00,0.95
8426.00,0.96
8425.00,0.96
8424.00,0.96
8423.00,0.96
8422.00,0.96
8421.00,0.96
8420.00,0.96
8419.00,0.96
8418.00,0.96
8417.00,0.96
8416.00,0.97
8415.00,0.97
8414.00,0.97
8413.00,0.97
8412.00,0.97
8411.00,0.97
8410.00,0.97
8409.00,0.97
8408.00,0.97
8407.00,0.97
8406.00,0.97
8405.00,0.97
8404.00,0.97
8403.00,0.97
8402.00,0.97
8401.00,0.97
8400.00,0.97
8399.00,0.97
8398.00,0.97
8397.00,0.97
8396.00,0.97
8395.00,0.97
8394.00,0.97
8393.00,0.98
8392.00,0.98
8391.00,0.98
8390.00,0.98
8389.00,0.98
8388.00,0.98
8387.00,0.99
8386.00,0.99
8385.00,0.99
8384.00,0.99
8383.00,0.99
8382.00,0.99
8381.00,1.00
8380.00,1.00
8379.00,1.00
8378.00,1.00
8377.00,1.00
8376.00,1.00
8375.00,1.00
8374.00,1.00
8373.00,1.00
8372.00,1.00
8371.00,1.00
8370.00,1.00
8369.00,1.00
8368.00,1.00
8367.00,1.00
8366.00,1.00
8365.00,1.00
8364.00,1.00
8363.00,1.00
8362.00,1.00
8361.00,1.00
8360.00,1.00
8359.00,1.00
8358.00,1.00
8357.00,1.00
8356.00,1.00
8355.00,1.00
8354.00,1.00
8353.00,1.00
8352.00,1.00
8351.00,1.00
8350.00,1.00
8349.00,1.00
8348.00,1.00
8347.00,1.00
8346.00,1.00
8345.00,1.00
8344.00,1.00
8343.00,1.00
8342.00,1.00
8341.00,1.00
8340.00,1.00
8339.00,1.00
8338.00,1.00
8337.00,1.00
8336.00,1.00
8335.00,1.00
8334.00,0.99
8333.00,0.99
8332.00,0.99
8331.00,0.99
8330.00,0.99
8329.00,0.99
8328.00,0.99
8327.00,0.99
8326.00,0.99
8325.00,0.99
8324.00,0.99
8323.00,0.99
8322.00,0.99
8321.00,0.99
8320.00,1.00
8319.00,1.00
8318.00,1.00
8317.00,1.00
8316.00,1.00
8315.00,1.00
8314.00,1.00
8313.00,1.00
8312.00,1.00
8311.00,1.00
8310.00,1.00
8309.00,1.00
8308.00,1.00
8307.00,1.00
8306.00,1.00
8305.00,1.01
8304.00,1.01
8303.00,1.01
8302.00,1.01
8301.00,1.01
8300.00,1.01
8299.00,1.01
8298.00,1.01
8297.00,1.01
8296.00,1.01
8295.00,1.00
8294.00,1.00
8293.00,1.00
8292.00,1.00
8291.00,1.00
8290.00,1.00
8289.00,1.00
8288.00,1.00
8287.00,1.00
8286.00,1.00
8285.00,1.00
8284.00,1.00
8283.00,1.00
8282.00,1.00
8281.00,1.00
8280.00,1.00
8279.00,1.01
8278.00,1.01
8277.00,1.01
8276.00,1.01
8275.00,1.01
8274.00,1.01
8273.00,1.01
8272.00,1.01
8271.00,1.01
8270.00,1.01
8269.00,1.01
8268.00,1.01
8267.00,1.01
8266.00,1.01
8265.00,1.01
8264.00,1.01
8263.00,1.01
8262.00,1.01
8261.00,1.01
8260.00,1.01
8259.00,1.01
8258.00,1.01
8257.00,1.01
8256.00,1.01
8255.00,1.01
8254.00,1.01
8253.00,1.01
8252.00,1.01
8251.00,1.01
8250.00,1.01
8249.00,1.01
8248.00,1.01
8247.00,1.01
8246.00,1.01
8245.00,1.01
8244.00,1.01
8243.00,1.01
8242.00,1.01
8241.00,1.01
8240.00,1.01
8239.00,1.01
8238.00,1.01
8237.00,1.01
8236.00,1.01
8235.00,1.01
8234.00,1.01
8233.00,1.01
8232.00,1.01
8231.00,1.01
8230.00,1.01
8229.00,1.01
8228.00,1.01
8227.00,1.02
8226.00,1.02
8225.00,1.02
8224.00,1.02
8223.00,1.02
8222.00,1.02
8221.00,1.02
8220.00,1.02
8219.00,1.02
8218.00,1.02
8217.00,1.02
8216.00,1.02
8215.00,1.02
8214.00,1.02
8213.00,1.02
8212.00,1.02
8211.00,1.02
8210.00,1.02
8209.00,1.03
8208.00,1.03
8207.00,1.03
8206.00,1.03
8205.00,1.03
8204.00,1.03
8203.00,1.03
8202.00,1.03
8201.00,1.03
8200.00,1.03
8199.00,1.03
8198.00,1.03
8197.00,1.03
8196.00,1.03
8195.00,1.03
8194.00,1.03
8193.00,1.03
8192.00,1.03
8191.00,1.03
8190.00,1.03
8189.00,1.03
8188.00,1.03
8187.00,1.03
8186.00,1.03
8185.00,1.03
8184.00,1.03
8183.00,1.03
8182.00,1.03
8181.00,1.03
8180.00,1.03
8179.00,1.03
8178.00,1.03
8177.00,1.03
8176.00,1.03
8175.00,1.04
8174.00,1.04
8173.00,1.04
8172.00,1.04
8171.00,1.04
8170.00,1.04
8169.00,1.04
8168.00,1.04
8167.00,1.04
8166.00,1.04
8165.00,1.04
8164.00,1.04
8163.00,1.04
8162.00,1.04
8161.00,1.04
8160.00,1.04
8159.00,1.04
8158.00,1.04
8157.00,1.05
8156.00,1.05
8155.00,1.05
8154.00,1.05
8153.00,1.05
8152.00,1.05
8151.00,1.05
8150.00,1.05
8149.00,1.05
8148.00,1.05
8147.00,1.05
8146.00,1.05
8145.00,1.05
8144.00,1.05
8143.00,1.06
8142.00,1.06
8141.00,1.06
8140.00,1.06
8139.00,1.06
8138.00,1.06
8137.00,1.06
8136.00,1.06
8135.00,1.06
8134.00,1.06
8133.00,1.06
8132.00,1.06
8131.00,1.06
8130.00,1.06
8129.00,1.06
8128.00,1.06
8127.00,1.05
8126.00,1.05
8125.00,1.05
8124.00,1.06
8123.00,1.06
8122.00,1.06
8121.00,1.06
8120.00,1.06
8119.00,1.06
8118.00,1.06
8117.00,1.06
8116.00,1.06
8115.00,1.06
8114.00,1.06
8113.00,1.06
8112.00,1.06
8111.00,1.06
8110.00,1.07
8109.00,1.07
8108.00,1.07
8107.00,1.07
8106.00,1.07
8105.00,1.07
8104.00,1.07
8103.00,1.07
8102.00,1.07
8101.00,1.07
8100.00,1.07
8099.00,1.07
8098.00,1.07
8097.00,1.07
8096.00,1.07
8095.00,1.07
8094.00,1.07
8093.00,1.07
8092.00,1.07
8091.00,1.07
8090.00,1.07
8089.00,1.07
8088.00,1.07
8087.00,1.07
8086.00,1.07
8085.00,1.07
8084.00,1.07
8083.00,1.07
8082.00,1.07
8081.00,1.07
8080.00,1.07
8079.00,1.07
8078.00,1.07
8077.00,1.07
8076.00,1.07
8075.00,1.07
8074.00,1.07
8073.00,1.07
8072.00,1.06
8071.00,1.06
8070.00,1.06
8069.00,1.06
8068.00,1.06
8067.00,1.06
8066.00,1.06
8065.00,1.06
8064.00,1.06
8063.00,1.06
8062.00,1.06
8061.00,1.06
8060.00,1.06
8059.00,1.05
8058.00,1.05
8057.00,1.05
8056.00,1.05
8055.00,1.05
8054.00,1.05
8053.00,1.05
8052.00,1.05
8051.00,1.05
8050.00,1.05
8049.00,1.05
8048.00,1.05
8047.00,1.05
8046.00,1.05
8045.00,1.05
8044.00,1.05
8043.00,1.06
8042.00,1.06
8041.00,1.06
8040.00,1.06
8039.00,1.06
8038.00,1.06
8037.00,1.06
8036.00,1.06
8035.00,1.06
8034.00,1.06
8033.00,1.06
8032.00,1.07
8031.00,1.07
8030.00,1.07
8029.00,1.07
8028.00,1.07
8027.00,1.07
8026.00,1.07
8025.00,1.07
8024.00,1.07
8023.00,1.07
8022.00,1.07
8021.00,1.07
8020.00,1.07
8019.00,1.07
8018.00,1.07
8017.00,1.07
8016.00,1.07
8015.00,1.07
8014.00,1.07
8013.00,1.07
8012.00,1.07
8011.00,1.07
8010.00,1.07
8009.00,1.07
8008.00,1.07
8007.00,1.07
8006.00,1.07
8005.00,1.08
8004.00,1.08
8003.00,1.08
8002.00,1.08
8001.00,1.08
8000.00,1.08
7999.00,1.08
7998.00,1.08
7997.00,1.08
7996.00,1.08
7995.00,1.08
7994.00,1.08
7993.00,1.08
7992.00,1.08
7991.00,1.08
7990.00,1.08
7989.00,1.09
7988.00,1.09
7987.00,1.09
7986.00,1.09
7985.00,1.09
7984.00,1.09
7983.00,1.09
7982.00,1.09
7981.00,1.09
7980.00,1.09
7979.00,1.09
7978.00,1.09
7977.00,1.09
7976.00,1.09
7975.00,1.09
7974.00,1.09
7973.00,1.09
7972.00,1.09
7971.00,1.09
7970.00,1.09
7969.00,1.09
7968.00,1.09
7967.00,1.09
7966.00,1.09
7965.00,1.09
7964.00,1.09
7963.00,1.09
7962.00,1.09
7961.00,1.09
7960.00,1.10
7959.00,1.10
7958.00,1.10
7957.00,1.10
7956.00,1.10
7955.00,1.10
7954.00,1.10
7953.00,1.10
7952.00,1.10
7951.00,1.10
7950.00,1.10
7949.00,1.10
7948.00,1.10
7947.00,1.10
7946.00,1.09
7945.00,1.09
7944.00,1.09
7943.00,1.09
7942.00,1.09
7941.00,1.09
7940.00,1.09
7939.00,1.09
7938.00,1.09
7937.00,1.09
7936.00,1.09
7935.00,1.09
7934.00,1.09
7933.00,1.09
7932.00,1.09
7931.00,1.09
7930.00,1.09
7929.00,1.09
7928.00,1.09
7927.00,1.09
7926.00,1.09
7925.00,1.09
7924.00,1.09
7923.00,1.09
7922.00,1.09
7921.00,1.09
7920.00,1.09
7919.00,1.09
7918.00,1.09
7917.00,1.09
7916.00,1.09
7915.00,1.09
7914.00,1.09
7913.00,1.08
7912.00,1.08
7911.00,1.08
7910.00,1.08
7909.00,1.08
7908.00,1.08
7907.00,1.08
7906.00,1.08
7905.00,1.08
7904.00,1.08
7903.00,1.08
7902.00,1.08
7901.00,1.08
7900.00,1.08
7899.00,1.08
7898.00,1.08
7897.00,1.09
7896.00,1.09
7895.00,1.09
7894.00,1.09
7893.00,1.09
7892.00,1.09
7891.00,1.09
7890.00,1.09
7889.00,1.09
7888.00,1.09
7887.00,1.09
7886.00,1.09
7885.00,1.09
7884.00,1.09
7883.00,1.09
7882.00,1.09
7881.00,1.09
7880.00,1.09
7879.00,1.09
7878.00,1.09
7877.00,1.09
7876.00,1.09
7875.00,1.10
7874.00,1.10
7873.00,1.10
7872.00,1.10
7871.00,1.10
7870.00,1.10
7869.00,1.10
7868.00,1.10
7867.00,1.10
7866.00,1.10
7865.00,1.10
7864.00,1.10
7863.00,1.10
7862.00,1.10
7861.00,1.10
7860.00,1.10
7859.00,1.10
7858.00,1.10
7857.00,1.10
7856.00,1.10
7855.00,1.10
7854.00,1.10
7853.00,1.10
7852.00,1.10
7851.00,1.10
7850.00,1.10
7849.00,1.10
7848.00,1.10
7847.00,1.11
7846.00,1.11
7845.00,1.11
7844.00,1.11
7843.00,1.11
7842.00,1.11
7841.00,1.11
7840.00,1.11
7839.00,1.11
7838.00,1.11
7837.00,1.11
7836.00,1.11
7835.00,1.11
7834.00,1.11
7833.00,1.11
7832.00,1.11
7831.00,1.11
7830.00,1.11
7829.00,1.11
7828.00,1.11
7827.00,1.11
7826.00,1.11
7825.00,1.11
7824.00,1.11
7823.00,1.11
7822.00,1.11
7821.00,1.11
7820.00,1.11
7819.00,1.11
7818.00,1.11
7817.00,1.11
7816.00,1.11
7815.00,1.11
7814.00,1.11
7813.00,1.11
7812.00,1.11
7811.00,1.11
7810.00,1.11
7809.00,1.11
7808.00,1.11
7807.00,1.11
7806.00,1.11
7805.00,1.11
7804.00,1.11
7803.00,1.11
7802.00,1.11
7801.00,1.11
7800.00,1.11
7799.00,1.11
7798.00,1.11
7797.00,1.11
7796.00,1.11
7795.00,1.11
7794.00,1.11
7793.00,1.11
7792.00,1.11
7791.00,1.11
7790.00,1.11
7789.00,1.11
7788.00,1.11
7787.00,1.11
7786.00,1.11
7785.00,1.11
7784.00,1.11
7783.00,1.11
7782.00,1.11
7781.00,1.11
7780.00,1.11
7779.00,1.11
7778.00,1.12
7777.00,1.12
7776.00,1.12
7775.00,1.12
7774.00,1.12
7773.00,1.12
7772.00,1.12
7771.00,1.12
7770.00,1.12
7769.00,1.12
7768.00,1.12
7767.00,1.12
7766.00,1.12
7765.00,1.12
7764.00,1.12
7763.00,1.12
7762.00,1.12
7761.00,1.12
7760.00,1.12
7759.00,1.12
7758.00,1.12
7757.00,1.12
7756.00,1.12
7755.00,1.12
7754.00,1.12
7753.00,1.11
7752.00,1.11
7751.00,1.11
7750.00,1.11
7749.00,1.11
7748.00,1.11
7747.00,1.11
7746.00,1.11
7745.00,1.11
7744.00,1.11
7743.00,1.11
7742.00,1.11
7741.00,1.11
7740.00,1.11
7739.00,1.11
7738.00,1.11
7737.00,1.11
7736.00,1.11
7735.00,1.11
7734.00,1.11
7733.00,1.11
7732.00,1.11
7731.00,1.11
7730.00,1.11
7729.00,1.11
7728.00,1.11
7727.00,1.11
7726.00,1.11
7725.00,1.11
7724.00,1.11
7723.00,1.11
7722.00,1.11
7721.00,1.11
7720.00,1.11
7719.00,1.11
7718.00,1.11
7717.00,1.11
7716.00,1.11
7715.00,1.11
7714.00,1.11
7713.00,1.11
7712.00,1.11
7711.00,1.11
7710.00,1.11
7709.00,1.11
7708.00,1.11
7707.00,1.11
7706.00,1.11
7705.00,1.11
7704.00,1.11
7703.00,1.11
7702.00,1.11
7701.00,1.11
7700.00,1.11
7699.00,1.11
7698.00,1.11
7697.00,1.11
7696.00,1.11
7695.00,1.11
7694.00,1.11
7693.00,1.11
7692.00,1.11
7691.00,1.11
7690.00,1.11
7689.00,1.11
7688.00,1.11
7687.00,1.11
7686.00,1.11
7685.00,1.11
7684.00,1.11
7683.00,1.11
7682.00,1.11
7681.00,1.11
7680.00,1.11
7679.00,1.11
7678.00,1.11
7677.00,1.11
7676.00,1.11
7675.00,1.11
7674.00,1.11
7673.00,1.11
7672.00,1.11
7671.00,1.11
7670.00,1.11
7669.00,1.11
7668.00,1.11
7667.00,1.11
7666.00,1.11
7665.00,1.11
7664.00,1.11
7663.00,1.11
7662.00,1.11
7661.00,1.12
7660.00,1.12
7659.00,1.12
7658.00,1.12
7657.00,1.12
7656.00,1.12
7655.00,1.12
7654.00,1.12
7653.00,1.12
7652.00,1.12
7651.00,1.12
7650.00,1.12
7649.00,1.12
7648.00,1.12
7647.00,1.12
7646.00,1.12
7645.00,1.12
7644.00,1.12
7643.00,1.12
7642.00,1.12
7641.00,1.12
7640.00,1.12
7639.00,1.12
7638.00,1.12
7637.00,1.12
7636.00,1.12
7635.00,1.12
7634.00,1.12
7633.00,1.11
7632.00,1.11
7631.00,1.11
7630.00,1.11
7629.00,1.11
7628.00,1.11
7627.00,1.11
7626.00,1.11
7625.00,1.11
7624.00,1.11
7623.00,1.11
7622.00,1.11
7621.00,1.11
7620.00,1.10
7619.00,1.10
7618.00,1.10
7617.00,1.10
7616.00,1.10
7615.00,1.10
7614.00,1.10
7613.00,1.10
7612.00,1.10
7611.00,1.11
7610.00,1.11
7609.00,1.11
7608.00,1.11
7607.00,1.11
7606.00,1.11
7605.00,1.11
7604.00,1.11
7603.00,1.11
7602.00,1.11
7601.00,1.11
7600.00,1.11
7599.00,1.11
7598.00,1.11
7597.00,1.11
7596.00,1.11
7595.00,1.11
7594.00,1.11
7593.00,1.11
7592.00,1.11
7591.00,1.11
7590.00,1.11
7589.00,1.11
7588.00,1.11
7587.00,1.11
7586.00,1.11
7585.00,1.11
7584.00,1.11
7583.00,1.11
7582.00,1.11
7581.00,1.11
7580.00,1.11
7579.00,1.11
7578.00,1.11
7577.00,1.11
7576.00,1.11
7575.00,1.11
7574.00,1.11
7573.00,1.11
7572.00,1.11
7571.00,1.11
7570.00,1.11
7569.00,1.11
7568.00,1.11
7567.00,1.11
7566.00,1.11
7565.00,1.11
7564.00,1.11
7563.00,1.11
7562.00,1.11
7561.00,1.11
7560.00,1.11
7559.00,1.11
7558.00,1.11
7557.00,1.11
7556.00,1.11
7555.00,1.11
7554.00,1.11
7553.00,1.11
7552.00,1.11
7551.00,1.11
7550.00,1.11
7549.00,1.11
7548.00,1.11
7547.00,1.11
7546.00,1.11
7545.00,1.11
7544.00,1.11
7543.00,1.11
7542.00,1.11
7541.00,1.11
7540.00,1.11
7539.00,1.11
7538.00,1.11
7537.00,1.11
7536.00,1.11
7535.00,1.11
7534.00,1.11
7533.00,1.11
7532.00,1.11
7531.00,1.11
7530.00,1.11
7529.00,1.10
7528.00,1.10
7527.00,1.10
7526.00,1.10
7525.00,1.10
7524.00,1.10
7523.00,1.10
7522.00,1.10
7521.00,1.10
7520.00,1.10
7519.00,1.10
7518.00,1.10
7517.00,1.10
7516.00,1.09
7515.00,1.09
7514.00,1.09
7513.00,1.09
7512.00,1.09
7511.00,1.09
7510.00,1.09
7509.00,1.09
7508.00,1.09
7507.00,1.09
7506.00,1.09
7505.00,1.09
7504.00,1.09
7503.00,1.09
7502.00,1.09
7501.00,1.09
7500.00,1.09
7499.00,1.09
7498.00,1.09
7497.00,1.09
7496.00,1.09
7495.00,1.09
7494.00,1.09
7493.00,1.09
7492.00,1.09
7491.00,1.09
7490.00,1.09
7489.00,1.09
7488.00,1.09
7487.00,1.09
7486.00,1.09
7485.00,1.09
7484.00,1.09
7483.00,1.09
7482.00,1.09
7481.00,1.09
7480.00,1.08
7479.00,1.08
7478.00,1.08
7477.00,1.08
7476.00,1.08
7475.00,1.08
7474.00,1.08
7473.00,1.08
7472.00,1.08
7471.00,1.08
7470.00,1.07
7469.00,1.07
7468.00,1.07
7467.00,1.07
7466.00,1.07
7465.00,1.07
7464.00,1.07
7463.00,1.07
7462.00,1.07
7461.00,1.07
7460.00,1.07
7459.00,1.07
7458.00,1.07
7457.00,1.07
7456.00,1.07
7455.00,1.07
7454.00,1.07
7453.00,1.07
7452.00,1.07
7451.00,1.07
7450.00,1.07
7449.00,1.07
7448.00,1.07
7447.00,1.07
7446.00,1.07
7445.00,1.07
7444.00,1.07
7443.00,1.07
7442.00,1.07
7441.00,1.07
7440.00,1.07
7439.00,1.07
7438.00,1.07
7437.00,1.07
7436.00,1.07
7435.00,1.07
7434.00,1.06
7433.00,1.06
7432.00,1.06
7431.00,1.06
7430.00,1.06
7429.00,1.06
7428.00,1.06
7427.00,1.06
7426.00,1.06
7425.00,1.06
7424.00,1.06
7423.00,1.06
7422.00,1.06
7421.00,1.06
7420.00,1.06
7419.00,1.06
7418.00,1.05
7417.00,1.05
7416.00,1.05
7415.00,1.05
7414.00,1.05
7413.00,1.05
7412.00,1.05
7411.00,1.05
7410.00,1.05
7409.00,1.05
7408.00,1.04
7407.00,1.04
7406.00,1.04
7405.00,1.04
7404.00,1.04
7403.00,1.04
7402.00,1.03
7401.00,1.03
7400.00,1.03
7399.00,1.03
7398.00,1.03
7397.00,1.03
7396.00,1.03
7395.00,1.02
7394.00,1.02
7393.00,1.02
7392.00,1.02
7391.00,1.02
7390.00,1.02
7389.00,1.02
7388.00,1.02
7387.00,1.02
7386.00,1.02
7385.00,1.02
7384.00,1.02
7383.00,1.02
7382.00,1.02
7381.00,1.02
7380.00,1.02
7379.00,1.02
7378.00,1.02
7377.00,1.02
7376.00,1.02
7375.00,1.02
7374.00,1.02
7373.00,1.02
7372.00,1.02
7371.00,1.02
7370.00,1.02
7369.00,1.02
7368.00,1.02
7367.00,1.02
7366.00,1.02
7365.00,1.02
7364.00,1.02
7363.00,1.02
7362.00,1.02
7361.00,1.02
7360.00,1.02
7359.00,1.01
7358.00,1.01
7357.00,1.01
7356.00,1.01
7355.00,1.01
7354.00,1.01
7353.00,1.01
7352.00,1.01
7351.00,1.01
7350.00,1.01
7349.00,1.01
7348.00,1.01
7347.00,1.02
7346.00,1.02
7345.00,1.02
7344.00,1.02
7343.00,1.01
7342.00,1.01
7341.00,1.01
7340.00,1.01
7339.00,1.01
7338.00,1.01
7337.00,1.01
7336.00,1.01
7335.00,1.01
7334.00,1.01
7333.00,1.01
7332.00,1.01
7331.00,1.01
7330.00,1.01
7329.00,1.01
7328.00,1.01
7327.00,1.01
7326.00,1.01
7325.00,1.01
7324.00,1.01
7323.00,1.01
7322.00,1.01
7321.00,1.01
7320.00,1.01
7319.00,1.01
7318.00,1.01
7317.00,1.01
7316.00,1.01
7315.00,1.01
7314.00,1.00
7313.00,1.00
7312.00,1.00
7311.00,1.00
7310.00,1.00
7309.00,1.00
7308.00,0.99
7307.00,0.99
7306.00,0.99
7305.00,0.99
7304.00,0.99
7303.00,0.98
7302.00,0.98
7301.00,0.98
7300.00,0.98
7299.00,0.98
7298.00,0.98
7297.00,0.98
7296.00,0.98
7295.00,0.98
7294.00,0.98
7293.00,0.98
7292.00,0.97
7291.00,0.97
7290.00,0.97
7289.00,0.97
7288.00,0.97
7287.00,0.97
7286.00,0.97
7285.00,0.97
7284.00,0.97
7283.00,0.97
7282.00,0.97
7281.00,0.97
7280.00,0.97
7279.00,0.97
7278.00,0.97
7277.00,0.97
7276.00,0.97
7275.00,0.96
7274.00,0.96
7273.00,0.96
7272.00,0.96
7271.00,0.96
7270.00,0.96
7269.00,0.96
7268.00,0.95
7267.00,0.95
7266.00,0.95
7265.00,0.95
7264.00,0.95
7263.00,0.95
7262.00,0.95
7261.00,0.95
7260.00,0.95
7259.00,0.94
7258.00,0.94
7257.00,0.94
7256.00,0.94
7255.00,0.94
7254.00,0.94
7253.00,0.94
7252.00,0.93
7251.00,0.93
7250.00,0.93
7249.00,0.93
7248.00,0.93
7247.00,0.92
7246.00,0.92
7245.00,0.92
7244.00,0.92
7243.00,0.91
7242.00,0.91
7241.00,0.91
7240.00,0.91
7239.00,0.90
7238.00,0.90
7237.00,0.90
7236.00,0.90
7235.00,0.89
7234.00,0.89
7233.00,0.89
7232.00,0.89
7231.00,0.89
7230.00,0.88
7229.00,0.88
7228.00,0.88
7227.00,0.88
7226.00,0.87
7225.00,0.87
7224.00,0.87
7223.00,0.87
7222.00,0.86
7221.00,0.86
7220.00,0.86
7219.00,0.86
7218.00,0.85
7217.00,0.85
7216.00,0.85
7215.00,0.85
7214.00,0.84
7213.00,0.84
7212.00,0.84
7211.00,0.83
7210.00,0.83
7209.00,0.83
7208.00,0.83
7207.00,0.82
7206.00,0.82
7205.00,0.82
7204.00,0.82
7203.00,0.81
7202.00,0.81
7201.00,0.81
7200.00,0.81
7199.00,0.80
7198.00,0.80
7197.00,0.80
7196.00,0.80
7195.00,0.79
7194.00,0.79
7193.00,0.79
7192.00,0.78
7191.00,0.78
7190.00,0.78
7189.00,0.78
7188.00,0.77
7187.00,0.77
7186.00,0.77
7185.00,0.76
7184.00,0.76
7183.00,0.76
7182.00,0.76
7181.00,0.75
7180.00,0.75
7179.00,0.75
7178.00,0.75
7177.00,0.75
7176.00,0.75
7175.00,0.74
7174.00,0.74
7173.00,0.74
7172.00,0.74
7171.00,0.74
7170.00,0.74
7169.00,0.73
7168.00,0.73
7167.00,0.73
7166.00,0.73
7165.00,0.73
7164.00,0.72
7163.00,0.72
7162.00,0.72
7161.00,0.72
7160.00,0.72
7159.00,0.71
7158.00,0.71
7157.00,0.71
7156.00,0.71
7155.00,0.70
7154.00,0.70
7153.00,0.70
7152.00,0.70
7151.00,0.69
7150.00,0.69
7149.00,0.69
7148.00,0.69
7147.00,0.68
7146.00,0.68
7145.00,0.68
7144.00,0.68
7143.00,0.67
7142.00,0.67
7141.00,0.67
7140.00,0.67
7139.00,0.66
7138.00,0.66
7137.00,0.66
7136.00,0.66
7135.00,0.65
7134.00,0.65
7133.00,0.65
7132.00,0.65
7131.00,0.65
7130.00,0.64
7129.00,0.64
7128.00,0.64
7127.00,0.64
7126.00,0.64
7125.00,0.63
7124.00,0.63
7123.00,0.63
7122.00,0.63
7121.00,0.62
7120.00,0.62
7119.00,0.62
7118.00,0.62
7117.00,0.61
7116.00,0.61
7115.00,0.61
7114.00,0.61
7113.00,0.61
7112.00,0.60
7111.00,0.60
7110.00,0.60
7109.00,0.60
7108.00,0.60
7107.00,0.60
7106.00,0.59
7105.00,0.59
7104.00,0.59
7103.00,0.59
7102.00,0.59
7101.00,0.59
7100.00,0.59
7099.00,0.59
7098.00,0.58
7097.00,0.58
7096.00,0.58
7095.00,0.58
7094.00,0.58
7093.00,0.58
7092.00,0.57
7091.00,0.57
7090.00,0.57
7089.00,0.57
7088.00,0.57
7087.00,0.57
7086.00,0.57
7085.00,0.57
7084.00,0.57
7083.00,0.56
7082.00,0.56
7081.00,0.56
7080.00,0.56
7079.00,0.56
7078.00,0.56
7077.00,0.56
7076.00,0.56
7075.00,0.56
7074.00,0.55
7073.00,0.55
7072.00,0.55
7071.00,0.55
7070.00,0.55
7069.00,0.55
7068.00,0.55
7067.00,0.54
7066.00,0.54
7065.00,0.54
7064.00,0.54
7063.00,0.54
7062.00,0.54
7061.00,0.54
7060.00,0.54
7059.00,0.54
7058.00,0.54
7057.00,0.54
7056.00,0.54
7055.00,0.54
7054.00,0.54
7053.00,0.53
7052.00,0.53
7051.00,0.53
7050.00,0.53
7049.00,0.53
7048.00,0.53
7047.00,0.53
7046.00,0.53
7045.00,0.53
7044.00,0.53
7043.00,0.53
7042.00,0.53
7041.00,0.53
7040.00,0.53
7039.00,0.53
7038.00,0.53
7037.00,0.52
7036.00,0.52
7035.00,0.52
7034.00,0.52
7033.00,0.52
7032.00,0.52
7031.00,0.52
7030.00,0.51
7029.00,0.51
7028.00,0.51
7027.00,0.51
7026.00,0.51
7025.00,0.51
7024.00,0.51
7023.00,0.51
7022.00,0.50
7021.00,0.50
7020.00,0.50
7019.00,0.50
7018.00,0.50
7017.00,0.50
7016.00,0.50
7015.00,0.50
7014.00,0.50
7013.00,0.50
7012.00,0.50
7011.00,0.50
7010.00,0.50
7009.00,0.50
7008.00,0.50
7007.00,0.50
7006.00,0.50
7005.00,0.50
7004.00,0.50
7003.00,0.50
7002.00,0.50
7001.00,0.50
7000.00,0.50
6999.00,0.50
6998.00,0.50
6997.00,0.50
6996.00,0.50
6995.00,0.50
6994.00,0.50
6993.00,0.50
6992.00,0.50
6991.00,0.50
6990.00,0.50
6989.00,0.50
6988.00,0.50
6987.00,0.50
6986.00,0.50
6985.00,0.50
6984.00,0.50
6983.00,0.50
6982.00,0.50
6981.00,0.50
6980.00,0.50
6979.00,0.49
6978.00,0.49
6977.00,0.49
6976.00,0.49
6975.00,0.49
6974.00,0.49
6973.00,0.49
6972.00,0.49
6971.00,0.49
6970.00,0.49
6969.00,0.49
6968.00,0.49
6967.00,0.49
6966.00,0.49
6965.00,0.49
6964.00,0.49
6963.00,0.49
6962.00,0.49
6961.00,0.48
6960.00,0.48
6959.00,0.48
6958.00,0.48
6957.00,0.49
6956.00,0.49
6955.00,0.49
6954.00,0.49
6953.00,0.49
6952.00,0.49
6951.00,0.49
6950.00,0.49
6949.00,0.49
6948.00,0.49
6947.00,0.49
6946.00,0.49
6945.00,0.49
6944.00,0.49
6943.00,0.49
6942.00,0.49
6941.00,0.49
6940.00,0.49
6939.00,0.49
6938.00,0.49
6937.00,0.49
6936.00,0.49
6935.00,0.49
6934.00,0.49
6933.00,0.49
6932.00,0.49
6931.00,0.49
6930.00,0.49
6929.00,0.49
6928.00,0.49
6927.00,0.48
6926.00,0.48
6925.00,0.48
6924.00,0.48
6923.00,0.48
6922.00,0.48
6921.00,0.48
6920.00,0.48
6919.00,0.48
6918.00,0.48
6917.00,0.48
6916.00,0.48
6915.00,0.48
6914.00,0.48
6913.00,0.48
6912.00,0.48
6911.00,0.48
6910.00,0.48
6909.00,0.48
6908.00,0.48
6907.00,0.48
6906.00,0.48
6905.00,0.48
6904.00,0.48
6903.00,0.48
6902.00,0.48
6901.00,0.48
6900.00,0.48
6899.00,0.48
6898.00,0.48
6897.00,0.48
6896.00,0.48
6895.00,0.48
6894.00,0.48
6893.00,0.48
6892.00,0.48
6891.00,0.48
6890.00,0.48
6889.00,0.48
6888.00,0.48
6887.00,0.48
6886.00,0.48
6885.00,0.48
6884.00,0.48
6883.00,0.48
6882.00,0.48
6881.00,0.48
6880.00,0.49
6879.00,0.49
6878.00,0.49
6877.00,0.49
6876.00,0.49
6875.00,0.49
6874.00,0.49
6873.00,0.49
6872.00,0.49
6871.00,0.49
6870.00,0.49
6869.00,0.49
6868.00,0.49
6867.00,0.49
6866.00,0.49
6865.00,0.49
6864.00,0.49
6863.00,0.48
6862.00,0.48
6861.00,0.48
6860.00,0.48
6859.00,0.48
6858.00,0.48
6857.00,0.48
6856.00,0.48
6855.00,0.48
6854.00,0.48
6853.00,0.48
6852.00,0.48
6851.00,0.48
6850.00,0.48
6849.00,0.48
6848.00,0.48
6847.00,0.48
6846.00,0.48
6845.00,0.48
6844.00,0.48
6843.00,0.48
6842.00,0.48
6841.00,0.48
6840.00,0.48
6839.00,0.48
6838.00,0.48
6837.00,0.48
6836.00,0.48
6835.00,0.48
6834.00,0.48
6833.00,0.48
6832.00,0.48
6831.00,0.48
6830.00,0.49
6829.00,0.49
6828.00,0.49
6827.00,0.49
6826.00,0.49
6825.00,0.49
6824.00,0.49
6823.00,0.49
6822.00,0.49
6821.00,0.49
6820.00,0.49
6819.00,0.49
6818.00,0.49
6817.00,0.49
6816.00,0.49
6815.00,0.49
6814.00,0.49
6813.00,0.49
6812.00,0.49
6811.00,0.49
6810.00,0.49
6809.00,0.49
6808.00,0.49
6807.00,0.49
6806.00,0.49
6805.00,0.49
6804.00,0.49
6803.00,0.49
6802.00,0.49
6801.00,0.49
6800.00,0.49
6799.00,0.49
6798.00,0.49
6797.00,0.49
6796.00,0.49
6795.00,0.49
6794.00,0.49
6793.00,0.49
6792.00,0.49
6791.00,0.49
6790.00,0.49
6789.00,0.49
6788.00,0.49
6787.00,0.49
6786.00,0.49
6785.00,0.49
6784.00,0.49
6783.00,0.50
6782.00,0.50
6781.00,0.50
6780.00,0.50
6779.00,0.50
6778.00,0.50
6777.00,0.50
6776.00,0.50
6775.00,0.50
6774.00,0.50
6773.00,0.50
6772.00,0.50
6771.00,0.50
6770.00,0.50
6769.00,0.50
6768.00,0.50
6767.00,0.50
6766.00,0.51
6765.00,0.51
6764.00,0.51
6763.00,0.51
6762.00,0.51
6761.00,0.51
6760.00,0.51
6759.00,0.51
6758.00,0.51
6757.00,0.51
6756.00,0.51
6755.00,0.51
6754.00,0.51
6753.00,0.51
6752.00,0.51
6751.00,0.51
6750.00,0.51
6749.00,0.51
6748.00,0.51
6747.00,0.51
6746.00,0.51
6745.00,0.51
6744.00,0.51
6743.00,0.51
6742.00,0.52
6741.00,0.52
6740.00,0.52
6739.00,0.52
6738.00,0.52
6737.00,0.52
6736.00,0.52
6735.00,0.52
6734.00,0.52
6733.00,0.52
6732.00,0.52
6731.00,0.52
6730.00,0.53
6729.00,0.53
6728.00,0.53
6727.00,0.53
6726.00,0.53
6725.00,0.53
6724.00,0.53
6723.00,0.53
6722.00,0.53
6721.00,0.53
6720.00,0.53
6719.00,0.53
6718.00,0.53
6717.00,0.53
6716.00,0.53
6715.00,0.53
6714.00,0.53
6713.00,0.53
6712.00,0.53
6711.00,0.53
6710.00,0.53
6709.00,0.53
6708.00,0.53
6707.00,0.53
6706.00,0.53
6705.00,0.54
6704.00,0.54
6703.00,0.54
6702.00,0.54
6701.00,0.54
6700.00,0.54
6699.00,0.54
6698.00,0.54
6697.00,0.54
6696.00,0.54
6695.00,0.54
6694.00,0.54
6693.00,0.54
6692.00,0.54
6691.00,0.54
6690.00,0.54
6689.00,0.54
6688.00,0.54
6687.00,0.54
6686.00,0.54
6685.00,0.54
6684.00,0.55
6683.00,0.55
6682.00,0.55
6681.00,0.55
6680.00,0.55
6679.00,0.55
6678.00,0.55
6677.00,0.55
6676.00,0.55
6675.00,0.55
6674.00,0.56
6673.00,0.56
6672.00,0.56
6671.00,0.56
6670.00,0.56
6669.00,0.56
6668.00,0.56
6667.00,0.57
6666.00,0.57
6665.00,0.57
6664.00,0.57
6663.00,0.57
6662.00,0.57
6661.00,0.57
6660.00,0.57
6659.00,0.57
6658.00,0.57
6657.00,0.57
6656.00,0.57
6655.00,0.57
6654.00,0.57
6653.00,0.57
6652.00,0.57
6651.00,0.57
6650.00,0.57
6649.00,0.57
6648.00,0.57
6647.00,0.57
6646.00,0.57
6645.00,0.57
6644.00,0.57
6643.00,0.57
6642.00,0.57
6641.00,0.57
6640.00,0.57
6639.00,0.57
6638.00,0.57
6637.00,0.57
6636.00,0.58
6635.00,0.58
6634.00,0.58
6633.00,0.58
6632.00,0.58
6631.00,0.58
6630.00,0.58
6629.00,0.58
6628.00,0.58
6627.00,0.58
6626.00,0.58
6625.00,0.58
6624.00,0.58
6623.00,0.59
6622.00,0.59
6621.00,0.59
6620.00,0.59
6619.00,0.59
6618.00,0.59
6617.00,0.59
6616.00,0.59
6615.00,0.59
6614.00,0.60
6613.00,0.60
6612.00,0.60
6611.00,0.60
6610.00,0.60
6609.00,0.60
6608.00,0.60
6607.00,0.60
6606.00,0.60
6605.00,0.60
6604.00,0.60
6603.00,0.60
6602.00,0.60
6601.00,0.61
6600.00,0.61
6599.00,0.61
6598.00,0.61
6597.00,0.61
6596.00,0.61
6595.00,0.61
6594.00,0.61
6593.00,0.61
6592.00,0.61
6591.00,0.61
6590.00,0.61
6589.00,0.61
6588.00,0.61
6587.00,0.61
6586.00,0.61
6585.00,0.61
6584.00,0.61
6583.00,0.61
6582.00,0.61
6581.00,0.61
6580.00,0.61
6579.00,0.61
6578.00,0.61
6577.00,0.61
6576.00,0.62
6575.00,0.62
6574.00,0.62
6573.00,0.62
6572.00,0.62
6571.00,0.62
6570.00,0.62
6569.00,0.62
6568.00,0.63
6567.00,0.63
6566.00,0.63
6565.00,0.63
6564.00,0.63
6563.00,0.63
6562.00,0.63
6561.00,0.63
6560.00,0.63
6559.00,0.63
6558.00,0.64
6557.00,0.64
6556.00,0.64
6555.00,0.64
6554.00,0.64
6553.00,0.64
6552.00,0.64
6551.00,0.64
6550.00,0.64
6549.00,0.64
6548.00,0.64
6547.00,0.64
6546.00,0.64
6545.00,0.64
6544.00,0.64
6543.00,0.65
6542.00,0.65
6541.00,0.65
6540.00,0.65
6539.00,0.65
6538.00,0.65
6537.00,0.65
6536.00,0.65
6535.00,0.65
6534.00,0.65
6533.00,0.65
6532.00,0.65
6531.00,0.65
6530.00,0.65
6529.00,0.66
6528.00,0.66
6527.00,0.66
6526.00,0.66
6525.00,0.66
6524.00,0.66
6523.00,0.66
6522.00,0.66
6521.00,0.66
6520.00,0.66
6519.00,0.66
6518.00,0.66
6517.00,0.66
6516.00,0.66
6515.00,0.66
6514.00,0.66
6513.00,0.66
6512.00,0.66
6511.00,0.66
6510.00,0.66
6509.00,0.66
6508.00,0.67
6507.00,0.67
6506.00,0.67
6505.00,0.67
6504.00,0.67
6503.00,0.67
6502.00,0.67
6501.00,0.67
6500.00,0.67
6499.00,0.67
6498.00,0.68
6497.00,0.68
6496.00,0.68
6495.00,0.68
6494.00,0.68
6493.00,0.68
6492.00,0.68
6491.00,0.68
6490.00,0.68
6489.00,0.68
6488.00,0.68
6487.00,0.68
6486.00,0.68
6485.00,0.68
6484.00,0.68
6483.00,0.68
6482.00,0.68
6481.00,0.68
6480.00,0.68
6479.00,0.68
6478.00,0.68
6477.00,0.68
6476.00,0.68
6475.00,0.68
6474.00,0.68
6473.00,0.69
6472.00,0.69
6471.00,0.69
6470.00,0.69
6469.00,0.69
6468.00,0.69
6467.00,0.69
6466.00,0.69
6465.00,0.69
6464.00,0.69
6463.00,0.69
6462.00,0.69
6461.00,0.69
6460.00,0.69
6459.00,0.69
6458.00,0.69
6457.00,0.69
6456.00,0.69
6455.00,0.69
6454.00,0.69
6453.00,0.69
6452.00,0.69
6451.00,0.69
6450.00,0.69
6449.00,0.69
6448.00,0.70
6447.00,0.70
6446.00,0.70
6445.00,0.70
6444.00,0.70
6443.00,0.70
6442.00,0.70
6441.00,0.70
6440.00,0.70
6439.00,0.70
6438.00,0.70
6437.00,0.70
6436.00,0.70
6435.00,0.70
6434.00,0.70
6433.00,0.70
6432.00,0.70
6431.00,0.70
6430.00,0.70
6429.00,0.70
6428.00,0.70
6427.00,0.70
6426.00,0.70
6425.00,0.70
6424.00,0.70
6423.00,0.70
6422.00,0.70
6421.00,0.70
6420.00,0.71
6419.00,0.71
6418.00,0.71
6417.00,0.71
6416.00,0.71
6415.00,0.71
6414.00,0.71
6413.00,0.71
6412.00,0.71
6411.00,0.71
6410.00,0.71
6409.00,0.71
6408.00,0.71
6407.00,0.71
6406.00,0.71
6405.00,0.71
6404.00,0.71
6403.00,0.71
6402.00,0.71
6401.00,0.71
6400.00,0.71
6399.00,0.71
6398.00,0.71
6397.00,0.71
6396.00,0.71
6395.00,0.71
6394.00,0.71
6393.00,0.71
6392.00,0.71
6391.00,0.71
6390.00,0.71
6389.00,0.72
6388.00,0.72
6387.00,0.72
6386.00,0.72
6385.00,0.72
6384.00,0.72
6383.00,0.72
6382.00,0.72
6381.00,0.72
6380.00,0.72
6379.00,0.72
6378.00,0.72
6377.00,0.72
6376.00,0.72
6375.00,0.72
6374.00,0.72
6373.00,0.72
6372.00,0.73
6371.00,0.73
6370.00,0.73
6369.00,0.73
6368.00,0.73
6367.00,0.73
6366.00,0.73
6365.00,0.73
6364.00,0.73
6363.00,0.73
6362.00,0.73
6361.00,0.73
6360.00,0.73
6359.00,0.73
6358.00,0.73
6357.00,0.73
6356.00,0.73
6355.00,0.73
6354.00,0.73
6353.00,0.73
6352.00,0.73
6351.00,0.73
6350.00,0.73
6349.00,0.74
6348.00,0.74
6347.00,0.74
6346.00,0.74
6345.00,0.74
6344.00,0.74
6343.00,0.74
6342.00,0.74
6341.00,0.74
6340.00,0.74
6339.00,0.74
6338.00,0.74
6337.00,0.74
6336.00,0.74
6335.00,0.75
6334.00,0.75
6333.00,0.75
6332.00,0.75
6331.00,0.75
6330.00,0.75
6329.00,0.75
6328.00,0.75
6327.00,0.75
6326.00,0.75
6325.00,0.75
6324.00,0.75
6323.00,0.75
6322.00,0.75
6321.00,0.76
6320.00,0.76
6319.00,0.76
6318.00,0.76
6317.00,0.76
6316.00,0.76
6315.00,0.76
6314.00,0.76
6313.00,0.76
6312.00,0.76
6311.00,0.77
6310.00,0.77
6309.00,0.77
6308.00,0.77
6307.00,0.77
6306.00,0.77
6305.00,0.77
6304.00,0.77
6303.00,0.77
6302.00,0.77
6301.00,0.78
6300.00,0.78
6299.00,0.78
6298.00,0.78
6297.00,0.78
6296.00,0.78
6295.00,0.78
6294.00,0.79
6293.00,0.79
6292.00,0.79
6291.00,0.79
6290.00,0.79
6289.00,0.79
6288.00,0.79
6287.00,0.79
6286.00,0.79
6285.00,0.79
6284.00,0.80
6283.00,0.80
6282.00,0.80
6281.00,0.80
6280.00,0.80
6279.00,0.80
6278.00,0.80
6277.00,0.80
6276.00,0.80
6275.00,0.80
6274.00,0.80
6273.00,0.80
6272.00,0.80
6271.00,0.80
6270.00,0.80
6269.00,0.81
6268.00,0.81
6267.00,0.81
6266.00,0.81
6265.00,0.81
6264.00,0.81
6263.00,0.81
6262.00,0.81
6261.00,0.81
6260.00,0.81
6259.00,0.81
6258.00,0.81
6257.00,0.82
6256.00,0.82
6255.00,0.82
6254.00,0.82
6253.00,0.82
6252.00,0.82
6251.00,0.82
6250.00,0.82
6249.00,0.82
6248.00,0.82
6247.00,0.82
6246.00,0.82
6245.00,0.83
6244.00,0.83
6243.00,0.83
6242.00,0.83
6241.00,0.83
6240.00,0.83
6239.00,0.83
6238.00,0.83
6237.00,0.84
6236.00,0.84
6235.00,0.84
6234.00,0.84
6233.00,0.84
6232.00,0.84
6231.00,0.84
6230.00,0.84
6229.00,0.85
6228.00,0.85
6227.00,0.85
6226.00,0.85
6225.00,0.85
6224.00,0.85
6223.00,0.85
6222.00,0.85
6221.00,0.85
6220.00,0.85
6219.00,0.85
6218.00,0.85
6217.00,0.85
6216.00,0.85
6215.00,0.86
6214.00,0.86
6213.00,0.86
6212.00,0.86
6211.00,0.86
6210.00,0.86
6209.00,0.86
6208.00,0.86
6207.00,0.86
6206.00,0.86
6205.00,0.86
6204.00,0.86
6203.00,0.87
6202.00,0.87
6201.00,0.87
6200.00,0.87
6199.00,0.87
6198.00,0.87
6197.00,0.87
6196.00,0.87
6195.00,0.87
6194.00,0.87
6193.00,0.87
6192.00,0.87
6191.00,0.88
6190.00,0.88
6189.00,0.88
6188.00,0.88
6187.00,0.88
6186.00,0.88
6185.00,0.88
6184.00,0.88
6183.00,0.89
6182.00,0.89
6181.00,0.89
6180.00,0.89
6179.00,0.89
6178.00,0.89
6177.00,0.89
6176.00,0.90
6175.00,0.90
6174.00,0.90
6173.00,0.90
6172.00,0.90
6171.00,0.90
6170.00,0.90
6169.00,0.91
6168.00,0.91
6167.00,0.91
6166.00,0.91
6165.00,0.91
6164.00,0.91
6163.00,0.91
6162.00,0.91
6161.00,0.91
6160.00,0.91
6159.00,0.91
6158.00,0.92
6157.00,0.92
6156.00,0.92
6155.00,0.92
6154.00,0.92
6153.00,0.92
6152.00,0.92
6151.00,0.92
6150.00,0.93
6149.00,0.93
6148.00,0.93
6147.00,0.93
6146.00,0.93
6145.00,0.93
6144.00,0.93
6143.00,0.93
6142.00,0.93
6141.00,0.94
6140.00,0.94
6139.00,0.94
6138.00,0.94
6137.00,0.94
6136.00,0.94
6135.00,0.94
6134.00,0.95
6133.00,0.95
6132.00,0.95
6131.00,0.95
6130.00,0.95
6129.00,0.95
6128.00,0.96
6127.00,0.96
6126.00,0.96
6125.00,0.96
6124.00,0.96
6123.00,0.96
6122.00,0.96
6121.00,0.96
6120.00,0.97
6119.00,0.97
6118.00,0.97
6117.00,0.97
6116.00,0.97
6115.00,0.97
6114.00,0.97
6113.00,0.97
6112.00,0.98
6111.00,0.98
6110.00,0.98
6109.00,0.98
6108.00,0.98
6107.00,0.98
6106.00,0.98
6105.00,0.98
6104.00,0.98
6103.00,0.98
6102.00,0.99
6101.00,0.99
6100.00,0.99
6099.00,0.99
6098.00,0.99
6097.00,0.99
6096.00,0.99
6095.00,0.99
6094.00,0.99
6093.00,0.99
6092.00,0.99
6091.00,0.99
6090.00,1.00
6089.00,1.00
6088.00,1.00
6087.00,1.00
6086.00,1.00
6085.00,1.00
6084.00,1.00
6083.00,1.00
6082.00,1.00
6081.00,1.01
6080.00,1.01
6079.00,1.01
6078.00,1.01
6077.00,1.01
6076.00,1.01
6075.00,1.01
6074.00,1.01
6073.00,1.01
6072.00,1.01
6071.00,1.01
6070.00,1.01
6069.00,1.01
6068.00,1.02
6067.00,1.02
6066.00,1.02
6065.00,1.02
6064.00,1.02
6063.00,1.02
6062.00,1.02
6061.00,1.02
6060.00,1.02
6059.00,1.02
6058.00,1.02
6057.00,1.03
6056.00,1.03
6055.00,1.03
6054.00,1.03
6053.00,1.03
6052.00,1.03
6051.00,1.03
6050.00,1.03
6049.00,1.03
6048.00,1.03
6047.00,1.03
6046.00,1.04
6045.00,1.04
6044.00,1.04
6043.00,1.04
6042.00,1.04
6041.00,1.04
6040.00,1.04
6039.00,1.04
6038.00,1.04
6037.00,1.04
6036.00,1.04
6035.00,1.04
6034.00,1.04
6033.00,1.04
6032.00,1.04
6031.00,1.04
6030.00,1.04
6029.00,1.04
6028.00,1.04
6027.00,1.04
6026.00,1.04
6025.00,1.04
6024.00,1.05
6023.00,1.05
6022.00,1.05
6021.00,1.05
6020.00,1.05
6019.00,1.05
6018.00,1.05
6017.00,1.05
6016.00,1.05
6015.00,1.05
6014.00,1.05
6013.00,1.05
6012.00,1.05
6011.00,1.05
6010.00,1.05
6009.00,1.05
6008.00,1.05
6007.00,1.05
6006.00,1.05
6005.00,1.05
6004.00,1.05
6003.00,1.05
6002.00,1.05
6001.00,1.05
6000.00,1.04
5999.00,1.04
5998.00,1.04
5997.00,1.04
5996.00,1.04
5995.00,1.04
5994.00,1.04
5993.00,1.04
5992.00,1.04
5991.00,1.04
5990.00,1.04
5989.00,1.03
5988.00,1.03
5987.00,1.03
5986.00,1.03
5985.00,1.03
5984.00,1.02
5983.00,1.02
5982.00,1.02
5981.00,1.02
5980.00,1.01
5979.00,1.01
5978.00,1.01
5977.00,1.00
5976.00,1.00
5975.00,1.00
5974.00,0.99
5973.00,0.99
5972.00,0.98
5971.00,0.98
5970.00,0.97
5969.00,0.97
5968.00,0.96
5967.00,0.96
5966.00,0.95
5965.00,0.95
5964.00,0.94
5963.00,0.93
5962.00,0.93
5961.00,0.92
5960.00,0.92
5959.00,0.91
5958.00,0.91
5957.00,0.90
5956.00,0.89
5955.00,0.89
5954.00,0.88
5953.00,0.88
5952.00,0.87
5951.00,0.87
5950.00,0.87
5949.00,0.86
5948.00,0.86
5947.00,0.85
5946.00,0.85
5945.00,0.85
5944.00,0.84
5943.00,0.84
5942.00,0.84
5941.00,0.84
5940.00,0.83
5939.00,0.83
5938.00,0.83
5937.00,0.83
5936.00,0.83
5935.00,0.83
5934.00,0.83
5933.00,0.83
5932.00,0.82
5931.00,0.82
5930.00,0.82
5929.00,0.82
5928.00,0.82
5927.00,0.82
5926.00,0.82
5925.00,0.82
5924.00,0.82
5923.00,0.82
5922.00,0.81
5921.00,0.81
5920.00,0.81
5919.00,0.81
5918.00,0.81
5917.00,0.80
5916.00,0.80
5915.00,0.80
5914.00,0.80
5913.00,0.80
5912.00,0.79
5911.00,0.79
5910.00,0.79
5909.00,0.79
5908.00,0.79
5907.00,0.79
5906.00,0.79
5905.00,0.79
5904.00,0.79
5903.00,0.79
5902.00,0.79
5901.00,0.79
5900.00,0.79
5899.00,0.79
5898.00,0.79
5897.00,0.79
5896.00,0.79
5895.00,0.79
5894.00,0.79
5893.00,0.79
5892.00,0.80
5891.00,0.80
5890.00,0.80
5889.00,0.80
5888.00,0.80
5887.00,0.81
5886.00,0.81
5885.00,0.81
5884.00,0.81
5883.00,0.82
5882.00,0.82
5881.00,0.82
5880.00,0.82
5879.00,0.83
5878.00,0.83
5877.00,0.83
5876.00,0.83
5875.00,0.83
5874.00,0.84
5873.00,0.84
5872.00,0.84
5871.00,0.84
5870.00,0.84
5869.00,0.84
5868.00,0.84
5867.00,0.84
5866.00,0.85
5865.00,0.85
5864.00,0.85
5863.00,0.85
5862.00,0.85
5861.00,0.85
5860.00,0.85
5859.00,0.85
5858.00,0.85
5857.00,0.86
5856.00,0.86
5855.00,0.86
5854.00,0.86
5853.00,0.86
5852.00,0.86
5851.00,0.86
5850.00,0.86
5849.00,0.86
5848.00,0.86
5847.00,0.86
5846.00,0.86
5845.00,0.86
5844.00,0.86
5843.00,0.86
5842.00,0.86
5841.00,0.86
5840.00,0.86
5839.00,0.86
5838.00,0.86
5837.00,0.86
5836.00,0.86
5835.00,0.86
5834.00,0.86
5833.00,0.86
5832.00,0.86
5831.00,0.86
5830.00,0.86
5829.00,0.86
5828.00,0.86
5827.00,0.86
5826.00,0.86
5825.00,0.86
5824.00,0.86
5823.00,0.86
5822.00,0.86
5821.00,0.86
5820.00,0.86
5819.00,0.86
5818.00,0.86
5817.00,0.86
5816.00,0.86
5815.00,0.86
5814.00,0.86
5813.00,0.86
5812.00,0.86
5811.00,0.86
5810.00,0.86
5809.00,0.86
5808.00,0.86
5807.00,0.86
5806.00,0.86
5805.00,0.86
5804.00,0.86
5803.00,0.86
5802.00,0.86
5801.00,0.86
5800.00,0.86
5799.00,0.86
5798.00,0.86
5797.00,0.86
5796.00,0.85
5795.00,0.85
5794.00,0.85
5793.00,0.85
5792.00,0.85
5791.00,0.85
5790.00,0.84
5789.00,0.84
5788.00,0.84
5787.00,0.84
5786.00,0.84
5785.00,0.84
5784.00,0.83
5783.00,0.83
5782.00,0.83
5781.00,0.83
5780.00,0.83
5779.00,0.83
5778.00,0.83
5777.00,0.83
5776.00,0.83
5775.00,0.83
5774.00,0.82
5773.00,0.82
5772.00,0.82
5771.00,0.83
5770.00,0.83
5769.00,0.83
5768.00,0.83
5767.00,0.83
5766.00,0.83
5765.00,0.83
5764.00,0.83
5763.00,0.83
5762.00,0.83
5761.00,0.84
5760.00,0.84
5759.00,0.84
5758.00,0.84
5757.00,0.85
5756.00,0.85
5755.00,0.85
5754.00,0.85
5753.00,0.86
5752.00,0.86
5751.00,0.86
5750.00,0.87
5749.00,0.87
5748.00,0.87
5747.00,0.88
5746.00,0.88
5745.00,0.88
5744.00,0.88
5743.00,0.89
5742.00,0.89
5741.00,0.89
5740.00,0.89
5739.00,0.90
5738.00,0.90
5737.00,0.90
5736.00,0.90
5735.00,0.90
5734.00,0.90
5733.00,0.91
5732.00,0.91
5731.00,0.91
5730.00,0.91
5729.00,0.91
5728.00,0.91
5727.00,0.91
5726.00,0.91
5725.00,0.91
5724.00,0.91
5723.00,0.91
5722.00,0.91
5721.00,0.91
5720.00,0.91
5719.00,0.91
5718.00,0.91
5717.00,0.91
5716.00,0.91
5715.00,0.91
5714.00,0.91
5713.00,0.91
5712.00,0.91
5711.00,0.91
5710.00,0.91
5709.00,0.91
5708.00,0.91
5707.00,0.91
5706.00,0.91
5705.00,0.91
5704.00,0.91
5703.00,0.91
5702.00,0.91
5701.00,0.91
5700.00,0.91
5699.00,0.91
5698.00,0.91
5697.00,0.90
5696.00,0.90
5695.00,0.90
5694.00,0.90
5693.00,0.90
5692.00,0.90
5691.00,0.90
5690.00,0.89
5689.00,0.89
5688.00,0.89
5687.00,0.89
5686.00,0.89
5685.00,0.89
5684.00,0.89
5683.00,0.89
5682.00,0.89
5681.00,0.89
5680.00,0.89
5679.00,0.88
5678.00,0.88
5677.00,0.88
5676.00,0.89
5675.00,0.89
5674.00,0.89
5673.00,0.89
5672.00,0.89
5671.00,0.89
5670.00,0.89
5669.00,0.89
5668.00,0.89
5667.00,0.89
5666.00,0.89
5665.00,0.89
5664.00,0.89
5663.00,0.89
5662.00,0.89
5661.00,0.90
5660.00,0.90
5659.00,0.90
5658.00,0.90
5657.00,0.90
5656.00,0.90
5655.00,0.90
5654.00,0.90
5653.00,0.91
5652.00,0.91
5651.00,0.91
5650.00,0.91
5649.00,0.91
5648.00,0.91
5647.00,0.91
5646.00,0.91
5645.00,0.92
5644.00,0.92
5643.00,0.92
5642.00,0.92
5641.00,0.92
5640.00,0.92
5639.00,0.92
5638.00,0.92
5637.00,0.93
5636.00,0.93
5635.00,0.93
5634.00,0.93
5633.00,0.93
5632.00,0.93
5631.00,0.93
5630.00,0.93
5629.00,0.94
5628.00,0.94
5627.00,0.94
5626.00,0.94
5625.00,0.94
5624.00,0.94
5623.00,0.94
5622.00,0.94
5621.00,0.95
5620.00,0.95
5619.00,0.95
5618.00,0.95
5617.00,0.95
5616.00,0.95
5615.00,0.95
5614.00,0.96
5613.00,0.96
5612.00,0.96
5611.00,0.96
5610.00,0.96
5609.00,0.96
5608.00,0.96
5607.00,0.97
5606.00,0.97
5605.00,0.97
5604.00,0.97
5603.00,0.97
5602.00,0.97
5601.00,0.97
5600.00,0.98
5599.00,0.98
5598.00,0.98
5597.00,0.98
5596.00,0.98
5595.00,0.98
5594.00,0.99
5593.00,0.99
5592.00,0.99
5591.00,0.99
5590.00,0.99
5589.00,0.99
5588.00,0.99
5587.00,0.99
5586.00,1.00
5585.00,1.00
5584.00,1.00
5583.00,1.00
5582.00,1.00
5581.00,1.00
5580.00,1.00
5579.00,1.00
5578.00,1.00
5577.00,1.01
5576.00,1.01
5575.00,1.01
5574.00,1.01
5573.00,1.01
5572.00,1.01
5571.00,1.01
5570.00,1.01
5569.00,1.02
5568.00,1.02
5567.00,1.02
5566.00,1.02
5565.00,1.02
5564.00,1.02
5563.00,1.02
5562.00,1.02
5561.00,1.03
5560.00,1.03
5559.00,1.03
5558.00,1.03
5557.00,1.03
5556.00,1.03
5555.00,1.03
5554.00,1.03
5553.00,1.03
5552.00,1.03
5551.00,1.04
5550.00,1.04
5549.00,1.04
5548.00,1.04
5547.00,1.04
5546.00,1.04
5545.00,1.04
5544.00,1.04
5543.00,1.04
5542.00,1.05
5541.00,1.05
5540.00,1.05
5539.00,1.05
5538.00,1.05
5537.00,1.05
5536.00,1.05
5535.00,1.05
5534.00,1.05
5533.00,1.06
5532.00,1.06
5531.00,1.06
5530.00,1.06
5529.00,1.06
5528.00,1.06
5527.00,1.06
5526.00,1.06
5525.00,1.06
5524.00,1.06
5523.00,1.06
5522.00,1.06
5521.00,1.06
5520.00,1.06
5519.00,1.06
5518.00,1.07
5517.00,1.07
5516.00,1.07
5515.00,1.07
5514.00,1.07
5513.00,1.07
5512.00,1.07
5511.00,1.07
5510.00,1.07
5509.00,1.07
5508.00,1.07
5507.00,1.07
5506.00,1.07
5505.00,1.07
5504.00,1.07
5503.00,1.07
5502.00,1.07
5501.00,1.07
5500.00,1.07
5499.00,1.07
5498.00,1.07
5497.00,1.07
5496.00,1.07
5495.00,1.08
5494.00,1.08
5493.00,1.08
5492.00,1.08
5491.00,1.08
5490.00,1.08
5489.00,1.08
5488.00,1.08
5487.00,1.08
5486.00,1.08
5485.00,1.08
5484.00,1.08
5483.00,1.08
5482.00,1.08
5481.00,1.08
5480.00,1.09
5479.00,1.09
5478.00,1.09
5477.00,1.09
5476.00,1.09
5475.00,1.09
5474.00,1.09
5473.00,1.09
5472.00,1.09
5471.00,1.10
5470.00,1.10
5469.00,1.10
5468.00,1.10
5467.00,1.10
5466.00,1.10
5465.00,1.10
5464.00,1.10
5463.00,1.11
5462.00,1.11
5461.00,1.11
5460.00,1.11
5459.00,1.11
5458.00,1.11
5457.00,1.11
5456.00,1.11
5455.00,1.11
5454.00,1.11
5453.00,1.11
5452.00,1.11
5451.00,1.11
5450.00,1.11
5449.00,1.11
5448.00,1.11
5447.00,1.11
5446.00,1.11
5445.00,1.11
5444.00,1.11
5443.00,1.11
5442.00,1.11
5441.00,1.12
5440.00,1.12
5439.00,1.12
5438.00,1.12
5437.00,1.12
5436.00,1.12
5435.00,1.12
5434.00,1.12
5433.00,1.12
5432.00,1.12
5431.00,1.12
5430.00,1.12
5429.00,1.12
5428.00,1.12
5427.00,1.12
5426.00,1.12
5425.00,1.12
5424.00,1.12
5423.00,1.12
5422.00,1.12
5421.00,1.12
5420.00,1.12
5419.00,1.12
5418.00,1.12
5417.00,1.12
5416.00,1.12
5415.00,1.12
5414.00,1.12
5413.00,1.12
5412.00,1.12
5411.00,1.12
5410.00,1.12
5409.00,1.12
5408.00,1.12
5407.00,1.12
5406.00,1.12
5405.00,1.12
5404.00,1.12
5403.00,1.12
5402.00,1.12
5401.00,1.12
5400.00,1.12
5399.00,1.12
5398.00,1.12
5397.00,1.12
5396.00,1.11
5395.00,1.11
5394.00,1.11
5393.00,1.11
5392.00,1.11
5391.00,1.11
5390.00,1.11
5389.00,1.10
5388.00,1.10
5387.00,1.10
5386.00,1.10
5385.00,1.10
5384.00,1.09
5383.00,1.09
5382.00,1.09
5381.00,1.09
5380.00,1.08
5379.00,1.08
5378.00,1.08
5377.00,1.08
5376.00,1.07
5375.00,1.07
5374.00,1.07
5373.00,1.07
5372.00,1.06
5371.00,1.06
5370.00,1.06
5369.00,1.05
5368.00,1.05
5367.00,1.05
5366.00,1.04
5365.00,1.04
5364.00,1.03
5363.00,1.03
5362.00,1.02
5361.00,1.02
5360.00,1.01
5359.00,1.01
5358.00,1.00
5357.00,0.99
5356.00,0.99
5355.00,0.98
5354.00,0.97
5353.00,0.97
5352.00,0.96
5351.00,0.95
5350.00,0.95
5349.00,0.94
5348.00,0.93
5347.00,0.92
5346.00,0.92
5345.00,0.91
5344.00,0.90
5343.00,0.89
5342.00,0.89
5341.00,0.88
5340.00,0.87
5339.00,0.86
5338.00,0.86
5337.00,0.85
5336.00,0.84
5335.00,0.83
5334.00,0.83
5333.00,0.82
5332.00,0.81
5331.00,0.81
5330.00,0.80
5329.00,0.79
5328.00,0.78
5327.00,0.78
5326.00,0.77
5325.00,0.76
5324.00,0.75
5323.00,0.75
5322.00,0.74
5321.00,0.73
5320.00,0.73
5319.00,0.72
5318.00,0.71
5317.00,0.71
5316.00,0.70
5315.00,0.69
5314.00,0.69
5313.00,0.68
5312.00,0.68
5311.00,0.67
5310.00,0.66
5309.00,0.66
5308.00,0.65
5307.00,0.65
5306.00,0.64
5305.00,0.64
5304.00,0.64
5303.00,0.63
5302.00,0.63
5301.00,0.62
5300.00,0.62
5299.00,0.62
5298.00,0.61
5297.00,0.61
5296.00,0.61
5295.00,0.61
5294.00,0.61
5293.00,0.60
5292.00,0.60
5291.00,0.60
5290.00,0.60
5289.00,0.60
5288.00,0.60
5287.00,0.60
5286.00,0.59
5285.00,0.59
5284.00,0.59
5283.00,0.59
5282.00,0.59
5281.00,0.59
5280.00,0.59
5279.00,0.59
5278.00,0.59
5277.00,0.59
5276.00,0.59
5275.00,0.59
5274.00,0.59
5273.00,0.59
5272.00,0.59
5271.00,0.59
5270.00,0.59
5269.00,0.59
5268.00,0.59
5267.00,0.59
5266.00,0.59
5265.00,0.59
5264.00,0.59
5263.00,0.59
5262.00,0.59
5261.00,0.59
5260.00,0.59
5259.00,0.59
5258.00,0.58
5257.00,0.58
5256.00,0.58
5255.00,0.58
5254.00,0.58
5253.00,0.58
5252.00,0.58
5251.00,0.58
5250.00,0.58
5249.00,0.58
5248.00,0.58
5247.00,0.58
5246.00,0.58
5245.00,0.58
5244.00,0.58
5243.00,0.58
5242.00,0.58
5241.00,0.58
5240.00,0.58
5239.00,0.58
5238.00,0.58
5237.00,0.58
5236.00,0.58
5235.00,0.58
5234.00,0.58
5233.00,0.58
5232.00,0.58
5231.00,0.58
5230.00,0.58
5229.00,0.58
5228.00,0.58
5227.00,0.59
5226.00,0.59
5225.00,0.59
5224.00,0.59
5223.00,0.59
5222.00,0.59
5221.00,0.59
5220.00,0.59
5219.00,0.59
5218.00,0.59
5217.00,0.59
5216.00,0.59
5215.00,0.59
5214.00,0.59
5213.00,0.59
5212.00,0.59
5211.00,0.59
5210.00,0.59
5209.00,0.59
5208.00,0.59
5207.00,0.59
5206.00,0.59
5205.00,0.59
5204.00,0.59
5203.00,0.59
5202.00,0.59
5201.00,0.59
5200.00,0.59
5199.00,0.59
5198.00,0.59
5197.00,0.59
5196.00,0.59
5195.00,0.60
5194.00,0.60
5193.00,0.60
5192.00,0.60
5191.00,0.60
5190.00,0.60
5189.00,0.60
5188.00,0.60
5187.00,0.60
5186.00,0.60
5185.00,0.60
5184.00,0.60
5183.00,0.60
5182.00,0.61
5181.00,0.61
5180.00,0.61
5179.00,0.61
5178.00,0.61
5177.00,0.61
5176.00,0.61
5175.00,0.61
5174.00,0.61
5173.00,0.61
5172.00,0.61
5171.00,0.61
5170.00,0.61
5169.00,0.61
5168.00,0.61
5167.00,0.61
5166.00,0.61
5165.00,0.61
5164.00,0.61
5163.00,0.61
5162.00,0.61
5161.00,0.61
5160.00,0.61
5159.00,0.61
5158.00,0.61
5157.00,0.61
5156.00,0.61
5155.00,0.61
5154.00,0.61
5153.00,0.61
5152.00,0.61
5151.00,0.61
5150.00,0.61
5149.00,0.61
5148.00,0.61
5147.00,0.61
5146.00,0.61
5145.00,0.62
5144.00,0.62
5143.00,0.62
5142.00,0.62
5141.00,0.62
5140.00,0.62
5139.00,0.62
5138.00,0.62
5137.00,0.62
5136.00,0.62
5135.00,0.62
5134.00,0.62
5133.00,0.62
5132.00,0.62
5131.00,0.62
5130.00,0.62
5129.00,0.62
5128.00,0.62
5127.00,0.62
5126.00,0.62
5125.00,0.62
5124.00,0.62
5123.00,0.62
5122.00,0.62
5121.00,0.62
5120.00,0.62
5119.00,0.63
5118.00,0.63
5117.00,0.63
5116.00,0.63
5115.00,0.63
5114.00,0.63
5113.00,0.63
5112.00,0.63
5111.00,0.63
5110.00,0.63
5109.00,0.63
5108.00,0.63
5107.00,0.63
5106.00,0.63
5105.00,0.63
5104.00,0.63
5103.00,0.63
5102.00,0.63
5101.00,0.64
5100.00,0.64
5099.00,0.64
5098.00,0.64
5097.00,0.64
5096.00,0.64
5095.00,0.64
5094.00,0.64
5093.00,0.64
5092.00,0.64
5091.00,0.64
5090.00,0.64
5089.00,0.64
5088.00,0.64
5087.00,0.64
5086.00,0.64
5085.00,0.64
5084.00,0.64
5083.00,0.64
5082.00,0.64
5081.00,0.64
5080.00,0.64
5079.00,0.64
5078.00,0.64
5077.00,0.64
5076.00,0.64
5075.00,0.64
5074.00,0.64
5073.00,0.64
5072.00,0.64
5071.00,0.64
5070.00,0.64
5069.00,0.64
5068.00,0.64
5067.00,0.64
5066.00,0.64
5065.00,0.64
5064.00,0.64
5063.00,0.64
5062.00,0.64
5061.00,0.65
5060.00,0.65
5059.00,0.65
5058.00,0.65
5057.00,0.65
5056.00,0.65
5055.00,0.65
5054.00,0.65
5053.00,0.65
5052.00,0.65
5051.00,0.65
5050.00,0.65
5049.00,0.65
5048.00,0.65
5047.00,0.66
5046.00,0.66
5045.00,0.66
5044.00,0.66
5043.00,0.66
5042.00,0.66
5041.00,0.66
5040.00,0.66
5039.00,0.66
5038.00,0.66
5037.00,0.66
5036.00,0.66
5035.00,0.66
5034.00,0.66
5033.00,0.66
5032.00,0.66
5031.00,0.66
5030.00,0.66
5029.00,0.66
5028.00,0.66
5027.00,0.66
5026.00,0.66
5025.00,0.66
5024.00,0.66
5023.00,0.66
5022.00,0.66
5021.00,0.67
5020.00,0.67
5019.00,0.67
5018.00,0.67
5017.00,0.67
5016.00,0.67
5015.00,0.67
5014.00,0.67
5013.00,0.67
5012.00,0.67
5011.00,0.67
5010.00,0.67
5009.00,0.68
5008.00,0.68
5007.00,0.68
5006.00,0.68
5005.00,0.68
5004.00,0.68
5003.00,0.68
5002.00,0.68
5001.00,0.68
5000.00,0.68
4999.00,0.68
4998.00,0.68
4997.00,0.68
4996.00,0.68
4995.00,0.68
4994.00,0.68
4993.00,0.68
4992.00,0.68
4991.00,0.68
4990.00,0.68
4989.00,0.69
4988.00,0.69
4987.00,0.69
4986.00,0.69
4985.00,0.69
4984.00,0.69
4983.00,0.69
4982.00,0.69
4981.00,0.69
4980.00,0.69
4979.00,0.69
4978.00,0.70
4977.00,0.70
4976.00,0.70
4975.00,0.70
4974.00,0.70
4973.00,0.70
4972.00,0.70
4971.00,0.70
4970.00,0.70
4969.00,0.70
4968.00,0.70
4967.00,0.70
4966.00,0.71
4965.00,0.71
4964.00,0.71
4963.00,0.71
4962.00,0.71
4961.00,0.71
4960.00,0.71
4959.00,0.71
4958.00,0.71
4957.00,0.71
4956.00,0.71
4955.00,0.71
4954.00,0.71
4953.00,0.71
4952.00,0.71
4951.00,0.71
4950.00,0.71
4949.00,0.71
4948.00,0.71
4947.00,0.72
4946.00,0.72
4945.00,0.72
4944.00,0.72
4943.00,0.72
4942.00,0.72
4941.00,0.72
4940.00,0.72
4939.00,0.72
4938.00,0.72
4937.00,0.72
4936.00,0.72
4935.00,0.72
4934.00,0.72
4933.00,0.72
4932.00,0.72
4931.00,0.72
4930.00,0.72
4929.00,0.72
4928.00,0.72
4927.00,0.72
4926.00,0.72
4925.00,0.73
4924.00,0.73
4923.00,0.73
4922.00,0.73
4921.00,0.73
4920.00,0.73
4919.00,0.73
4918.00,0.73
4917.00,0.73
4916.00,0.73
4915.00,0.73
4914.00,0.73
4913.00,0.73
4912.00,0.73
4911.00,0.73
4910.00,0.73
4909.00,0.73
4908.00,0.73
4907.00,0.73
4906.00,0.73
4905.00,0.73
4904.00,0.73
4903.00,0.73
4902.00,0.73
4901.00,0.74
4900.00,0.74
4899.00,0.74
4898.00,0.74
4897.00,0.74
4896.00,0.74
4895.00,0.74
4894.00,0.74
4893.00,0.74
4892.00,0.74
4891.00,0.74
4890.00,0.74
4889.00,0.74
4888.00,0.74
4887.00,0.74
4886.00,0.74
4885.00,0.74
4884.00,0.74
4883.00,0.74
4882.00,0.74
4881.00,0.74
4880.00,0.74
4879.00,0.74
4878.00,0.74
4877.00,0.74
4876.00,0.74
4875.00,0.74
4874.00,0.74
4873.00,0.74
4872.00,0.75
4871.00,0.75
4870.00,0.75
4869.00,0.75
4868.00,0.75
4867.00,0.75
4866.00,0.75
4865.00,0.75
4864.00,0.75
4863.00,0.75
4862.00,0.75
4861.00,0.75
4860.00,0.75
4859.00,0.76
4858.00,0.76
4857.00,0.76
4856.00,0.76
4855.00,0.76
4854.00,0.76
4853.00,0.76
4852.00,0.76
4851.00,0.76
4850.00,0.76
4849.00,0.76
4848.00,0.76
4847.00,0.76
4846.00,0.76
4845.00,0.76
4844.00,0.76
4843.00,0.76
4842.00,0.76
4841.00,0.76
4840.00,0.76
4839.00,0.76
4838.00,0.76
4837.00,0.76
4836.00,0.76
4835.00,0.76
4834.00,0.76
4833.00,0.76
4832.00,0.76
4831.00,0.76
4830.00,0.77
4829.00,0.77
4828.00,0.77
4827.00,0.77
4826.00,0.77
4825.00,0.77
4824.00,0.77
4823.00,0.77
4822.00,0.77
4821.00,0.77
4820.00,0.77
4819.00,0.77
4818.00,0.77
4817.00,0.78
4816.00,0.78
4815.00,0.78
4814.00,0.78
4813.00,0.78
4812.00,0.78
4811.00,0.78
4810.00,0.78
4809.00,0.78
4808.00,0.78
4807.00,0.78
4806.00,0.78
4805.00,0.78
4804.00,0.79
4803.00,0.79
4802.00,0.79
4801.00,0.79
4800.00,0.79
4799.00,0.79
4798.00,0.79
4797.00,0.79
4796.00,0.79
4795.00,0.79
4794.00,0.79
4793.00,0.79
4792.00,0.79
4791.00,0.79
4790.00,0.79
4789.00,0.79
4788.00,0.79
4787.00,0.80
4786.00,0.80
4785.00,0.80
4784.00,0.80
4783.00,0.80
4782.00,0.80
4781.00,0.80
4780.00,0.80
4779.00,0.80
4778.00,0.80
4777.00,0.80
4776.00,0.80
4775.00,0.81
4774.00,0.81
4773.00,0.81
4772.00,0.81
4771.00,0.81
4770.00,0.81
4769.00,0.81
4768.00,0.81
4767.00,0.81
4766.00,0.81
4765.00,0.81
4764.00,0.82
4763.00,0.82
4762.00,0.82
4761.00,0.82
4760.00,0.82
4759.00,0.82
4758.00,0.82
4757.00,0.82
4756.00,0.83
4755.00,0.83
4754.00,0.83
4753.00,0.83
4752.00,0.83
4751.00,0.83
4750.00,0.83
4749.00,0.83
4748.00,0.83
4747.00,0.83
4746.00,0.83
4745.00,0.83
4744.00,0.83
4743.00,0.83
4742.00,0.83
4741.00,0.83
4740.00,0.83
4739.00,0.83
4738.00,0.83
4737.00,0.83
4736.00,0.83
4735.00,0.83
4734.00,0.84
4733.00,0.84
4732.00,0.84
4731.00,0.84
4730.00,0.84
4729.00,0.84
4728.00,0.84
4727.00,0.84
4726.00,0.85
4725.00,0.85
4724.00,0.85
4723.00,0.85
4722.00,0.85
4721.00,0.85
4720.00,0.85
4719.00,0.86
4718.00,0.86
4717.00,0.86
4716.00,0.86
4715.00,0.86
4714.00,0.86
4713.00,0.86
4712.00,0.86
4711.00,0.86
4710.00,0.87
4709.00,0.87
4708.00,0.87
4707.00,0.87
4706.00,0.87
4705.00,0.87
4704.00,0.87
4703.00,0.87
4702.00,0.87
4701.00,0.87
4700.00,0.88
4699.00,0.88
4698.00,0.88
4697.00,0.88
4696.00,0.88
4695.00,0.88
4694.00,0.88
4693.00,0.88
4692.00,0.88
4691.00,0.88
4690.00,0.88
4689.00,0.88
4688.00,0.89
4687.00,0.89
4686.00,0.89
4685.00,0.89
4684.00,0.89
4683.00,0.89
4682.00,0.90
4681.00,0.90
4680.00,0.90
4679.00,0.90
4678.00,0.91
4677.00,0.91
4676.00,0.91
4675.00,0.91
4674.00,0.91
4673.00,0.92
4672.00,0.92
4671.00,0.92
4670.00,0.92
4669.00,0.92
4668.00,0.92
4667.00,0.92
4666.00,0.93
4665.00,0.93
4664.00,0.93
4663.00,0.93
4662.00,0.93
4661.00,0.93
4660.00,0.93
4659.00,0.93
4658.00,0.93
4657.00,0.93
4656.00,0.93
4655.00,0.93
4654.00,0.93
4653.00,0.93
4652.00,0.93
4651.00,0.93
4650.00,0.93
4649.00,0.93
4648.00,0.93
4647.00,0.93
4646.00,0.93
4645.00,0.93
4644.00,0.93
4643.00,0.93
4642.00,0.93
4641.00,0.93
4640.00,0.94
4639.00,0.94
4638.00,0.94
4637.00,0.94
4636.00,0.94
4635.00,0.94
4634.00,0.94
4633.00,0.94
4632.00,0.94
4631.00,0.94
4630.00,0.94
4629.00,0.94
4628.00,0.95
4627.00,0.95
4626.00,0.95
4625.00,0.95
4624.00,0.95
4623.00,0.95
4622.00,0.95
4621.00,0.95
4620.00,0.95
4619.00,0.95
4618.00,0.95
4617.00,0.96
4616.00,0.96
4615.00,0.96
4614.00,0.96
4613.00,0.96
4612.00,0.96
4611.00,0.96
4610.00,0.96
4609.00,0.96
4608.00,0.96
4607.00,0.96
4606.00,0.96
4605.00,0.96
4604.00,0.96
4603.00,0.96
4602.00,0.96
4601.00,0.96
4600.00,0.96
4599.00,0.96
4598.00,0.96
4597.00,0.96
4596.00,0.96
4595.00,0.96
4594.00,0.96
4593.00,0.96
4592.00,0.96
4591.00,0.96
4590.00,0.96
4589.00,0.96
4588.00,0.96
4587.00,0.96
4586.00,0.96
4585.00,0.97
4584.00,0.97
4583.00,0.97
4582.00,0.97
4581.00,0.97
4580.00,0.97
4579.00,0.97
4578.00,0.97
4577.00,0.97
4576.00,0.98
4575.00,0.98
4574.00,0.98
4573.00,0.98
4572.00,0.98
4571.00,0.98
4570.00,0.98
4569.00,0.98
4568.00,0.98
4567.00,0.98
4566.00,0.98
4565.00,0.98
4564.00,0.98
4563.00,0.98
4562.00,0.98
4561.00,0.98
4560.00,0.98
4559.00,0.98
4558.00,0.98
4557.00,0.98
4556.00,0.98
4555.00,0.98
4554.00,0.99
4553.00,0.99
4552.00,0.99
4551.00,0.99
4550.00,0.99
4549.00,0.99
4548.00,0.99
4547.00,0.99
4546.00,0.99
4545.00,0.99
4544.00,0.99
4543.00,0.99
4542.00,0.99
4541.00,0.99
4540.00,0.99
4539.00,0.99
4538.00,0.99
4537.00,0.99
4536.00,0.99
4535.00,0.99
4534.00,0.99
4533.00,0.99
4532.00,0.99
4531.00,0.99
4530.00,0.99
4529.00,0.99
4528.00,1.00
4527.00,1.00
4526.00,1.00
4525.00,1.00
4524.00,1.00
4523.00,1.00
4522.00,1.00
4521.00,1.00
4520.00,1.00
4519.00,1.00
4518.00,1.00
4517.00,1.00
4516.00,1.00
4515.00,1.00
4514.00,1.00
4513.00,1.00
4512.00,1.00
4511.00,1.00
4510.00,1.00
4509.00,1.00
4508.00,1.00
4507.00,1.00
4506.00,1.00
4505.00,1.00
4504.00,1.00
4503.00,1.00
4502.00,1.00
4501.00,1.00
4500.00,1.00
4499.00,1.00
4498.00,1.00
4497.00,1.00
4496.00,1.00
4495.00,1.00
4494.00,1.00
4493.00,1.00
4492.00,1.00
4491.00,1.00
4490.00,1.00
4489.00,0.99
4488.00,0.99
4487.00,0.99
4486.00,0.99
4485.00,0.99
4484.00,0.99
4483.00,0.99
4482.00,0.99
4481.00,0.99
4480.00,0.99
4479.00,0.99
4478.00,0.99
4477.00,0.99
4476.00,0.99
4475.00,0.99
4474.00,0.99
4473.00,0.99
4472.00,0.98
4471.00,0.98
4470.00,0.98
4469.00,0.98
4468.00,0.98
4467.00,0.98
4466.00,0.98
4465.00,0.98
4464.00,0.98
4463.00,0.97
4462.00,0.97
4461.00,0.97
4460.00,0.97
4459.00,0.97
4458.00,0.97
4457.00,0.97
4456.00,0.96
4455.00,0.96
4454.00,0.96
4453.00,0.96
4452.00,0.96
4451.00,0.95
4450.00,0.95
4449.00,0.95
4448.00,0.95
4447.00,0.95
4446.00,0.94
4445.00,0.94
4444.00,0.94
4443.00,0.94
4442.00,0.94
4441.00,0.93
4440.00,0.93
4439.00,0.93
4438.00,0.93
4437.00,0.93
4436.00,0.93
4435.00,0.92
4434.00,0.92
4433.00,0.92
4432.00,0.92
4431.00,0.92
4430.00,0.92
4429.00,0.92
4428.00,0.92
4427.00,0.92
4426.00,0.91
4425.00,0.91
4424.00,0.91
4423.00,0.91
4422.00,0.91
4421.00,0.91
4420.00,0.91
4419.00,0.91
4418.00,0.91
4417.00,0.91
4416.00,0.91
4415.00,0.91
4414.00,0.91
4413.00,0.91
4412.00,0.91
4411.00,0.91
4410.00,0.91
4409.00,0.91
4408.00,0.91
4407.00,0.91
4406.00,0.91
4405.00,0.91
4404.00,0.91
4403.00,0.91
4402.00,0.91
4401.00,0.91
4400.00,0.91
4399.00,0.91
4398.00,0.91
4397.00,0.91
4396.00,0.91
4395.00,0.91
4394.00,0.92
4393.00,0.92
4392.00,0.92
4391.00,0.92
4390.00,0.92
4389.00,0.92
4388.00,0.92
4387.00,0.92
4386.00,0.92
4385.00,0.92
4384.00,0.92
4383.00,0.92
4382.00,0.93
4381.00,0.93
4380.00,0.93
4379.00,0.93
4378.00,0.93
4377.00,0.93
4376.00,0.93
4375.00,0.93
4374.00,0.93
4373.00,0.93
4372.00,0.93
4371.00,0.93
4370.00,0.93
4369.00,0.93
4368.00,0.93
4367.00,0.94
4366.00,0.94
4365.00,0.94
4364.00,0.94
4363.00,0.94
4362.00,0.94
4361.00,0.94
4360.00,0.93
4359.00,0.93
4358.00,0.93
4357.00,0.93
4356.00,0.93
4355.00,0.93
4354.00,0.93
4353.00,0.93
4352.00,0.93
4351.00,0.93
4350.00,0.93
4349.00,0.93
4348.00,0.94
4347.00,0.94
4346.00,0.94
4345.00,0.94
4344.00,0.94
4343.00,0.94
4342.00,0.94
4341.00,0.94
4340.00,0.94
4339.00,0.94
4338.00,0.94
4337.00,0.94
4336.00,0.94
4335.00,0.95
4334.00,0.95
4333.00,0.95
4332.00,0.95
4331.00,0.95
4330.00,0.95
4329.00,0.95
4328.00,0.95
4327.00,0.95
4326.00,0.95
4325.00,0.95
4324.00,0.95
4323.00,0.95
4322.00,0.95
4321.00,0.95
4320.00,0.95
4319.00,0.95
4318.00,0.95
4317.00,0.96
4316.00,0.96
4315.00,0.96
4314.00,0.96
4313.00,0.96
4312.00,0.96
4311.00,0.96
4310.00,0.96
4309.00,0.96
4308.00,0.97
4307.00,0.97
4306.00,0.97
4305.00,0.97
4304.00,0.97
4303.00,0.97
4302.00,0.97
4301.00,0.98
4300.00,0.98
4299.00,0.98
4298.00,0.98
4297.00,0.98
4296.00,0.98
4295.00,0.98
4294.00,0.98
4293.00,0.99
4292.00,0.99
4291.00,0.99
4290.00,0.99
4289.00,0.99
4288.00,0.99
4287.00,1.00
4286.00,1.00
4285.00,1.00
4284.00,1.00
4283.00,1.00
4282.00,1.00
4281.00,1.00
4280.00,1.00
4279.00,1.00
4278.00,1.00
4277.00,1.00
4276.00,1.00
4275.00,1.00
4274.00,1.00
4273.00,1.00
4272.00,1.00
4271.00,0.99
4270.00,0.99
4269.00,0.99
4268.00,0.99
4267.00,0.99
4266.00,0.99
4265.00,0.99
4264.00,0.99
4263.00,0.99
4262.00,0.99
4261.00,0.99
4260.00,0.99
4259.00,0.99
4258.00,0.99
4257.00,0.99
4256.00,0.99
4255.00,0.99
4254.00,0.99
4253.00,0.99
4252.00,0.99
4251.00,0.99
4250.00,0.99
4249.00,0.99
4248.00,1.00
4247.00,1.00
4246.00,1.00
4245.00,1.00
4244.00,1.00
4243.00,1.00
4242.00,1.00
4241.00,1.01
4240.00,1.01
4239.00,1.01
4238.00,1.01
4237.00,1.01
4236.00,1.01
4235.00,1.01
4234.00,1.02
4233.00,1.02
4232.00,1.02
4231.00,1.02
4230.00,1.02
4229.00,1.02
4228.00,1.02
4227.00,1.02
4226.00,1.02
4225.00,1.02
4224.00,1.03
4223.00,1.03
4222.00,1.03
4221.00,1.03
4220.00,1.03
4219.00,1.03
4218.00,1.03
4217.00,1.03
4216.00,1.03
4215.00,1.03
4214.00,1.03
4213.00,1.03
4212.00,1.03
4211.00,1.03
4210.00,1.04
4209.00,1.04
4208.00,1.04
4207.00,1.04
4206.00,1.04
4205.00,1.04
4204.00,1.04
4203.00,1.04
4202.00,1.04
4201.00,1.04
4200.00,1.03
4199.00,1.03
4198.00,1.03
4197.00,1.03
4196.00,1.03
4195.00,1.03
4194.00,1.03
4193.00,1.03
4192.00,1.03
4191.00,1.03
4190.00,1.03
4189.00,1.03
4188.00,1.03
4187.00,1.03
4186.00,1.03
4185.00,1.04
4184.00,1.04
4183.00,1.04
4182.00,1.04
4181.00,1.04
4180.00,1.04
4179.00,1.04
4178.00,1.04
4177.00,1.04
4176.00,1.04
4175.00,1.04
4174.00,1.04
4173.00,1.04
4172.00,1.04
4171.00,1.04
4170.00,1.04
4169.00,1.04
4168.00,1.04
4167.00,1.04
4166.00,1.04
4165.00,1.05
4164.00,1.05
4163.00,1.05
4162.00,1.05
4161.00,1.05
4160.00,1.05
4159.00,1.05
4158.00,1.05
4157.00,1.05
4156.00,1.05
4155.00,1.05
4154.00,1.05
4153.00,1.05
4152.00,1.06
4151.00,1.06
4150.00,1.06
4149.00,1.06
4148.00,1.06
4147.00,1.06
4146.00,1.06
4145.00,1.06
4144.00,1.06
4143.00,1.06
4142.00,1.06
4141.00,1.06
4140.00,1.06
4139.00,1.06
4138.00,1.06
4137.00,1.06
4136.00,1.06
4135.00,1.06
4134.00,1.06
4133.00,1.06
4132.00,1.06
4131.00,1.06
4130.00,1.06
4129.00,1.06
4128.00,1.06
4127.00,1.06
4126.00,1.06
4125.00,1.07
4124.00,1.07
4123.00,1.07
4122.00,1.07
4121.00,1.07
4120.00,1.07
4119.00,1.07
4118.00,1.07
4117.00,1.07
4116.00,1.07
4115.00,1.07
4114.00,1.07
4113.00,1.07
4112.00,1.07
4111.00,1.07
4110.00,1.07
4109.00,1.07
4108.00,1.07
4107.00,1.07
4106.00,1.07
4105.00,1.07
4104.00,1.07
4103.00,1.07
4102.00,1.07
4101.00,1.08
4100.00,1.08
4099.00,1.08
4098.00,1.08
4097.00,1.08
4096.00,1.08
4095.00,1.08
4094.00,1.08
4093.00,1.08
4092.00,1.08
4091.00,1.08
4090.00,1.08
4089.00,1.08
4088.00,1.08
4087.00,1.08
4086.00,1.08
4085.00,1.08
4084.00,1.08
4083.00,1.08
4082.00,1.08
4081.00,1.08
4080.00,1.08
4079.00,1.08
4078.00,1.08
4077.00,1.08
4076.00,1.08
4075.00,1.08
4074.00,1.08
4073.00,1.08
4072.00,1.08
4071.00,1.09
4070.00,1.09
4069.00,1.09
4068.00,1.09
4067.00,1.09
4066.00,1.09
4065.00,1.09
4064.00,1.09
4063.00,1.09
4062.00,1.09
4061.00,1.09
4060.00,1.09
4059.00,1.09
4058.00,1.09
4057.00,1.09
4056.00,1.09
4055.00,1.09
4054.00,1.09
4053.00,1.09
4052.00,1.09
4051.00,1.09
4050.00,1.09
4049.00,1.09
4048.00,1.09
4047.00,1.09
4046.00,1.09
4045.00,1.09
4044.00,1.09
4043.00,1.09
4042.00,1.09
4041.00,1.09
4040.00,1.09
4039.00,1.09
4038.00,1.09
4037.00,1.10
4036.00,1.10
4035.00,1.10
4034.00,1.10
4033.00,1.10
4032.00,1.10
4031.00,1.10
4030.00,1.11
4029.00,1.11
4028.00,1.11
4027.00,1.11
4026.00,1.11
4025.00,1.11
4024.00,1.12
4023.00,1.12
4022.00,1.12
4021.00,1.12
4020.00,1.12
4019.00,1.12
4018.00,1.12
4017.00,1.12
4016.00,1.12
4015.00,1.12
4014.00,1.12
4013.00,1.12
4012.00,1.12
4011.00,1.12
4010.00,1.12
4009.00,1.12
4008.00,1.12
4007.00,1.12
4006.00,1.12
4005.00,1.12
4004.00,1.12
4003.00,1.12
4002.00,1.12
4001.00,1.12
4000.00,1.12
