创建为新数据集,样品 249 用户 Administrator 日期 星期日, 七月 22 2018
cm-1,%T
10000.00,1.22
9999.00,1.22
9998.00,1.22
9997.00,1.22
9996.00,1.22
9995.00,1.22
9994.00,1.22
9993.00,1.22
9992.00,1.22
9991.00,1.22
9990.00,1.22
9989.00,1.22
9988.00,1.22
9987.00,1.22
9986.00,1.22
9985.00,1.22
9984.00,1.22
9983.00,1.22
9982.00,1.22
9981.00,1.22
9980.00,1.22
9979.00,1.22
9978.00,1.22
9977.00,1.22
9976.00,1.22
9975.00,1.22
9974.00,1.22
9973.00,1.22
9972.00,1.22
9971.00,1.22
9970.00,1.22
9969.00,1.22
9968.00,1.21
9967.00,1.21
9966.00,1.21
9965.00,1.21
9964.00,1.20
9963.00,1.20
9962.00,1.20
9961.00,1.20
9960.00,1.20
9959.00,1.19
9958.00,1.19
9957.00,1.19
9956.00,1.19
9955.00,1.19
9954.00,1.19
9953.00,1.19
9952.00,1.19
9951.00,1.20
9950.00,1.20
9949.00,1.20
9948.00,1.20
9947.00,1.20
9946.00,1.20
9945.00,1.20
9944.00,1.20
9943.00,1.20
9942.00,1.20
9941.00,1.20
9940.00,1.20
9939.00,1.20
9938.00,1.20
9937.00,1.20
9936.00,1.20
9935.00,1.20
9934.00,1.20
9933.00,1.20
9932.00,1.20
9931.00,1.20
9930.00,1.20
9929.00,1.20
9928.00,1.20
9927.00,1.20
9926.00,1.20
9925.00,1.20
9924.00,1.20
9923.00,1.20
9922.00,1.20
9921.00,1.20
9920.00,1.20
9919.00,1.20
9918.00,1.20
9917.00,1.20
9916.00,1.20
9915.00,1.20
9914.00,1.20
9913.00,1.20
9912.00,1.20
9911.00,1.20
9910.00,1.20
9909.00,1.20
9908.00,1.20
9907.00,1.20
9906.00,1.20
9905.00,1.20
9904.00,1.20
9903.00,1.20
9902.00,1.20
9901.00,1.20
9900.00,1.20
9899.00,1.20
9898.00,1.20
9897.00,1.20
9896.00,1.20
9895.00,1.20
9894.00,1.20
9893.00,1.20
9892.00,1.20
9891.00,1.20
9890.00,1.21
9889.00,1.21
9888.00,1.21
9887.00,1.21
9886.00,1.20
9885.00,1.20
9884.00,1.20
9883.00,1.20
9882.00,1.20
9881.00,1.20
9880.00,1.20
9879.00,1.20
9878.00,1.19
9877.00,1.19
9876.00,1.19
9875.00,1.19
9874.00,1.19
9873.00,1.19
9872.00,1.18
9871.00,1.18
9870.00,1.18
9869.00,1.18
9868.00,1.18
9867.00,1.18
9866.00,1.18
9865.00,1.18
9864.00,1.18
9863.00,1.19
9862.00,1.19
9861.00,1.19
9860.00,1.19
9859.00,1.19
9858.00,1.19
9857.00,1.19
9856.00,1.19
9855.00,1.19
9854.00,1.20
9853.00,1.20
9852.00,1.19
9851.00,1.19
9850.00,1.19
9849.00,1.19
9848.00,1.19
9847.00,1.19
9846.00,1.19
9845.00,1.19
9844.00,1.19
9843.00,1.19
9842.00,1.18
9841.00,1.18
9840.00,1.18
9839.00,1.18
9838.00,1.18
9837.00,1.18
9836.00,1.19
9835.00,1.19
9834.00,1.19
9833.00,1.19
9832.00,1.19
9831.00,1.19
9830.00,1.19
9829.00,1.20
9828.00,1.20
9827.00,1.20
9826.00,1.20
9825.00,1.20
9824.00,1.20
9823.00,1.20
9822.00,1.20
9821.00,1.21
9820.00,1.21
9819.00,1.21
9818.00,1.20
9817.00,1.20
9816.00,1.20
9815.00,1.20
9814.00,1.20
9813.00,1.20
9812.00,1.20
9811.00,1.20
9810.00,1.20
9809.00,1.19
9808.00,1.19
9807.00,1.19
9806.00,1.19
9805.00,1.19
9804.00,1.19
9803.00,1.19
9802.00,1.19
9801.00,1.18
9800.00,1.18
9799.00,1.18
9798.00,1.18
9797.00,1.18
9796.00,1.18
9795.00,1.18
9794.00,1.18
9793.00,1.18
9792.00,1.19
9791.00,1.19
9790.00,1.19
9789.00,1.19
9788.00,1.20
9787.00,1.20
9786.00,1.20
9785.00,1.21
9784.00,1.21
9783.00,1.21
9782.00,1.22
9781.00,1.22
9780.00,1.22
9779.00,1.22
9778.00,1.22
9777.00,1.22
9776.00,1.21
9775.00,1.21
9774.00,1.21
9773.00,1.20
9772.00,1.20
9771.00,1.20
9770.00,1.19
9769.00,1.19
9768.00,1.19
9767.00,1.19
9766.00,1.19
9765.00,1.18
9764.00,1.18
9763.00,1.18
9762.00,1.18
9761.00,1.18
9760.00,1.19
9759.00,1.19
9758.00,1.19
9757.00,1.19
9756.00,1.19
9755.00,1.19
9754.00,1.19
9753.00,1.20
9752.00,1.20
9751.00,1.20
9750.00,1.20
9749.00,1.20
9748.00,1.20
9747.00,1.19
9746.00,1.19
9745.00,1.19
9744.00,1.19
9743.00,1.19
9742.00,1.19
9741.00,1.19
9740.00,1.19
9739.00,1.19
9738.00,1.20
9737.00,1.20
9736.00,1.20
9735.00,1.20
9734.00,1.20
9733.00,1.20
9732.00,1.20
9731.00,1.20
9730.00,1.20
9729.00,1.21
9728.00,1.21
9727.00,1.21
9726.00,1.21
9725.00,1.21
9724.00,1.21
9723.00,1.21
9722.00,1.21
9721.00,1.21
9720.00,1.21
9719.00,1.21
9718.00,1.21
9717.00,1.21
9716.00,1.21
9715.00,1.21
9714.00,1.21
9713.00,1.21
9712.00,1.21
9711.00,1.21
9710.00,1.21
9709.00,1.21
9708.00,1.21
9707.00,1.21
9706.00,1.21
9705.00,1.21
9704.00,1.21
9703.00,1.21
9702.00,1.21
9701.00,1.21
9700.00,1.21
9699.00,1.21
9698.00,1.21
9697.00,1.21
9696.00,1.21
9695.00,1.21
9694.00,1.21
9693.00,1.21
9692.00,1.21
9691.00,1.21
9690.00,1.21
9689.00,1.21
9688.00,1.21
9687.00,1.21
9686.00,1.20
9685.00,1.20
9684.00,1.20
9683.00,1.20
9682.00,1.20
9681.00,1.20
9680.00,1.20
9679.00,1.20
9678.00,1.20
9677.00,1.20
9676.00,1.20
9675.00,1.20
9674.00,1.20
9673.00,1.20
9672.00,1.20
9671.00,1.20
9670.00,1.20
9669.00,1.20
9668.00,1.20
9667.00,1.20
9666.00,1.20
9665.00,1.20
9664.00,1.20
9663.00,1.20
9662.00,1.21
9661.00,1.21
9660.00,1.21
9659.00,1.21
9658.00,1.21
9657.00,1.21
9656.00,1.21
9655.00,1.21
9654.00,1.21
9653.00,1.21
9652.00,1.21
9651.00,1.21
9650.00,1.21
9649.00,1.21
9648.00,1.21
9647.00,1.21
9646.00,1.21
9645.00,1.21
9644.00,1.20
9643.00,1.20
9642.00,1.20
9641.00,1.20
9640.00,1.20
9639.00,1.20
9638.00,1.20
9637.00,1.20
9636.00,1.20
9635.00,1.20
9634.00,1.20
9633.00,1.20
9632.00,1.20
9631.00,1.20
9630.00,1.21
9629.00,1.21
9628.00,1.21
9627.00,1.21
9626.00,1.21
9625.00,1.21
9624.00,1.21
9623.00,1.21
9622.00,1.21
9621.00,1.21
9620.00,1.20
9619.00,1.20
9618.00,1.20
9617.00,1.20
9616.00,1.20
9615.00,1.20
9614.00,1.20
9613.00,1.20
9612.00,1.19
9611.00,1.19
9610.00,1.19
9609.00,1.19
9608.00,1.19
9607.00,1.19
9606.00,1.19
9605.00,1.19
9604.00,1.19
9603.00,1.19
9602.00,1.19
9601.00,1.19
9600.00,1.19
9599.00,1.19
9598.00,1.19
9597.00,1.20
9596.00,1.20
9595.00,1.20
9594.00,1.20
9593.00,1.20
9592.00,1.20
9591.00,1.20
9590.00,1.20
9589.00,1.21
9588.00,1.21
9587.00,1.21
9586.00,1.21
9585.00,1.21
9584.00,1.21
9583.00,1.22
9582.00,1.22
9581.00,1.22
9580.00,1.22
9579.00,1.22
9578.00,1.22
9577.00,1.22
9576.00,1.22
9575.00,1.22
9574.00,1.21
9573.00,1.21
9572.00,1.21
9571.00,1.21
9570.00,1.21
9569.00,1.20
9568.00,1.20
9567.00,1.20
9566.00,1.20
9565.00,1.20
9564.00,1.19
9563.00,1.19
9562.00,1.19
9561.00,1.19
9560.00,1.19
9559.00,1.19
9558.00,1.19
9557.00,1.19
9556.00,1.19
9555.00,1.19
9554.00,1.19
9553.00,1.20
9552.00,1.20
9551.00,1.20
9550.00,1.20
9549.00,1.20
9548.00,1.20
9547.00,1.20
9546.00,1.20
9545.00,1.21
9544.00,1.21
9543.00,1.21
9542.00,1.21
9541.00,1.21
9540.00,1.21
9539.00,1.21
9538.00,1.21
9537.00,1.21
9536.00,1.21
9535.00,1.21
9534.00,1.21
9533.00,1.21
9532.00,1.21
9531.00,1.21
9530.00,1.21
9529.00,1.21
9528.00,1.21
9527.00,1.21
9526.00,1.22
9525.00,1.22
9524.00,1.22
9523.00,1.22
9522.00,1.22
9521.00,1.22
9520.00,1.22
9519.00,1.22
9518.00,1.22
9517.00,1.22
9516.00,1.22
9515.00,1.22
9514.00,1.22
9513.00,1.22
9512.00,1.22
9511.00,1.22
9510.00,1.22
9509.00,1.22
9508.00,1.21
9507.00,1.21
9506.00,1.21
9505.00,1.21
9504.00,1.21
9503.00,1.21
9502.00,1.21
9501.00,1.20
9500.00,1.20
9499.00,1.20
9498.00,1.20
9497.00,1.20
9496.00,1.20
9495.00,1.20
9494.00,1.21
9493.00,1.21
9492.00,1.21
9491.00,1.21
9490.00,1.21
9489.00,1.21
9488.00,1.21
9487.00,1.21
9486.00,1.22
9485.00,1.22
9484.00,1.22
9483.00,1.22
9482.00,1.22
9481.00,1.22
9480.00,1.22
9479.00,1.22
9478.00,1.21
9477.00,1.21
9476.00,1.21
9475.00,1.21
9474.00,1.21
9473.00,1.21
9472.00,1.21
9471.00,1.21
9470.00,1.21
9469.00,1.21
9468.00,1.21
9467.00,1.21
9466.00,1.21
9465.00,1.21
9464.00,1.21
9463.00,1.21
9462.00,1.21
9461.00,1.21
9460.00,1.21
9459.00,1.21
9458.00,1.21
9457.00,1.21
9456.00,1.21
9455.00,1.21
9454.00,1.21
9453.00,1.20
9452.00,1.20
9451.00,1.20
9450.00,1.20
9449.00,1.20
9448.00,1.20
9447.00,1.20
9446.00,1.20
9445.00,1.20
9444.00,1.20
9443.00,1.20
9442.00,1.20
9441.00,1.20
9440.00,1.19
9439.00,1.19
9438.00,1.19
9437.00,1.19
9436.00,1.19
9435.00,1.19
9434.00,1.19
9433.00,1.19
9432.00,1.19
9431.00,1.19
9430.00,1.19
9429.00,1.19
9428.00,1.19
9427.00,1.19
9426.00,1.19
9425.00,1.19
9424.00,1.19
9423.00,1.19
9422.00,1.19
9421.00,1.19
9420.00,1.20
9419.00,1.20
9418.00,1.20
9417.00,1.20
9416.00,1.20
9415.00,1.20
9414.00,1.20
9413.00,1.20
9412.00,1.20
9411.00,1.20
9410.00,1.21
9409.00,1.21
9408.00,1.21
9407.00,1.21
9406.00,1.21
9405.00,1.21
9404.00,1.21
9403.00,1.21
9402.00,1.21
9401.00,1.21
9400.00,1.21
9399.00,1.21
9398.00,1.21
9397.00,1.21
9396.00,1.21
9395.00,1.20
9394.00,1.20
9393.00,1.20
9392.00,1.20
9391.00,1.20
9390.00,1.20
9389.00,1.19
9388.00,1.19
9387.00,1.19
9386.00,1.19
9385.00,1.19
9384.00,1.18
9383.00,1.18
9382.00,1.18
9381.00,1.18
9380.00,1.18
9379.00,1.19
9378.00,1.19
9377.00,1.19
9376.00,1.19
9375.00,1.19
9374.00,1.20
9373.00,1.20
9372.00,1.20
9371.00,1.20
9370.00,1.21
9369.00,1.21
9368.00,1.21
9367.00,1.22
9366.00,1.22
9365.00,1.22
9364.00,1.22
9363.00,1.22
9362.00,1.22
9361.00,1.22
9360.00,1.22
9359.00,1.22
9358.00,1.22
9357.00,1.22
9356.00,1.22
9355.00,1.22
9354.00,1.22
9353.00,1.22
9352.00,1.22
9351.00,1.22
9350.00,1.21
9349.00,1.21
9348.00,1.21
9347.00,1.21
9346.00,1.21
9345.00,1.21
9344.00,1.21
9343.00,1.21
9342.00,1.21
9341.00,1.21
9340.00,1.21
9339.00,1.21
9338.00,1.20
9337.00,1.20
9336.00,1.20
9335.00,1.20
9334.00,1.20
9333.00,1.20
9332.00,1.20
9331.00,1.20
9330.00,1.20
9329.00,1.20
9328.00,1.20
9327.00,1.20
9326.00,1.20
9325.00,1.20
9324.00,1.19
9323.00,1.19
9322.00,1.19
9321.00,1.19
9320.00,1.19
9319.00,1.19
9318.00,1.19
9317.00,1.19
9316.00,1.19
9315.00,1.19
9314.00,1.19
9313.00,1.20
9312.00,1.20
9311.00,1.20
9310.00,1.20
9309.00,1.20
9308.00,1.20
9307.00,1.20
9306.00,1.20
9305.00,1.21
9304.00,1.21
9303.00,1.21
9302.00,1.21
9301.00,1.21
9300.00,1.21
9299.00,1.21
9298.00,1.21
9297.00,1.21
9296.00,1.21
9295.00,1.21
9294.00,1.21
9293.00,1.21
9292.00,1.20
9291.00,1.20
9290.00,1.20
9289.00,1.20
9288.00,1.20
9287.00,1.20
9286.00,1.20
9285.00,1.20
9284.00,1.20
9283.00,1.20
9282.00,1.20
9281.00,1.20
9280.00,1.21
9279.00,1.21
9278.00,1.21
9277.00,1.21
9276.00,1.21
9275.00,1.21
9274.00,1.21
9273.00,1.21
9272.00,1.21
9271.00,1.21
9270.00,1.21
9269.00,1.21
9268.00,1.21
9267.00,1.21
9266.00,1.21
9265.00,1.21
9264.00,1.20
9263.00,1.20
9262.00,1.20
9261.00,1.20
9260.00,1.20
9259.00,1.20
9258.00,1.20
9257.00,1.20
9256.00,1.19
9255.00,1.19
9254.00,1.19
9253.00,1.19
9252.00,1.19
9251.00,1.19
9250.00,1.18
9249.00,1.18
9248.00,1.18
9247.00,1.18
9246.00,1.18
9245.00,1.18
9244.00,1.18
9243.00,1.18
9242.00,1.18
9241.00,1.18
9240.00,1.18
9239.00,1.18
9238.00,1.18
9237.00,1.18
9236.00,1.18
9235.00,1.18
9234.00,1.18
9233.00,1.18
9232.00,1.18
9231.00,1.18
9230.00,1.18
9229.00,1.18
9228.00,1.17
9227.00,1.17
9226.00,1.17
9225.00,1.17
9224.00,1.17
9223.00,1.17
9222.00,1.17
9221.00,1.17
9220.00,1.17
9219.00,1.18
9218.00,1.18
9217.00,1.18
9216.00,1.18
9215.00,1.18
9214.00,1.19
9213.00,1.19
9212.00,1.19
9211.00,1.19
9210.00,1.20
9209.00,1.20
9208.00,1.20
9207.00,1.20
9206.00,1.21
9205.00,1.21
9204.00,1.21
9203.00,1.21
9202.00,1.21
9201.00,1.21
9200.00,1.21
9199.00,1.21
9198.00,1.21
9197.00,1.21
9196.00,1.21
9195.00,1.21
9194.00,1.21
9193.00,1.21
9192.00,1.21
9191.00,1.22
9190.00,1.22
9189.00,1.22
9188.00,1.22
9187.00,1.22
9186.00,1.22
9185.00,1.22
9184.00,1.22
9183.00,1.22
9182.00,1.22
9181.00,1.22
9180.00,1.22
9179.00,1.22
9178.00,1.22
9177.00,1.22
9176.00,1.21
9175.00,1.21
9174.00,1.21
9173.00,1.21
9172.00,1.21
9171.00,1.20
9170.00,1.20
9169.00,1.20
9168.00,1.20
9167.00,1.20
9166.00,1.20
9165.00,1.20
9164.00,1.20
9163.00,1.20
9162.00,1.20
9161.00,1.20
9160.00,1.20
9159.00,1.20
9158.00,1.20
9157.00,1.20
9156.00,1.20
9155.00,1.20
9154.00,1.20
9153.00,1.20
9152.00,1.20
9151.00,1.20
9150.00,1.20
9149.00,1.20
9148.00,1.20
9147.00,1.21
9146.00,1.21
9145.00,1.21
9144.00,1.21
9143.00,1.21
9142.00,1.21
9141.00,1.21
9140.00,1.21
9139.00,1.21
9138.00,1.21
9137.00,1.21
9136.00,1.21
9135.00,1.21
9134.00,1.21
9133.00,1.21
9132.00,1.21
9131.00,1.21
9130.00,1.21
9129.00,1.21
9128.00,1.21
9127.00,1.21
9126.00,1.21
9125.00,1.21
9124.00,1.21
9123.00,1.21
9122.00,1.20
9121.00,1.20
9120.00,1.20
9119.00,1.20
9118.00,1.20
9117.00,1.20
9116.00,1.20
9115.00,1.20
9114.00,1.20
9113.00,1.19
9112.00,1.19
9111.00,1.19
9110.00,1.19
9109.00,1.19
9108.00,1.19
9107.00,1.19
9106.00,1.20
9105.00,1.20
9104.00,1.20
9103.00,1.20
9102.00,1.20
9101.00,1.20
9100.00,1.21
9099.00,1.21
9098.00,1.21
9097.00,1.21
9096.00,1.21
9095.00,1.21
9094.00,1.22
9093.00,1.22
9092.00,1.22
9091.00,1.22
9090.00,1.22
9089.00,1.22
9088.00,1.22
9087.00,1.22
9086.00,1.22
9085.00,1.22
9084.00,1.22
9083.00,1.22
9082.00,1.22
9081.00,1.22
9080.00,1.21
9079.00,1.21
9078.00,1.21
9077.00,1.21
9076.00,1.20
9075.00,1.20
9074.00,1.20
9073.00,1.20
9072.00,1.20
9071.00,1.19
9070.00,1.19
9069.00,1.19
9068.00,1.19
9067.00,1.19
9066.00,1.19
9065.00,1.19
9064.00,1.19
9063.00,1.19
9062.00,1.19
9061.00,1.19
9060.00,1.19
9059.00,1.19
9058.00,1.19
9057.00,1.19
9056.00,1.19
9055.00,1.19
9054.00,1.19
9053.00,1.19
9052.00,1.19
9051.00,1.19
9050.00,1.19
9049.00,1.19
9048.00,1.19
9047.00,1.19
9046.00,1.19
9045.00,1.19
9044.00,1.19
9043.00,1.19
9042.00,1.20
9041.00,1.20
9040.00,1.20
9039.00,1.20
9038.00,1.20
9037.00,1.20
9036.00,1.21
9035.00,1.21
9034.00,1.21
9033.00,1.21
9032.00,1.21
9031.00,1.21
9030.00,1.21
9029.00,1.21
9028.00,1.21
9027.00,1.21
9026.00,1.21
9025.00,1.21
9024.00,1.21
9023.00,1.21
9022.00,1.21
9021.00,1.21
9020.00,1.21
9019.00,1.21
9018.00,1.21
9017.00,1.21
9016.00,1.21
9015.00,1.21
9014.00,1.21
9013.00,1.21
9012.00,1.21
9011.00,1.20
9010.00,1.20
9009.00,1.20
9008.00,1.20
9007.00,1.20
9006.00,1.20
9005.00,1.20
9004.00,1.20
9003.00,1.20
9002.00,1.19
9001.00,1.19
9000.00,1.19
8999.00,1.20
8998.00,1.20
8997.00,1.20
8996.00,1.20
8995.00,1.20
8994.00,1.20
8993.00,1.20
8992.00,1.20
8991.00,1.21
8990.00,1.21
8989.00,1.21
8988.00,1.21
8987.00,1.21
8986.00,1.22
8985.00,1.22
8984.00,1.22
8983.00,1.22
8982.00,1.22
8981.00,1.22
8980.00,1.22
8979.00,1.22
8978.00,1.22
8977.00,1.22
8976.00,1.22
8975.00,1.22
8974.00,1.22
8973.00,1.22
8972.00,1.22
8971.00,1.22
8970.00,1.22
8969.00,1.21
8968.00,1.21
8967.00,1.21
8966.00,1.21
8965.00,1.21
8964.00,1.21
8963.00,1.21
8962.00,1.21
8961.00,1.21
8960.00,1.21
8959.00,1.21
8958.00,1.21
8957.00,1.21
8956.00,1.21
8955.00,1.21
8954.00,1.21
8953.00,1.21
8952.00,1.21
8951.00,1.21
8950.00,1.20
8949.00,1.20
8948.00,1.20
8947.00,1.20
8946.00,1.20
8945.00,1.20
8944.00,1.20
8943.00,1.20
8942.00,1.20
8941.00,1.20
8940.00,1.20
8939.00,1.20
8938.00,1.20
8937.00,1.20
8936.00,1.20
8935.00,1.20
8934.00,1.21
8933.00,1.21
8932.00,1.21
8931.00,1.20
8930.00,1.20
8929.00,1.20
8928.00,1.20
8927.00,1.20
8926.00,1.20
8925.00,1.20
8924.00,1.20
8923.00,1.20
8922.00,1.20
8921.00,1.19
8920.00,1.19
8919.00,1.19
8918.00,1.19
8917.00,1.19
8916.00,1.19
8915.00,1.19
8914.00,1.19
8913.00,1.20
8912.00,1.20
8911.00,1.20
8910.00,1.20
8909.00,1.20
8908.00,1.20
8907.00,1.20
8906.00,1.20
8905.00,1.21
8904.00,1.21
8903.00,1.21
8902.00,1.21
8901.00,1.21
8900.00,1.21
8899.00,1.21
8898.00,1.21
8897.00,1.21
8896.00,1.21
8895.00,1.21
8894.00,1.21
8893.00,1.21
8892.00,1.21
8891.00,1.21
8890.00,1.21
8889.00,1.21
8888.00,1.21
8887.00,1.21
8886.00,1.21
8885.00,1.21
8884.00,1.21
8883.00,1.21
8882.00,1.22
8881.00,1.22
8880.00,1.22
8879.00,1.22
8878.00,1.22
8877.00,1.22
8876.00,1.22
8875.00,1.22
8874.00,1.22
8873.00,1.22
8872.00,1.22
8871.00,1.22
8870.00,1.22
8869.00,1.22
8868.00,1.22
8867.00,1.22
8866.00,1.21
8865.00,1.21
8864.00,1.21
8863.00,1.21
8862.00,1.21
8861.00,1.21
8860.00,1.21
8859.00,1.21
8858.00,1.21
8857.00,1.21
8856.00,1.21
8855.00,1.21
8854.00,1.21
8853.00,1.21
8852.00,1.21
8851.00,1.21
8850.00,1.21
8849.00,1.21
8848.00,1.20
8847.00,1.20
8846.00,1.20
8845.00,1.20
8844.00,1.20
8843.00,1.20
8842.00,1.19
8841.00,1.19
8840.00,1.19
8839.00,1.19
8838.00,1.19
8837.00,1.19
8836.00,1.19
8835.00,1.19
8834.00,1.19
8833.00,1.19
8832.00,1.19
8831.00,1.18
8830.00,1.18
8829.00,1.18
8828.00,1.18
8827.00,1.18
8826.00,1.18
8825.00,1.18
8824.00,1.18
8823.00,1.18
8822.00,1.18
8821.00,1.18
8820.00,1.18
8819.00,1.18
8818.00,1.17
8817.00,1.17
8816.00,1.17
8815.00,1.17
8814.00,1.17
8813.00,1.17
8812.00,1.17
8811.00,1.17
8810.00,1.17
8809.00,1.18
8808.00,1.18
8807.00,1.18
8806.00,1.18
8805.00,1.18
8804.00,1.18
8803.00,1.18
8802.00,1.19
8801.00,1.19
8800.00,1.19
8799.00,1.19
8798.00,1.19
8797.00,1.19
8796.00,1.19
8795.00,1.19
8794.00,1.19
8793.00,1.19
8792.00,1.18
8791.00,1.18
8790.00,1.18
8789.00,1.18
8788.00,1.18
8787.00,1.17
8786.00,1.17
8785.00,1.17
8784.00,1.17
8783.00,1.16
8782.00,1.16
8781.00,1.16
8780.00,1.16
8779.00,1.16
8778.00,1.15
8777.00,1.15
8776.00,1.15
8775.00,1.15
8774.00,1.15
8773.00,1.15
8772.00,1.15
8771.00,1.15
8770.00,1.15
8769.00,1.15
8768.00,1.15
8767.00,1.15
8766.00,1.15
8765.00,1.15
8764.00,1.16
8763.00,1.16
8762.00,1.16
8761.00,1.16
8760.00,1.16
8759.00,1.16
8758.00,1.16
8757.00,1.17
8756.00,1.17
8755.00,1.17
8754.00,1.17
8753.00,1.17
8752.00,1.16
8751.00,1.16
8750.00,1.16
8749.00,1.16
8748.00,1.16
8747.00,1.16
8746.00,1.16
8745.00,1.16
8744.00,1.16
8743.00,1.15
8742.00,1.15
8741.00,1.15
8740.00,1.15
8739.00,1.15
8738.00,1.16
8737.00,1.16
8736.00,1.16
8735.00,1.16
8734.00,1.16
8733.00,1.16
8732.00,1.16
8731.00,1.16
8730.00,1.16
8729.00,1.16
8728.00,1.16
8727.00,1.16
8726.00,1.16
8725.00,1.16
8724.00,1.16
8723.00,1.16
8722.00,1.16
8721.00,1.16
8720.00,1.16
8719.00,1.16
8718.00,1.16
8717.00,1.16
8716.00,1.15
8715.00,1.15
8714.00,1.15
8713.00,1.15
8712.00,1.15
8711.00,1.15
8710.00,1.14
8709.00,1.14
8708.00,1.14
8707.00,1.14
8706.00,1.14
8705.00,1.14
8704.00,1.14
8703.00,1.14
8702.00,1.14
8701.00,1.14
8700.00,1.14
8699.00,1.14
8698.00,1.14
8697.00,1.15
8696.00,1.15
8695.00,1.15
8694.00,1.15
8693.00,1.15
8692.00,1.16
8691.00,1.16
8690.00,1.16
8689.00,1.16
8688.00,1.16
8687.00,1.16
8686.00,1.16
8685.00,1.17
8684.00,1.17
8683.00,1.17
8682.00,1.16
8681.00,1.16
8680.00,1.16
8679.00,1.16
8678.00,1.16
8677.00,1.16
8676.00,1.16
8675.00,1.16
8674.00,1.16
8673.00,1.16
8672.00,1.16
8671.00,1.16
8670.00,1.16
8669.00,1.16
8668.00,1.16
8667.00,1.16
8666.00,1.16
8665.00,1.16
8664.00,1.16
8663.00,1.16
8662.00,1.15
8661.00,1.15
8660.00,1.15
8659.00,1.15
8658.00,1.15
8657.00,1.15
8656.00,1.15
8655.00,1.15
8654.00,1.15
8653.00,1.15
8652.00,1.15
8651.00,1.15
8650.00,1.14
8649.00,1.14
8648.00,1.14
8647.00,1.14
8646.00,1.14
8645.00,1.14
8644.00,1.14
8643.00,1.14
8642.00,1.14
8641.00,1.14
8640.00,1.14
8639.00,1.14
8638.00,1.14
8637.00,1.14
8636.00,1.14
8635.00,1.14
8634.00,1.14
8633.00,1.14
8632.00,1.13
8631.00,1.13
8630.00,1.13
8629.00,1.13
8628.00,1.13
8627.00,1.13
8626.00,1.13
8625.00,1.13
8624.00,1.13
8623.00,1.13
8622.00,1.13
8621.00,1.13
8620.00,1.13
8619.00,1.13
8618.00,1.13
8617.00,1.13
8616.00,1.12
8615.00,1.12
8614.00,1.12
8613.00,1.12
8612.00,1.12
8611.00,1.12
8610.00,1.12
8609.00,1.12
8608.00,1.12
8607.00,1.12
8606.00,1.12
8605.00,1.12
8604.00,1.12
8603.00,1.12
8602.00,1.12
8601.00,1.12
8600.00,1.12
8599.00,1.11
8598.00,1.11
8597.00,1.11
8596.00,1.11
8595.00,1.11
8594.00,1.11
8593.00,1.11
8592.00,1.11
8591.00,1.11
8590.00,1.11
8589.00,1.11
8588.00,1.11
8587.00,1.12
8586.00,1.12
8585.00,1.12
8584.00,1.12
8583.00,1.12
8582.00,1.12
8581.00,1.12
8580.00,1.12
8579.00,1.13
8578.00,1.13
8577.00,1.13
8576.00,1.13
8575.00,1.13
8574.00,1.13
8573.00,1.13
8572.00,1.13
8571.00,1.13
8570.00,1.14
8569.00,1.13
8568.00,1.13
8567.00,1.13
8566.00,1.13
8565.00,1.13
8564.00,1.13
8563.00,1.13
8562.00,1.13
8561.00,1.13
8560.00,1.12
8559.00,1.12
8558.00,1.12
8557.00,1.12
8556.00,1.12
8555.00,1.12
8554.00,1.12
8553.00,1.11
8552.00,1.11
8551.00,1.11
8550.00,1.11
8549.00,1.11
8548.00,1.11
8547.00,1.11
8546.00,1.11
8545.00,1.11
8544.00,1.11
8543.00,1.11
8542.00,1.11
8541.00,1.11
8540.00,1.11
8539.00,1.11
8538.00,1.11
8537.00,1.11
8536.00,1.11
8535.00,1.12
8534.00,1.12
8533.00,1.12
8532.00,1.12
8531.00,1.12
8530.00,1.12
8529.00,1.12
8528.00,1.11
8527.00,1.11
8526.00,1.11
8525.00,1.11
8524.00,1.11
8523.00,1.11
8522.00,1.11
8521.00,1.10
8520.00,1.10
8519.00,1.10
8518.00,1.10
8517.00,1.10
8516.00,1.09
8515.00,1.09
8514.00,1.09
8513.00,1.09
8512.00,1.09
8511.00,1.09
8510.00,1.09
8509.00,1.09
8508.00,1.09
8507.00,1.09
8506.00,1.09
8505.00,1.09
8504.00,1.09
8503.00,1.09
8502.00,1.09
8501.00,1.09
8500.00,1.09
8499.00,1.09
8498.00,1.09
8497.00,1.09
8496.00,1.09
8495.00,1.09
8494.00,1.09
8493.00,1.09
8492.00,1.09
8491.00,1.09
8490.00,1.09
8489.00,1.09
8488.00,1.09
8487.00,1.09
8486.00,1.09
8485.00,1.09
8484.00,1.09
8483.00,1.09
8482.00,1.09
8481.00,1.09
8480.00,1.09
8479.00,1.09
8478.00,1.09
8477.00,1.09
8476.00,1.09
8475.00,1.09
8474.00,1.09
8473.00,1.09
8472.00,1.09
8471.00,1.09
8470.00,1.09
8469.00,1.09
8468.00,1.09
8467.00,1.09
8466.00,1.09
8465.00,1.09
8464.00,1.09
8463.00,1.08
8462.00,1.08
8461.00,1.08
8460.00,1.08
8459.00,1.08
8458.00,1.08
8457.00,1.07
8456.00,1.07
8455.00,1.07
8454.00,1.07
8453.00,1.07
8452.00,1.07
8451.00,1.07
8450.00,1.07
8449.00,1.07
8448.00,1.07
8447.00,1.07
8446.00,1.07
8445.00,1.07
8444.00,1.07
8443.00,1.07
8442.00,1.07
8441.00,1.07
8440.00,1.07
8439.00,1.08
8438.00,1.08
8437.00,1.08
8436.00,1.08
8435.00,1.08
8434.00,1.08
8433.00,1.08
8432.00,1.08
8431.00,1.08
8430.00,1.08
8429.00,1.08
8428.00,1.08
8427.00,1.08
8426.00,1.08
8425.00,1.08
8424.00,1.08
8423.00,1.08
8422.00,1.08
8421.00,1.08
8420.00,1.08
8419.00,1.08
8418.00,1.08
8417.00,1.08
8416.00,1.08
8415.00,1.08
8414.00,1.08
8413.00,1.08
8412.00,1.08
8411.00,1.08
8410.00,1.08
8409.00,1.08
8408.00,1.08
8407.00,1.08
8406.00,1.08
8405.00,1.08
8404.00,1.08
8403.00,1.08
8402.00,1.08
8401.00,1.08
8400.00,1.08
8399.00,1.08
8398.00,1.08
8397.00,1.08
8396.00,1.08
8395.00,1.08
8394.00,1.08
8393.00,1.08
8392.00,1.08
8391.00,1.08
8390.00,1.08
8389.00,1.08
8388.00,1.08
8387.00,1.08
8386.00,1.09
8385.00,1.09
8384.00,1.09
8383.00,1.09
8382.00,1.09
8381.00,1.09
8380.00,1.10
8379.00,1.10
8378.00,1.10
8377.00,1.10
8376.00,1.10
8375.00,1.10
8374.00,1.10
8373.00,1.11
8372.00,1.11
8371.00,1.11
8370.00,1.11
8369.00,1.11
8368.00,1.11
8367.00,1.11
8366.00,1.11
8365.00,1.11
8364.00,1.11
8363.00,1.11
8362.00,1.11
8361.00,1.11
8360.00,1.11
8359.00,1.11
8358.00,1.11
8357.00,1.11
8356.00,1.11
8355.00,1.11
8354.00,1.11
8353.00,1.11
8352.00,1.11
8351.00,1.10
8350.00,1.10
8349.00,1.10
8348.00,1.10
8347.00,1.10
8346.00,1.10
8345.00,1.10
8344.00,1.10
8343.00,1.10
8342.00,1.10
8341.00,1.10
8340.00,1.10
8339.00,1.10
8338.00,1.10
8337.00,1.10
8336.00,1.10
8335.00,1.10
8334.00,1.10
8333.00,1.10
8332.00,1.10
8331.00,1.10
8330.00,1.10
8329.00,1.10
8328.00,1.10
8327.00,1.10
8326.00,1.10
8325.00,1.10
8324.00,1.10
8323.00,1.10
8322.00,1.10
8321.00,1.10
8320.00,1.10
8319.00,1.10
8318.00,1.10
8317.00,1.10
8316.00,1.10
8315.00,1.10
8314.00,1.11
8313.00,1.11
8312.00,1.11
8311.00,1.11
8310.00,1.11
8309.00,1.11
8308.00,1.11
8307.00,1.11
8306.00,1.11
8305.00,1.11
8304.00,1.11
8303.00,1.11
8302.00,1.11
8301.00,1.11
8300.00,1.11
8299.00,1.11
8298.00,1.11
8297.00,1.11
8296.00,1.11
8295.00,1.11
8294.00,1.11
8293.00,1.11
8292.00,1.11
8291.00,1.11
8290.00,1.11
8289.00,1.11
8288.00,1.11
8287.00,1.11
8286.00,1.11
8285.00,1.11
8284.00,1.11
8283.00,1.11
8282.00,1.11
8281.00,1.11
8280.00,1.11
8279.00,1.11
8278.00,1.11
8277.00,1.11
8276.00,1.11
8275.00,1.11
8274.00,1.11
8273.00,1.11
8272.00,1.11
8271.00,1.11
8270.00,1.11
8269.00,1.11
8268.00,1.12
8267.00,1.12
8266.00,1.12
8265.00,1.12
8264.00,1.12
8263.00,1.12
8262.00,1.12
8261.00,1.12
8260.00,1.12
8259.00,1.12
8258.00,1.12
8257.00,1.12
8256.00,1.12
8255.00,1.12
8254.00,1.13
8253.00,1.13
8252.00,1.13
8251.00,1.13
8250.00,1.13
8249.00,1.13
8248.00,1.13
8247.00,1.13
8246.00,1.13
8245.00,1.13
8244.00,1.14
8243.00,1.14
8242.00,1.14
8241.00,1.14
8240.00,1.14
8239.00,1.14
8238.00,1.13
8237.00,1.13
8236.00,1.13
8235.00,1.13
8234.00,1.13
8233.00,1.13
8232.00,1.13
8231.00,1.13
8230.00,1.13
8229.00,1.12
8228.00,1.12
8227.00,1.12
8226.00,1.12
8225.00,1.12
8224.00,1.12
8223.00,1.13
8222.00,1.13
8221.00,1.13
8220.00,1.13
8219.00,1.13
8218.00,1.13
8217.00,1.13
8216.00,1.13
8215.00,1.14
8214.00,1.14
8213.00,1.14
8212.00,1.14
8211.00,1.14
8210.00,1.14
8209.00,1.14
8208.00,1.14
8207.00,1.14
8206.00,1.13
8205.00,1.13
8204.00,1.13
8203.00,1.13
8202.00,1.13
8201.00,1.13
8200.00,1.13
8199.00,1.12
8198.00,1.12
8197.00,1.12
8196.00,1.12
8195.00,1.12
8194.00,1.12
8193.00,1.12
8192.00,1.12
8191.00,1.12
8190.00,1.12
8189.00,1.12
8188.00,1.12
8187.00,1.12
8186.00,1.12
8185.00,1.13
8184.00,1.13
8183.00,1.13
8182.00,1.13
8181.00,1.13
8180.00,1.13
8179.00,1.13
8178.00,1.13
8177.00,1.13
8176.00,1.13
8175.00,1.13
8174.00,1.13
8173.00,1.13
8172.00,1.13
8171.00,1.13
8170.00,1.13
8169.00,1.13
8168.00,1.13
8167.00,1.13
8166.00,1.13
8165.00,1.14
8164.00,1.14
8163.00,1.14
8162.00,1.14
8161.00,1.14
8160.00,1.14
8159.00,1.14
8158.00,1.14
8157.00,1.15
8156.00,1.15
8155.00,1.15
8154.00,1.15
8153.00,1.15
8152.00,1.15
8151.00,1.15
8150.00,1.16
8149.00,1.16
8148.00,1.16
8147.00,1.16
8146.00,1.16
8145.00,1.16
8144.00,1.16
8143.00,1.16
8142.00,1.16
8141.00,1.16
8140.00,1.17
8139.00,1.17
8138.00,1.17
8137.00,1.17
8136.00,1.17
8135.00,1.16
8134.00,1.16
8133.00,1.16
8132.00,1.16
8131.00,1.16
8130.00,1.16
8129.00,1.16
8128.00,1.16
8127.00,1.16
8126.00,1.16
8125.00,1.16
8124.00,1.15
8123.00,1.15
8122.00,1.15
8121.00,1.15
8120.00,1.15
8119.00,1.15
8118.00,1.15
8117.00,1.15
8116.00,1.15
8115.00,1.16
8114.00,1.16
8113.00,1.16
8112.00,1.16
8111.00,1.16
8110.00,1.16
8109.00,1.16
8108.00,1.16
8107.00,1.16
8106.00,1.16
8105.00,1.16
8104.00,1.16
8103.00,1.15
8102.00,1.15
8101.00,1.15
8100.00,1.15
8099.00,1.15
8098.00,1.15
8097.00,1.15
8096.00,1.15
8095.00,1.15
8094.00,1.15
8093.00,1.15
8092.00,1.15
8091.00,1.15
8090.00,1.15
8089.00,1.15
8088.00,1.15
8087.00,1.15
8086.00,1.15
8085.00,1.15
8084.00,1.15
8083.00,1.15
8082.00,1.15
8081.00,1.15
8080.00,1.15
8079.00,1.15
8078.00,1.15
8077.00,1.15
8076.00,1.15
8075.00,1.15
8074.00,1.15
8073.00,1.16
8072.00,1.16
8071.00,1.16
8070.00,1.16
8069.00,1.16
8068.00,1.16
8067.00,1.16
8066.00,1.16
8065.00,1.16
8064.00,1.17
8063.00,1.17
8062.00,1.17
8061.00,1.17
8060.00,1.17
8059.00,1.17
8058.00,1.17
8057.00,1.17
8056.00,1.18
8055.00,1.18
8054.00,1.18
8053.00,1.18
8052.00,1.18
8051.00,1.18
8050.00,1.18
8049.00,1.18
8048.00,1.18
8047.00,1.18
8046.00,1.18
8045.00,1.18
8044.00,1.18
8043.00,1.18
8042.00,1.18
8041.00,1.18
8040.00,1.18
8039.00,1.18
8038.00,1.18
8037.00,1.18
8036.00,1.18
8035.00,1.18
8034.00,1.18
8033.00,1.18
8032.00,1.18
8031.00,1.18
8030.00,1.18
8029.00,1.18
8028.00,1.18
8027.00,1.18
8026.00,1.18
8025.00,1.17
8024.00,1.17
8023.00,1.17
8022.00,1.17
8021.00,1.17
8020.00,1.17
8019.00,1.17
8018.00,1.17
8017.00,1.17
8016.00,1.17
8015.00,1.17
8014.00,1.17
8013.00,1.17
8012.00,1.17
8011.00,1.17
8010.00,1.17
8009.00,1.17
8008.00,1.17
8007.00,1.17
8006.00,1.17
8005.00,1.17
8004.00,1.17
8003.00,1.17
8002.00,1.17
8001.00,1.18
8000.00,1.18
7999.00,1.18
7998.00,1.18
7997.00,1.18
7996.00,1.18
7995.00,1.18
7994.00,1.18
7993.00,1.18
7992.00,1.18
7991.00,1.18
7990.00,1.18
7989.00,1.18
7988.00,1.18
7987.00,1.18
7986.00,1.18
7985.00,1.18
7984.00,1.18
7983.00,1.19
7982.00,1.19
7981.00,1.19
7980.00,1.19
7979.00,1.19
7978.00,1.19
7977.00,1.19
7976.00,1.19
7975.00,1.19
7974.00,1.19
7973.00,1.19
7972.00,1.19
7971.00,1.19
7970.00,1.19
7969.00,1.19
7968.00,1.19
7967.00,1.19
7966.00,1.19
7965.00,1.19
7964.00,1.19
7963.00,1.19
7962.00,1.19
7961.00,1.19
7960.00,1.19
7959.00,1.19
7958.00,1.19
7957.00,1.19
7956.00,1.19
7955.00,1.19
7954.00,1.19
7953.00,1.19
7952.00,1.19
7951.00,1.19
7950.00,1.19
7949.00,1.19
7948.00,1.19
7947.00,1.19
7946.00,1.19
7945.00,1.19
7944.00,1.19
7943.00,1.19
7942.00,1.19
7941.00,1.19
7940.00,1.19
7939.00,1.19
7938.00,1.19
7937.00,1.19
7936.00,1.19
7935.00,1.19
7934.00,1.19
7933.00,1.19
7932.00,1.19
7931.00,1.19
7930.00,1.19
7929.00,1.19
7928.00,1.19
7927.00,1.19
7926.00,1.19
7925.00,1.19
7924.00,1.19
7923.00,1.19
7922.00,1.19
7921.00,1.19
7920.00,1.19
7919.00,1.19
7918.00,1.19
7917.00,1.19
7916.00,1.19
7915.00,1.19
7914.00,1.19
7913.00,1.19
7912.00,1.19
7911.00,1.19
7910.00,1.19
7909.00,1.19
7908.00,1.19
7907.00,1.19
7906.00,1.19
7905.00,1.19
7904.00,1.19
7903.00,1.19
7902.00,1.19
7901.00,1.19
7900.00,1.19
7899.00,1.19
7898.00,1.19
7897.00,1.19
7896.00,1.19
7895.00,1.19
7894.00,1.19
7893.00,1.19
7892.00,1.19
7891.00,1.19
7890.00,1.19
7889.00,1.20
7888.00,1.20
7887.00,1.20
7886.00,1.20
7885.00,1.20
7884.00,1.19
7883.00,1.19
7882.00,1.19
7881.00,1.19
7880.00,1.19
7879.00,1.19
7878.00,1.19
7877.00,1.19
7876.00,1.19
7875.00,1.19
7874.00,1.19
7873.00,1.19
7872.00,1.19
7871.00,1.19
7870.00,1.19
7869.00,1.19
7868.00,1.19
7867.00,1.19
7866.00,1.19
7865.00,1.20
7864.00,1.20
7863.00,1.20
7862.00,1.20
7861.00,1.20
7860.00,1.19
7859.00,1.19
7858.00,1.19
7857.00,1.19
7856.00,1.19
7855.00,1.19
7854.00,1.19
7853.00,1.19
7852.00,1.19
7851.00,1.19
7850.00,1.19
7849.00,1.19
7848.00,1.19
7847.00,1.19
7846.00,1.19
7845.00,1.19
7844.00,1.19
7843.00,1.19
7842.00,1.19
7841.00,1.20
7840.00,1.20
7839.00,1.20
7838.00,1.20
7837.00,1.20
7836.00,1.20
7835.00,1.20
7834.00,1.20
7833.00,1.20
7832.00,1.20
7831.00,1.20
7830.00,1.20
7829.00,1.20
7828.00,1.20
7827.00,1.20
7826.00,1.20
7825.00,1.20
7824.00,1.20
7823.00,1.20
7822.00,1.20
7821.00,1.20
7820.00,1.20
7819.00,1.20
7818.00,1.20
7817.00,1.20
7816.00,1.20
7815.00,1.20
7814.00,1.20
7813.00,1.20
7812.00,1.20
7811.00,1.20
7810.00,1.20
7809.00,1.20
7808.00,1.20
7807.00,1.20
7806.00,1.20
7805.00,1.20
7804.00,1.20
7803.00,1.20
7802.00,1.20
7801.00,1.20
7800.00,1.20
7799.00,1.20
7798.00,1.20
7797.00,1.20
7796.00,1.20
7795.00,1.20
7794.00,1.20
7793.00,1.20
7792.00,1.20
7791.00,1.20
7790.00,1.20
7789.00,1.20
7788.00,1.20
7787.00,1.20
7786.00,1.20
7785.00,1.20
7784.00,1.20
7783.00,1.20
7782.00,1.20
7781.00,1.20
7780.00,1.20
7779.00,1.20
7778.00,1.20
7777.00,1.20
7776.00,1.20
7775.00,1.20
7774.00,1.20
7773.00,1.20
7772.00,1.20
7771.00,1.21
7770.00,1.21
7769.00,1.21
7768.00,1.21
7767.00,1.21
7766.00,1.21
7765.00,1.21
7764.00,1.21
7763.00,1.21
7762.00,1.21
7761.00,1.21
7760.00,1.22
7759.00,1.22
7758.00,1.22
7757.00,1.22
7756.00,1.22
7755.00,1.22
7754.00,1.22
7753.00,1.22
7752.00,1.22
7751.00,1.22
7750.00,1.22
7749.00,1.22
7748.00,1.22
7747.00,1.22
7746.00,1.22
7745.00,1.22
7744.00,1.22
7743.00,1.22
7742.00,1.22
7741.00,1.22
7740.00,1.22
7739.00,1.22
7738.00,1.22
7737.00,1.22
7736.00,1.22
7735.00,1.22
7734.00,1.22
7733.00,1.22
7732.00,1.21
7731.00,1.21
7730.00,1.21
7729.00,1.21
7728.00,1.21
7727.00,1.21
7726.00,1.21
7725.00,1.21
7724.00,1.21
7723.00,1.21
7722.00,1.21
7721.00,1.21
7720.00,1.21
7719.00,1.21
7718.00,1.21
7717.00,1.21
7716.00,1.21
7715.00,1.21
7714.00,1.21
7713.00,1.21
7712.00,1.21
7711.00,1.21
7710.00,1.21
7709.00,1.21
7708.00,1.21
7707.00,1.21
7706.00,1.21
7705.00,1.21
7704.00,1.21
7703.00,1.21
7702.00,1.21
7701.00,1.21
7700.00,1.21
7699.00,1.22
7698.00,1.22
7697.00,1.22
7696.00,1.22
7695.00,1.22
7694.00,1.22
7693.00,1.22
7692.00,1.22
7691.00,1.22
7690.00,1.22
7689.00,1.22
7688.00,1.22
7687.00,1.22
7686.00,1.22
7685.00,1.22
7684.00,1.22
7683.00,1.22
7682.00,1.22
7681.00,1.22
7680.00,1.22
7679.00,1.22
7678.00,1.22
7677.00,1.22
7676.00,1.22
7675.00,1.22
7674.00,1.22
7673.00,1.22
7672.00,1.22
7671.00,1.22
7670.00,1.22
7669.00,1.22
7668.00,1.22
7667.00,1.22
7666.00,1.22
7665.00,1.22
7664.00,1.22
7663.00,1.22
7662.00,1.22
7661.00,1.22
7660.00,1.22
7659.00,1.22
7658.00,1.22
7657.00,1.22
7656.00,1.22
7655.00,1.22
7654.00,1.21
7653.00,1.21
7652.00,1.21
7651.00,1.21
7650.00,1.21
7649.00,1.21
7648.00,1.21
7647.00,1.21
7646.00,1.21
7645.00,1.21
7644.00,1.21
7643.00,1.21
7642.00,1.21
7641.00,1.21
7640.00,1.21
7639.00,1.21
7638.00,1.21
7637.00,1.21
7636.00,1.21
7635.00,1.21
7634.00,1.21
7633.00,1.21
7632.00,1.21
7631.00,1.21
7630.00,1.21
7629.00,1.21
7628.00,1.21
7627.00,1.21
7626.00,1.21
7625.00,1.21
7624.00,1.21
7623.00,1.21
7622.00,1.21
7621.00,1.21
7620.00,1.22
7619.00,1.22
7618.00,1.22
7617.00,1.22
7616.00,1.22
7615.00,1.22
7614.00,1.22
7613.00,1.22
7612.00,1.22
7611.00,1.22
7610.00,1.22
7609.00,1.21
7608.00,1.21
7607.00,1.21
7606.00,1.21
7605.00,1.21
7604.00,1.21
7603.00,1.21
7602.00,1.21
7601.00,1.21
7600.00,1.21
7599.00,1.21
7598.00,1.21
7597.00,1.21
7596.00,1.21
7595.00,1.21
7594.00,1.21
7593.00,1.21
7592.00,1.21
7591.00,1.21
7590.00,1.21
7589.00,1.21
7588.00,1.21
7587.00,1.21
7586.00,1.21
7585.00,1.21
7584.00,1.21
7583.00,1.22
7582.00,1.22
7581.00,1.22
7580.00,1.22
7579.00,1.22
7578.00,1.22
7577.00,1.22
7576.00,1.22
7575.00,1.22
7574.00,1.22
7573.00,1.22
7572.00,1.22
7571.00,1.22
7570.00,1.22
7569.00,1.22
7568.00,1.22
7567.00,1.22
7566.00,1.22
7565.00,1.22
7564.00,1.21
7563.00,1.21
7562.00,1.21
7561.00,1.21
7560.00,1.21
7559.00,1.21
7558.00,1.21
7557.00,1.21
7556.00,1.21
7555.00,1.21
7554.00,1.21
7553.00,1.20
7552.00,1.20
7551.00,1.20
7550.00,1.20
7549.00,1.20
7548.00,1.20
7547.00,1.20
7546.00,1.21
7545.00,1.21
7544.00,1.21
7543.00,1.21
7542.00,1.21
7541.00,1.21
7540.00,1.21
7539.00,1.21
7538.00,1.20
7537.00,1.20
7536.00,1.20
7535.00,1.20
7534.00,1.20
7533.00,1.20
7532.00,1.20
7531.00,1.20
7530.00,1.20
7529.00,1.20
7528.00,1.20
7527.00,1.20
7526.00,1.20
7525.00,1.20
7524.00,1.20
7523.00,1.20
7522.00,1.20
7521.00,1.20
7520.00,1.20
7519.00,1.20
7518.00,1.20
7517.00,1.20
7516.00,1.20
7515.00,1.20
7514.00,1.20
7513.00,1.20
7512.00,1.20
7511.00,1.20
7510.00,1.20
7509.00,1.19
7508.00,1.19
7507.00,1.19
7506.00,1.19
7505.00,1.19
7504.00,1.19
7503.00,1.19
7502.00,1.19
7501.00,1.18
7500.00,1.18
7499.00,1.18
7498.00,1.18
7497.00,1.18
7496.00,1.18
7495.00,1.18
7494.00,1.18
7493.00,1.18
7492.00,1.18
7491.00,1.18
7490.00,1.18
7489.00,1.18
7488.00,1.18
7487.00,1.18
7486.00,1.18
7485.00,1.18
7484.00,1.18
7483.00,1.18
7482.00,1.18
7481.00,1.18
7480.00,1.18
7479.00,1.18
7478.00,1.18
7477.00,1.18
7476.00,1.18
7475.00,1.18
7474.00,1.18
7473.00,1.18
7472.00,1.18
7471.00,1.18
7470.00,1.18
7469.00,1.18
7468.00,1.18
7467.00,1.18
7466.00,1.18
7465.00,1.18
7464.00,1.18
7463.00,1.18
7462.00,1.18
7461.00,1.18
7460.00,1.17
7459.00,1.17
7458.00,1.17
7457.00,1.17
7456.00,1.17
7455.00,1.17
7454.00,1.17
7453.00,1.17
7452.00,1.17
7451.00,1.17
7450.00,1.17
7449.00,1.17
7448.00,1.17
7447.00,1.16
7446.00,1.16
7445.00,1.16
7444.00,1.16
7443.00,1.16
7442.00,1.16
7441.00,1.16
7440.00,1.16
7439.00,1.16
7438.00,1.16
7437.00,1.16
7436.00,1.16
7435.00,1.16
7434.00,1.16
7433.00,1.16
7432.00,1.16
7431.00,1.16
7430.00,1.16
7429.00,1.16
7428.00,1.16
7427.00,1.16
7426.00,1.16
7425.00,1.15
7424.00,1.15
7423.00,1.15
7422.00,1.15
7421.00,1.15
7420.00,1.15
7419.00,1.15
7418.00,1.15
7417.00,1.15
7416.00,1.15
7415.00,1.15
7414.00,1.15
7413.00,1.15
7412.00,1.14
7411.00,1.14
7410.00,1.14
7409.00,1.14
7408.00,1.14
7407.00,1.14
7406.00,1.14
7405.00,1.14
7404.00,1.14
7403.00,1.14
7402.00,1.14
7401.00,1.14
7400.00,1.13
7399.00,1.13
7398.00,1.13
7397.00,1.13
7396.00,1.13
7395.00,1.13
7394.00,1.13
7393.00,1.13
7392.00,1.13
7391.00,1.13
7390.00,1.13
7389.00,1.13
7388.00,1.13
7387.00,1.13
7386.00,1.13
7385.00,1.13
7384.00,1.13
7383.00,1.13
7382.00,1.13
7381.00,1.13
7380.00,1.13
7379.00,1.13
7378.00,1.13
7377.00,1.13
7376.00,1.13
7375.00,1.13
7374.00,1.13
7373.00,1.13
7372.00,1.13
7371.00,1.13
7370.00,1.13
7369.00,1.13
7368.00,1.13
7367.00,1.13
7366.00,1.13
7365.00,1.13
7364.00,1.13
7363.00,1.13
7362.00,1.13
7361.00,1.13
7360.00,1.13
7359.00,1.13
7358.00,1.13
7357.00,1.13
7356.00,1.12
7355.00,1.12
7354.00,1.12
7353.00,1.12
7352.00,1.12
7351.00,1.12
7350.00,1.12
7349.00,1.12
7348.00,1.11
7347.00,1.11
7346.00,1.11
7345.00,1.11
7344.00,1.11
7343.00,1.11
7342.00,1.11
7341.00,1.11
7340.00,1.11
7339.00,1.11
7338.00,1.11
7337.00,1.11
7336.00,1.11
7335.00,1.11
7334.00,1.11
7333.00,1.11
7332.00,1.11
7331.00,1.11
7330.00,1.11
7329.00,1.11
7328.00,1.11
7327.00,1.11
7326.00,1.11
7325.00,1.11
7324.00,1.11
7323.00,1.10
7322.00,1.10
7321.00,1.10
7320.00,1.10
7319.00,1.10
7318.00,1.10
7317.00,1.10
7316.00,1.10
7315.00,1.10
7314.00,1.10
7313.00,1.10
7312.00,1.10
7311.00,1.10
7310.00,1.10
7309.00,1.10
7308.00,1.09
7307.00,1.09
7306.00,1.09
7305.00,1.09
7304.00,1.09
7303.00,1.09
7302.00,1.09
7301.00,1.09
7300.00,1.09
7299.00,1.09
7298.00,1.09
7297.00,1.09
7296.00,1.08
7295.00,1.08
7294.00,1.08
7293.00,1.08
7292.00,1.08
7291.00,1.08
7290.00,1.08
7289.00,1.08
7288.00,1.08
7287.00,1.08
7286.00,1.08
7285.00,1.08
7284.00,1.08
7283.00,1.08
7282.00,1.07
7281.00,1.07
7280.00,1.07
7279.00,1.07
7278.00,1.07
7277.00,1.07
7276.00,1.07
7275.00,1.07
7274.00,1.06
7273.00,1.06
7272.00,1.06
7271.00,1.06
7270.00,1.06
7269.00,1.06
7268.00,1.06
7267.00,1.06
7266.00,1.05
7265.00,1.05
7264.00,1.05
7263.00,1.05
7262.00,1.05
7261.00,1.05
7260.00,1.04
7259.00,1.04
7258.00,1.04
7257.00,1.04
7256.00,1.04
7255.00,1.03
7254.00,1.03
7253.00,1.03
7252.00,1.03
7251.00,1.02
7250.00,1.02
7249.00,1.02
7248.00,1.02
7247.00,1.01
7246.00,1.01
7245.00,1.01
7244.00,1.01
7243.00,1.00
7242.00,1.00
7241.00,1.00
7240.00,1.00
7239.00,0.99
7238.00,0.99
7237.00,0.99
7236.00,0.99
7235.00,0.98
7234.00,0.98
7233.00,0.98
7232.00,0.98
7231.00,0.97
7230.00,0.97
7229.00,0.97
7228.00,0.97
7227.00,0.96
7226.00,0.96
7225.00,0.96
7224.00,0.96
7223.00,0.95
7222.00,0.95
7221.00,0.95
7220.00,0.95
7219.00,0.94
7218.00,0.94
7217.00,0.94
7216.00,0.94
7215.00,0.93
7214.00,0.93
7213.00,0.93
7212.00,0.93
7211.00,0.92
7210.00,0.92
7209.00,0.92
7208.00,0.91
7207.00,0.91
7206.00,0.91
7205.00,0.90
7204.00,0.90
7203.00,0.90
7202.00,0.89
7201.00,0.89
7200.00,0.89
7199.00,0.88
7198.00,0.88
7197.00,0.88
7196.00,0.87
7195.00,0.87
7194.00,0.87
7193.00,0.86
7192.00,0.86
7191.00,0.86
7190.00,0.85
7189.00,0.85
7188.00,0.85
7187.00,0.84
7186.00,0.84
7185.00,0.84
7184.00,0.83
7183.00,0.83
7182.00,0.83
7181.00,0.83
7180.00,0.82
7179.00,0.82
7178.00,0.82
7177.00,0.81
7176.00,0.81
7175.00,0.81
7174.00,0.81
7173.00,0.80
7172.00,0.80
7171.00,0.80
7170.00,0.80
7169.00,0.79
7168.00,0.79
7167.00,0.79
7166.00,0.79
7165.00,0.79
7164.00,0.79
7163.00,0.78
7162.00,0.78
7161.00,0.78
7160.00,0.78
7159.00,0.78
7158.00,0.77
7157.00,0.77
7156.00,0.77
7155.00,0.77
7154.00,0.77
7153.00,0.77
7152.00,0.76
7151.00,0.76
7150.00,0.76
7149.00,0.76
7148.00,0.75
7147.00,0.75
7146.00,0.75
7145.00,0.74
7144.00,0.74
7143.00,0.74
7142.00,0.73
7141.00,0.73
7140.00,0.73
7139.00,0.72
7138.00,0.72
7137.00,0.72
7136.00,0.72
7135.00,0.71
7134.00,0.71
7133.00,0.71
7132.00,0.71
7131.00,0.70
7130.00,0.70
7129.00,0.70
7128.00,0.70
7127.00,0.69
7126.00,0.69
7125.00,0.69
7124.00,0.69
7123.00,0.68
7122.00,0.68
7121.00,0.68
7120.00,0.68
7119.00,0.68
7118.00,0.67
7117.00,0.67
7116.00,0.67
7115.00,0.67
7114.00,0.66
7113.00,0.66
7112.00,0.66
7111.00,0.66
7110.00,0.66
7109.00,0.66
7108.00,0.65
7107.00,0.65
7106.00,0.65
7105.00,0.65
7104.00,0.65
7103.00,0.65
7102.00,0.65
7101.00,0.65
7100.00,0.65
7099.00,0.65
7098.00,0.65
7097.00,0.64
7096.00,0.64
7095.00,0.64
7094.00,0.64
7093.00,0.64
7092.00,0.64
7091.00,0.64
7090.00,0.63
7089.00,0.63
7088.00,0.63
7087.00,0.63
7086.00,0.63
7085.00,0.63
7084.00,0.62
7083.00,0.62
7082.00,0.62
7081.00,0.62
7080.00,0.62
7079.00,0.62
7078.00,0.61
7077.00,0.61
7076.00,0.61
7075.00,0.61
7074.00,0.61
7073.00,0.61
7072.00,0.61
7071.00,0.60
7070.00,0.60
7069.00,0.60
7068.00,0.60
7067.00,0.60
7066.00,0.60
7065.00,0.60
7064.00,0.60
7063.00,0.60
7062.00,0.60
7061.00,0.59
7060.00,0.59
7059.00,0.59
7058.00,0.59
7057.00,0.59
7056.00,0.59
7055.00,0.59
7054.00,0.59
7053.00,0.59
7052.00,0.58
7051.00,0.58
7050.00,0.58
7049.00,0.58
7048.00,0.58
7047.00,0.58
7046.00,0.58
7045.00,0.58
7044.00,0.57
7043.00,0.57
7042.00,0.57
7041.00,0.57
7040.00,0.57
7039.00,0.57
7038.00,0.57
7037.00,0.57
7036.00,0.57
7035.00,0.56
7034.00,0.56
7033.00,0.56
7032.00,0.56
7031.00,0.56
7030.00,0.56
7029.00,0.56
7028.00,0.56
7027.00,0.56
7026.00,0.56
7025.00,0.56
7024.00,0.56
7023.00,0.56
7022.00,0.56
7021.00,0.56
7020.00,0.56
7019.00,0.56
7018.00,0.56
7017.00,0.56
7016.00,0.56
7015.00,0.56
7014.00,0.56
7013.00,0.56
7012.00,0.56
7011.00,0.56
7010.00,0.55
7009.00,0.55
7008.00,0.55
7007.00,0.55
7006.00,0.55
7005.00,0.55
7004.00,0.55
7003.00,0.55
7002.00,0.55
7001.00,0.55
7000.00,0.55
6999.00,0.55
6998.00,0.55
6997.00,0.55
6996.00,0.55
6995.00,0.55
6994.00,0.55
6993.00,0.55
6992.00,0.55
6991.00,0.55
6990.00,0.55
6989.00,0.55
6988.00,0.55
6987.00,0.55
6986.00,0.55
6985.00,0.55
6984.00,0.55
6983.00,0.55
6982.00,0.55
6981.00,0.55
6980.00,0.55
6979.00,0.55
6978.00,0.55
6977.00,0.55
6976.00,0.55
6975.00,0.55
6974.00,0.55
6973.00,0.55
6972.00,0.54
6971.00,0.54
6970.00,0.54
6969.00,0.54
6968.00,0.54
6967.00,0.54
6966.00,0.54
6965.00,0.54
6964.00,0.54
6963.00,0.54
6962.00,0.54
6961.00,0.54
6960.00,0.54
6959.00,0.54
6958.00,0.54
6957.00,0.54
6956.00,0.54
6955.00,0.54
6954.00,0.54
6953.00,0.54
6952.00,0.54
6951.00,0.54
6950.00,0.54
6949.00,0.54
6948.00,0.54
6947.00,0.53
6946.00,0.53
6945.00,0.53
6944.00,0.53
6943.00,0.53
6942.00,0.53
6941.00,0.53
6940.00,0.53
6939.00,0.53
6938.00,0.53
6937.00,0.53
6936.00,0.53
6935.00,0.53
6934.00,0.53
6933.00,0.53
6932.00,0.53
6931.00,0.53
6930.00,0.53
6929.00,0.53
6928.00,0.53
6927.00,0.53
6926.00,0.53
6925.00,0.53
6924.00,0.53
6923.00,0.53
6922.00,0.53
6921.00,0.53
6920.00,0.53
6919.00,0.53
6918.00,0.53
6917.00,0.53
6916.00,0.53
6915.00,0.53
6914.00,0.53
6913.00,0.53
6912.00,0.53
6911.00,0.52
6910.00,0.52
6909.00,0.52
6908.00,0.52
6907.00,0.52
6906.00,0.52
6905.00,0.52
6904.00,0.52
6903.00,0.52
6902.00,0.52
6901.00,0.52
6900.00,0.52
6899.00,0.52
6898.00,0.52
6897.00,0.52
6896.00,0.52
6895.00,0.52
6894.00,0.52
6893.00,0.53
6892.00,0.53
6891.00,0.53
6890.00,0.52
6889.00,0.52
6888.00,0.52
6887.00,0.52
6886.00,0.52
6885.00,0.52
6884.00,0.52
6883.00,0.52
6882.00,0.52
6881.00,0.52
6880.00,0.52
6879.00,0.52
6878.00,0.52
6877.00,0.52
6876.00,0.52
6875.00,0.52
6874.00,0.52
6873.00,0.52
6872.00,0.52
6871.00,0.52
6870.00,0.52
6869.00,0.52
6868.00,0.52
6867.00,0.52
6866.00,0.52
6865.00,0.52
6864.00,0.53
6863.00,0.53
6862.00,0.53
6861.00,0.53
6860.00,0.53
6859.00,0.53
6858.00,0.53
6857.00,0.53
6856.00,0.53
6855.00,0.53
6854.00,0.53
6853.00,0.53
6852.00,0.53
6851.00,0.53
6850.00,0.53
6849.00,0.53
6848.00,0.53
6847.00,0.53
6846.00,0.53
6845.00,0.53
6844.00,0.53
6843.00,0.53
6842.00,0.53
6841.00,0.53
6840.00,0.53
6839.00,0.53
6838.00,0.53
6837.00,0.53
6836.00,0.53
6835.00,0.53
6834.00,0.53
6833.00,0.53
6832.00,0.54
6831.00,0.54
6830.00,0.54
6829.00,0.54
6828.00,0.54
6827.00,0.54
6826.00,0.54
6825.00,0.54
6824.00,0.54
6823.00,0.54
6822.00,0.54
6821.00,0.54
6820.00,0.54
6819.00,0.54
6818.00,0.54
6817.00,0.54
6816.00,0.54
6815.00,0.54
6814.00,0.54
6813.00,0.54
6812.00,0.55
6811.00,0.55
6810.00,0.55
6809.00,0.55
6808.00,0.55
6807.00,0.55
6806.00,0.55
6805.00,0.55
6804.00,0.55
6803.00,0.55
6802.00,0.55
6801.00,0.54
6800.00,0.54
6799.00,0.54
6798.00,0.54
6797.00,0.54
6796.00,0.54
6795.00,0.54
6794.00,0.54
6793.00,0.54
6792.00,0.54
6791.00,0.54
6790.00,0.54
6789.00,0.54
6788.00,0.55
6787.00,0.55
6786.00,0.55
6785.00,0.55
6784.00,0.55
6783.00,0.55
6782.00,0.55
6781.00,0.55
6780.00,0.55
6779.00,0.55
6778.00,0.55
6777.00,0.55
6776.00,0.55
6775.00,0.55
6774.00,0.55
6773.00,0.55
6772.00,0.55
6771.00,0.56
6770.00,0.56
6769.00,0.56
6768.00,0.56
6767.00,0.56
6766.00,0.56
6765.00,0.56
6764.00,0.56
6763.00,0.56
6762.00,0.56
6761.00,0.56
6760.00,0.56
6759.00,0.56
6758.00,0.56
6757.00,0.56
6756.00,0.56
6755.00,0.56
6754.00,0.56
6753.00,0.56
6752.00,0.56
6751.00,0.56
6750.00,0.56
6749.00,0.56
6748.00,0.56
6747.00,0.56
6746.00,0.56
6745.00,0.57
6744.00,0.57
6743.00,0.57
6742.00,0.57
6741.00,0.57
6740.00,0.57
6739.00,0.57
6738.00,0.57
6737.00,0.57
6736.00,0.57
6735.00,0.57
6734.00,0.57
6733.00,0.57
6732.00,0.57
6731.00,0.57
6730.00,0.57
6729.00,0.57
6728.00,0.57
6727.00,0.57
6726.00,0.57
6725.00,0.58
6724.00,0.58
6723.00,0.58
6722.00,0.58
6721.00,0.58
6720.00,0.58
6719.00,0.58
6718.00,0.58
6717.00,0.59
6716.00,0.59
6715.00,0.59
6714.00,0.59
6713.00,0.59
6712.00,0.59
6711.00,0.60
6710.00,0.60
6709.00,0.60
6708.00,0.60
6707.00,0.60
6706.00,0.60
6705.00,0.60
6704.00,0.60
6703.00,0.60
6702.00,0.60
6701.00,0.60
6700.00,0.60
6699.00,0.60
6698.00,0.60
6697.00,0.60
6696.00,0.60
6695.00,0.60
6694.00,0.60
6693.00,0.60
6692.00,0.60
6691.00,0.60
6690.00,0.60
6689.00,0.61
6688.00,0.61
6687.00,0.61
6686.00,0.61
6685.00,0.61
6684.00,0.61
6683.00,0.61
6682.00,0.61
6681.00,0.61
6680.00,0.61
6679.00,0.61
6678.00,0.61
6677.00,0.61
6676.00,0.61
6675.00,0.61
6674.00,0.61
6673.00,0.61
6672.00,0.61
6671.00,0.61
6670.00,0.61
6669.00,0.61
6668.00,0.61
6667.00,0.61
6666.00,0.61
6665.00,0.61
6664.00,0.62
6663.00,0.62
6662.00,0.62
6661.00,0.62
6660.00,0.62
6659.00,0.62
6658.00,0.62
6657.00,0.62
6656.00,0.62
6655.00,0.63
6654.00,0.63
6653.00,0.63
6652.00,0.63
6651.00,0.63
6650.00,0.63
6649.00,0.63
6648.00,0.64
6647.00,0.64
6646.00,0.64
6645.00,0.64
6644.00,0.64
6643.00,0.64
6642.00,0.64
6641.00,0.64
6640.00,0.64
6639.00,0.64
6638.00,0.64
6637.00,0.65
6636.00,0.65
6635.00,0.65
6634.00,0.65
6633.00,0.65
6632.00,0.65
6631.00,0.65
6630.00,0.65
6629.00,0.65
6628.00,0.65
6627.00,0.65
6626.00,0.65
6625.00,0.65
6624.00,0.65
6623.00,0.65
6622.00,0.65
6621.00,0.65
6620.00,0.65
6619.00,0.65
6618.00,0.65
6617.00,0.65
6616.00,0.65
6615.00,0.65
6614.00,0.65
6613.00,0.65
6612.00,0.66
6611.00,0.66
6610.00,0.66
6609.00,0.66
6608.00,0.66
6607.00,0.66
6606.00,0.66
6605.00,0.66
6604.00,0.66
6603.00,0.66
6602.00,0.66
6601.00,0.67
6600.00,0.67
6599.00,0.67
6598.00,0.67
6597.00,0.67
6596.00,0.67
6595.00,0.67
6594.00,0.67
6593.00,0.68
6592.00,0.68
6591.00,0.68
6590.00,0.68
6589.00,0.68
6588.00,0.68
6587.00,0.68
6586.00,0.68
6585.00,0.68
6584.00,0.69
6583.00,0.69
6582.00,0.69
6581.00,0.69
6580.00,0.69
6579.00,0.69
6578.00,0.69
6577.00,0.69
6576.00,0.69
6575.00,0.70
6574.00,0.70
6573.00,0.70
6572.00,0.70
6571.00,0.70
6570.00,0.70
6569.00,0.70
6568.00,0.71
6567.00,0.71
6566.00,0.71
6565.00,0.71
6564.00,0.71
6563.00,0.71
6562.00,0.71
6561.00,0.71
6560.00,0.71
6559.00,0.71
6558.00,0.71
6557.00,0.71
6556.00,0.71
6555.00,0.71
6554.00,0.72
6553.00,0.72
6552.00,0.72
6551.00,0.72
6550.00,0.72
6549.00,0.72
6548.00,0.72
6547.00,0.72
6546.00,0.72
6545.00,0.72
6544.00,0.72
6543.00,0.72
6542.00,0.72
6541.00,0.72
6540.00,0.73
6539.00,0.73
6538.00,0.73
6537.00,0.73
6536.00,0.73
6535.00,0.73
6534.00,0.73
6533.00,0.73
6532.00,0.73
6531.00,0.73
6530.00,0.74
6529.00,0.74
6528.00,0.74
6527.00,0.74
6526.00,0.74
6525.00,0.74
6524.00,0.74
6523.00,0.74
6522.00,0.74
6521.00,0.74
6520.00,0.74
6519.00,0.74
6518.00,0.74
6517.00,0.74
6516.00,0.74
6515.00,0.75
6514.00,0.75
6513.00,0.75
6512.00,0.75
6511.00,0.75
6510.00,0.75
6509.00,0.75
6508.00,0.75
6507.00,0.75
6506.00,0.75
6505.00,0.75
6504.00,0.75
6503.00,0.76
6502.00,0.76
6501.00,0.76
6500.00,0.76
6499.00,0.76
6498.00,0.76
6497.00,0.76
6496.00,0.76
6495.00,0.76
6494.00,0.76
6493.00,0.76
6492.00,0.76
6491.00,0.76
6490.00,0.76
6489.00,0.76
6488.00,0.76
6487.00,0.76
6486.00,0.76
6485.00,0.77
6484.00,0.77
6483.00,0.77
6482.00,0.77
6481.00,0.77
6480.00,0.77
6479.00,0.77
6478.00,0.77
6477.00,0.77
6476.00,0.77
6475.00,0.77
6474.00,0.77
6473.00,0.77
6472.00,0.77
6471.00,0.77
6470.00,0.77
6469.00,0.77
6468.00,0.77
6467.00,0.77
6466.00,0.77
6465.00,0.78
6464.00,0.78
6463.00,0.78
6462.00,0.78
6461.00,0.78
6460.00,0.78
6459.00,0.78
6458.00,0.78
6457.00,0.78
6456.00,0.79
6455.00,0.79
6454.00,0.79
6453.00,0.79
6452.00,0.79
6451.00,0.79
6450.00,0.79
6449.00,0.79
6448.00,0.79
6447.00,0.79
6446.00,0.79
6445.00,0.79
6444.00,0.79
6443.00,0.79
6442.00,0.79
6441.00,0.79
6440.00,0.79
6439.00,0.79
6438.00,0.80
6437.00,0.80
6436.00,0.80
6435.00,0.80
6434.00,0.80
6433.00,0.80
6432.00,0.80
6431.00,0.80
6430.00,0.80
6429.00,0.80
6428.00,0.80
6427.00,0.80
6426.00,0.80
6425.00,0.80
6424.00,0.80
6423.00,0.80
6422.00,0.80
6421.00,0.80
6420.00,0.80
6419.00,0.80
6418.00,0.80
6417.00,0.80
6416.00,0.80
6415.00,0.80
6414.00,0.80
6413.00,0.80
6412.00,0.80
6411.00,0.80
6410.00,0.81
6409.00,0.81
6408.00,0.81
6407.00,0.81
6406.00,0.81
6405.00,0.81
6404.00,0.81
6403.00,0.81
6402.00,0.81
6401.00,0.81
6400.00,0.81
6399.00,0.82
6398.00,0.82
6397.00,0.82
6396.00,0.82
6395.00,0.82
6394.00,0.82
6393.00,0.82
6392.00,0.82
6391.00,0.82
6390.00,0.82
6389.00,0.82
6388.00,0.82
6387.00,0.83
6386.00,0.83
6385.00,0.83
6384.00,0.83
6383.00,0.83
6382.00,0.83
6381.00,0.83
6380.00,0.83
6379.00,0.83
6378.00,0.83
6377.00,0.84
6376.00,0.84
6375.00,0.84
6374.00,0.84
6373.00,0.84
6372.00,0.84
6371.00,0.84
6370.00,0.84
6369.00,0.84
6368.00,0.84
6367.00,0.84
6366.00,0.84
6365.00,0.84
6364.00,0.84
6363.00,0.84
6362.00,0.84
6361.00,0.84
6360.00,0.85
6359.00,0.85
6358.00,0.85
6357.00,0.85
6356.00,0.85
6355.00,0.85
6354.00,0.85
6353.00,0.85
6352.00,0.85
6351.00,0.85
6350.00,0.85
6349.00,0.85
6348.00,0.85
6347.00,0.85
6346.00,0.85
6345.00,0.85
6344.00,0.85
6343.00,0.85
6342.00,0.86
6341.00,0.86
6340.00,0.86
6339.00,0.86
6338.00,0.86
6337.00,0.86
6336.00,0.86
6335.00,0.86
6334.00,0.86
6333.00,0.86
6332.00,0.86
6331.00,0.86
6330.00,0.86
6329.00,0.86
6328.00,0.86
6327.00,0.86
6326.00,0.86
6325.00,0.86
6324.00,0.86
6323.00,0.87
6322.00,0.87
6321.00,0.87
6320.00,0.87
6319.00,0.87
6318.00,0.87
6317.00,0.87
6316.00,0.87
6315.00,0.88
6314.00,0.88
6313.00,0.88
6312.00,0.88
6311.00,0.88
6310.00,0.88
6309.00,0.88
6308.00,0.88
6307.00,0.89
6306.00,0.89
6305.00,0.89
6304.00,0.89
6303.00,0.89
6302.00,0.89
6301.00,0.89
6300.00,0.90
6299.00,0.90
6298.00,0.90
6297.00,0.90
6296.00,0.90
6295.00,0.90
6294.00,0.91
6293.00,0.91
6292.00,0.91
6291.00,0.91
6290.00,0.91
6289.00,0.91
6288.00,0.91
6287.00,0.91
6286.00,0.92
6285.00,0.92
6284.00,0.92
6283.00,0.92
6282.00,0.92
6281.00,0.92
6280.00,0.92
6279.00,0.92
6278.00,0.92
6277.00,0.92
6276.00,0.92
6275.00,0.92
6274.00,0.92
6273.00,0.92
6272.00,0.92
6271.00,0.92
6270.00,0.92
6269.00,0.92
6268.00,0.92
6267.00,0.92
6266.00,0.92
6265.00,0.92
6264.00,0.92
6263.00,0.93
6262.00,0.93
6261.00,0.93
6260.00,0.93
6259.00,0.93
6258.00,0.93
6257.00,0.93
6256.00,0.94
6255.00,0.94
6254.00,0.94
6253.00,0.94
6252.00,0.94
6251.00,0.94
6250.00,0.94
6249.00,0.94
6248.00,0.95
6247.00,0.95
6246.00,0.95
6245.00,0.95
6244.00,0.95
6243.00,0.95
6242.00,0.95
6241.00,0.96
6240.00,0.96
6239.00,0.96
6238.00,0.96
6237.00,0.96
6236.00,0.96
6235.00,0.96
6234.00,0.96
6233.00,0.96
6232.00,0.96
6231.00,0.97
6230.00,0.97
6229.00,0.97
6228.00,0.97
6227.00,0.97
6226.00,0.97
6225.00,0.97
6224.00,0.97
6223.00,0.97
6222.00,0.98
6221.00,0.98
6220.00,0.98
6219.00,0.98
6218.00,0.98
6217.00,0.98
6216.00,0.99
6215.00,0.99
6214.00,0.99
6213.00,0.99
6212.00,0.99
6211.00,1.00
6210.00,1.00
6209.00,1.00
6208.00,1.00
6207.00,1.00
6206.00,1.00
6205.00,1.00
6204.00,1.00
6203.00,1.00
6202.00,1.00
6201.00,1.01
6200.00,1.01
6199.00,1.01
6198.00,1.01
6197.00,1.01
6196.00,1.01
6195.00,1.01
6194.00,1.01
6193.00,1.01
6192.00,1.01
6191.00,1.01
6190.00,1.01
6189.00,1.01
6188.00,1.02
6187.00,1.02
6186.00,1.02
6185.00,1.02
6184.00,1.02
6183.00,1.02
6182.00,1.02
6181.00,1.02
6180.00,1.02
6179.00,1.02
6178.00,1.02
6177.00,1.03
6176.00,1.03
6175.00,1.03
6174.00,1.03
6173.00,1.03
6172.00,1.03
6171.00,1.03
6170.00,1.04
6169.00,1.04
6168.00,1.04
6167.00,1.04
6166.00,1.04
6165.00,1.04
6164.00,1.04
6163.00,1.05
6162.00,1.05
6161.00,1.05
6160.00,1.05
6159.00,1.05
6158.00,1.05
6157.00,1.06
6156.00,1.06
6155.00,1.06
6154.00,1.06
6153.00,1.06
6152.00,1.06
6151.00,1.06
6150.00,1.07
6149.00,1.07
6148.00,1.07
6147.00,1.07
6146.00,1.07
6145.00,1.07
6144.00,1.07
6143.00,1.07
6142.00,1.07
6141.00,1.07
6140.00,1.08
6139.00,1.08
6138.00,1.08
6137.00,1.08
6136.00,1.08
6135.00,1.08
6134.00,1.08
6133.00,1.08
6132.00,1.08
6131.00,1.08
6130.00,1.08
6129.00,1.08
6128.00,1.08
6127.00,1.09
6126.00,1.09
6125.00,1.09
6124.00,1.09
6123.00,1.09
6122.00,1.09
6121.00,1.09
6120.00,1.10
6119.00,1.10
6118.00,1.10
6117.00,1.10
6116.00,1.10
6115.00,1.10
6114.00,1.11
6113.00,1.11
6112.00,1.11
6111.00,1.11
6110.00,1.11
6109.00,1.11
6108.00,1.11
6107.00,1.11
6106.00,1.12
6105.00,1.12
6104.00,1.12
6103.00,1.12
6102.00,1.12
6101.00,1.12
6100.00,1.12
6099.00,1.12
6098.00,1.12
6097.00,1.12
6096.00,1.12
6095.00,1.12
6094.00,1.12
6093.00,1.13
6092.00,1.13
6091.00,1.13
6090.00,1.13
6089.00,1.13
6088.00,1.13
6087.00,1.13
6086.00,1.13
6085.00,1.13
6084.00,1.13
6083.00,1.13
6082.00,1.14
6081.00,1.14
6080.00,1.14
6079.00,1.14
6078.00,1.14
6077.00,1.14
6076.00,1.14
6075.00,1.14
6074.00,1.14
6073.00,1.14
6072.00,1.14
6071.00,1.14
6070.00,1.14
6069.00,1.15
6068.00,1.15
6067.00,1.15
6066.00,1.15
6065.00,1.15
6064.00,1.15
6063.00,1.15
6062.00,1.15
6061.00,1.15
6060.00,1.15
6059.00,1.15
6058.00,1.15
6057.00,1.16
6056.00,1.16
6055.00,1.16
6054.00,1.16
6053.00,1.16
6052.00,1.16
6051.00,1.16
6050.00,1.16
6049.00,1.16
6048.00,1.17
6047.00,1.17
6046.00,1.17
6045.00,1.17
6044.00,1.17
6043.00,1.17
6042.00,1.17
6041.00,1.17
6040.00,1.17
6039.00,1.17
6038.00,1.18
6037.00,1.18
6036.00,1.18
6035.00,1.18
6034.00,1.18
6033.00,1.18
6032.00,1.18
6031.00,1.18
6030.00,1.18
6029.00,1.18
6028.00,1.18
6027.00,1.18
6026.00,1.18
6025.00,1.18
6024.00,1.18
6023.00,1.18
6022.00,1.18
6021.00,1.18
6020.00,1.18
6019.00,1.18
6018.00,1.18
6017.00,1.18
6016.00,1.18
6015.00,1.18
6014.00,1.18
6013.00,1.18
6012.00,1.18
6011.00,1.18
6010.00,1.18
6009.00,1.18
6008.00,1.18
6007.00,1.18
6006.00,1.18
6005.00,1.18
6004.00,1.18
6003.00,1.17
6002.00,1.17
6001.00,1.17
6000.00,1.17
5999.00,1.17
5998.00,1.17
5997.00,1.17
5996.00,1.17
5995.00,1.17
5994.00,1.17
5993.00,1.17
5992.00,1.17
5991.00,1.17
5990.00,1.17
5989.00,1.16
5988.00,1.16
5987.00,1.16
5986.00,1.16
5985.00,1.16
5984.00,1.16
5983.00,1.15
5982.00,1.15
5981.00,1.15
5980.00,1.15
5979.00,1.14
5978.00,1.14
5977.00,1.14
5976.00,1.13
5975.00,1.13
5974.00,1.13
5973.00,1.12
5972.00,1.12
5971.00,1.11
5970.00,1.11
5969.00,1.10
5968.00,1.10
5967.00,1.09
5966.00,1.09
5965.00,1.08
5964.00,1.08
5963.00,1.07
5962.00,1.07
5961.00,1.06
5960.00,1.06
5959.00,1.05
5958.00,1.05
5957.00,1.04
5956.00,1.04
5955.00,1.03
5954.00,1.03
5953.00,1.02
5952.00,1.02
5951.00,1.01
5950.00,1.01
5949.00,1.01
5948.00,1.00
5947.00,1.00
5946.00,1.00
5945.00,0.99
5944.00,0.99
5943.00,0.99
5942.00,0.99
5941.00,0.99
5940.00,0.98
5939.00,0.98
5938.00,0.98
5937.00,0.98
5936.00,0.98
5935.00,0.98
5934.00,0.98
5933.00,0.98
5932.00,0.97
5931.00,0.97
5930.00,0.97
5929.00,0.97
5928.00,0.97
5927.00,0.97
5926.00,0.97
5925.00,0.97
5924.00,0.96
5923.00,0.96
5922.00,0.96
5921.00,0.96
5920.00,0.96
5919.00,0.96
5918.00,0.95
5917.00,0.95
5916.00,0.95
5915.00,0.95
5914.00,0.95
5913.00,0.95
5912.00,0.94
5911.00,0.94
5910.00,0.94
5909.00,0.94
5908.00,0.94
5907.00,0.94
5906.00,0.94
5905.00,0.93
5904.00,0.93
5903.00,0.93
5902.00,0.93
5901.00,0.93
5900.00,0.93
5899.00,0.93
5898.00,0.94
5897.00,0.94
5896.00,0.94
5895.00,0.94
5894.00,0.94
5893.00,0.94
5892.00,0.94
5891.00,0.95
5890.00,0.95
5889.00,0.95
5888.00,0.95
5887.00,0.95
5886.00,0.96
5885.00,0.96
5884.00,0.96
5883.00,0.96
5882.00,0.97
5881.00,0.97
5880.00,0.97
5879.00,0.97
5878.00,0.98
5877.00,0.98
5876.00,0.98
5875.00,0.98
5874.00,0.98
5873.00,0.98
5872.00,0.99
5871.00,0.99
5870.00,0.99
5869.00,0.99
5868.00,0.99
5867.00,0.99
5866.00,1.00
5865.00,1.00
5864.00,1.00
5863.00,1.00
5862.00,1.00
5861.00,1.00
5860.00,1.00
5859.00,1.00
5858.00,1.00
5857.00,1.00
5856.00,1.00
5855.00,1.00
5854.00,1.01
5853.00,1.01
5852.00,1.01
5851.00,1.01
5850.00,1.01
5849.00,1.01
5848.00,1.01
5847.00,1.01
5846.00,1.01
5845.00,1.01
5844.00,1.01
5843.00,1.01
5842.00,1.01
5841.00,1.01
5840.00,1.01
5839.00,1.01
5838.00,1.01
5837.00,1.01
5836.00,1.01
5835.00,1.01
5834.00,1.01
5833.00,1.01
5832.00,1.01
5831.00,1.01
5830.00,1.01
5829.00,1.01
5828.00,1.01
5827.00,1.01
5826.00,1.01
5825.00,1.01
5824.00,1.01
5823.00,1.01
5822.00,1.01
5821.00,1.01
5820.00,1.01
5819.00,1.01
5818.00,1.01
5817.00,1.01
5816.00,1.01
5815.00,1.01
5814.00,1.01
5813.00,1.01
5812.00,1.01
5811.00,1.01
5810.00,1.01
5809.00,1.01
5808.00,1.01
5807.00,1.01
5806.00,1.01
5805.00,1.01
5804.00,1.01
5803.00,1.01
5802.00,1.00
5801.00,1.00
5800.00,1.00
5799.00,1.00
5798.00,1.00
5797.00,1.00
5796.00,1.00
5795.00,1.00
5794.00,0.99
5793.00,0.99
5792.00,0.99
5791.00,0.99
5790.00,0.99
5789.00,0.99
5788.00,0.98
5787.00,0.98
5786.00,0.98
5785.00,0.98
5784.00,0.98
5783.00,0.98
5782.00,0.97
5781.00,0.97
5780.00,0.97
5779.00,0.97
5778.00,0.97
5777.00,0.97
5776.00,0.97
5775.00,0.97
5774.00,0.97
5773.00,0.97
5772.00,0.97
5771.00,0.97
5770.00,0.97
5769.00,0.97
5768.00,0.97
5767.00,0.97
5766.00,0.97
5765.00,0.97
5764.00,0.98
5763.00,0.98
5762.00,0.98
5761.00,0.98
5760.00,0.98
5759.00,0.98
5758.00,0.99
5757.00,0.99
5756.00,0.99
5755.00,0.99
5754.00,1.00
5753.00,1.00
5752.00,1.00
5751.00,1.00
5750.00,1.01
5749.00,1.01
5748.00,1.01
5747.00,1.01
5746.00,1.01
5745.00,1.02
5744.00,1.02
5743.00,1.02
5742.00,1.02
5741.00,1.03
5740.00,1.03
5739.00,1.03
5738.00,1.03
5737.00,1.03
5736.00,1.04
5735.00,1.04
5734.00,1.04
5733.00,1.04
5732.00,1.04
5731.00,1.04
5730.00,1.05
5729.00,1.05
5728.00,1.05
5727.00,1.05
5726.00,1.05
5725.00,1.05
5724.00,1.05
5723.00,1.05
5722.00,1.05
5721.00,1.05
5720.00,1.05
5719.00,1.05
5718.00,1.05
5717.00,1.05
5716.00,1.05
5715.00,1.05
5714.00,1.05
5713.00,1.05
5712.00,1.05
5711.00,1.05
5710.00,1.05
5709.00,1.05
5708.00,1.05
5707.00,1.05
5706.00,1.04
5705.00,1.04
5704.00,1.04
5703.00,1.04
5702.00,1.04
5701.00,1.04
5700.00,1.04
5699.00,1.04
5698.00,1.04
5697.00,1.03
5696.00,1.03
5695.00,1.03
5694.00,1.03
5693.00,1.03
5692.00,1.03
5691.00,1.03
5690.00,1.02
5689.00,1.02
5688.00,1.02
5687.00,1.02
5686.00,1.02
5685.00,1.02
5684.00,1.02
5683.00,1.02
5682.00,1.02
5681.00,1.02
5680.00,1.01
5679.00,1.01
5678.00,1.01
5677.00,1.01
5676.00,1.01
5675.00,1.01
5674.00,1.01
5673.00,1.01
5672.00,1.01
5671.00,1.01
5670.00,1.02
5669.00,1.02
5668.00,1.02
5667.00,1.02
5666.00,1.02
5665.00,1.02
5664.00,1.02
5663.00,1.02
5662.00,1.02
5661.00,1.02
5660.00,1.02
5659.00,1.02
5658.00,1.02
5657.00,1.02
5656.00,1.02
5655.00,1.02
5654.00,1.03
5653.00,1.03
5652.00,1.03
5651.00,1.03
5650.00,1.03
5649.00,1.03
5648.00,1.03
5647.00,1.03
5646.00,1.03
5645.00,1.04
5644.00,1.04
5643.00,1.04
5642.00,1.04
5641.00,1.04
5640.00,1.04
5639.00,1.05
5638.00,1.05
5637.00,1.05
5636.00,1.05
5635.00,1.05
5634.00,1.05
5633.00,1.05
5632.00,1.06
5631.00,1.06
5630.00,1.06
5629.00,1.06
5628.00,1.06
5627.00,1.06
5626.00,1.06
5625.00,1.06
5624.00,1.07
5623.00,1.07
5622.00,1.07
5621.00,1.07
5620.00,1.07
5619.00,1.07
5618.00,1.07
5617.00,1.07
5616.00,1.07
5615.00,1.08
5614.00,1.08
5613.00,1.08
5612.00,1.08
5611.00,1.08
5610.00,1.08
5609.00,1.08
5608.00,1.08
5607.00,1.08
5606.00,1.09
5605.00,1.09
5604.00,1.09
5603.00,1.09
5602.00,1.09
5601.00,1.09
5600.00,1.09
5599.00,1.09
5598.00,1.10
5597.00,1.10
5596.00,1.10
5595.00,1.10
5594.00,1.10
5593.00,1.10
5592.00,1.10
5591.00,1.10
5590.00,1.11
5589.00,1.11
5588.00,1.11
5587.00,1.11
5586.00,1.11
5585.00,1.11
5584.00,1.11
5583.00,1.11
5582.00,1.11
5581.00,1.12
5580.00,1.12
5579.00,1.12
5578.00,1.12
5577.00,1.12
5576.00,1.12
5575.00,1.12
5574.00,1.12
5573.00,1.13
5572.00,1.13
5571.00,1.13
5570.00,1.13
5569.00,1.13
5568.00,1.13
5567.00,1.13
5566.00,1.13
5565.00,1.13
5564.00,1.14
5563.00,1.14
5562.00,1.14
5561.00,1.14
5560.00,1.14
5559.00,1.14
5558.00,1.14
5557.00,1.14
5556.00,1.14
5555.00,1.14
5554.00,1.14
5553.00,1.14
5552.00,1.15
5551.00,1.15
5550.00,1.15
5549.00,1.15
5548.00,1.15
5547.00,1.15
5546.00,1.15
5545.00,1.15
5544.00,1.15
5543.00,1.15
5542.00,1.16
5541.00,1.16
5540.00,1.16
5539.00,1.16
5538.00,1.16
5537.00,1.16
5536.00,1.16
5535.00,1.16
5534.00,1.16
5533.00,1.16
5532.00,1.16
5531.00,1.17
5530.00,1.17
5529.00,1.17
5528.00,1.17
5527.00,1.17
5526.00,1.17
5525.00,1.17
5524.00,1.17
5523.00,1.17
5522.00,1.17
5521.00,1.17
5520.00,1.17
5519.00,1.17
5518.00,1.17
5517.00,1.17
5516.00,1.17
5515.00,1.17
5514.00,1.17
5513.00,1.18
5512.00,1.18
5511.00,1.18
5510.00,1.18
5509.00,1.18
5508.00,1.18
5507.00,1.18
5506.00,1.18
5505.00,1.18
5504.00,1.18
5503.00,1.18
5502.00,1.18
5501.00,1.18
5500.00,1.18
5499.00,1.18
5498.00,1.18
5497.00,1.18
5496.00,1.18
5495.00,1.19
5494.00,1.19
5493.00,1.19
5492.00,1.19
5491.00,1.19
5490.00,1.19
5489.00,1.19
5488.00,1.19
5487.00,1.19
5486.00,1.20
5485.00,1.20
5484.00,1.20
5483.00,1.20
5482.00,1.20
5481.00,1.20
5480.00,1.20
5479.00,1.20
5478.00,1.20
5477.00,1.20
5476.00,1.21
5475.00,1.21
5474.00,1.21
5473.00,1.21
5472.00,1.21
5471.00,1.21
5470.00,1.21
5469.00,1.21
5468.00,1.21
5467.00,1.22
5466.00,1.22
5465.00,1.22
5464.00,1.22
5463.00,1.22
5462.00,1.22
5461.00,1.22
5460.00,1.22
5459.00,1.22
5458.00,1.22
5457.00,1.22
5456.00,1.22
5455.00,1.22
5454.00,1.22
5453.00,1.22
5452.00,1.22
5451.00,1.22
5450.00,1.22
5449.00,1.22
5448.00,1.22
5447.00,1.22
5446.00,1.22
5445.00,1.22
5444.00,1.22
5443.00,1.22
5442.00,1.22
5441.00,1.22
5440.00,1.22
5439.00,1.22
5438.00,1.22
5437.00,1.22
5436.00,1.22
5435.00,1.22
5434.00,1.22
5433.00,1.22
5432.00,1.22
5431.00,1.22
5430.00,1.22
5429.00,1.22
5428.00,1.22
5427.00,1.22
5426.00,1.22
5425.00,1.22
5424.00,1.22
5423.00,1.22
5422.00,1.22
5421.00,1.22
5420.00,1.22
5419.00,1.22
5418.00,1.22
5417.00,1.22
5416.00,1.22
5415.00,1.22
5414.00,1.22
5413.00,1.22
5412.00,1.22
5411.00,1.22
5410.00,1.22
5409.00,1.22
5408.00,1.22
5407.00,1.22
5406.00,1.22
5405.00,1.22
5404.00,1.22
5403.00,1.22
5402.00,1.22
5401.00,1.22
5400.00,1.22
5399.00,1.22
5398.00,1.22
5397.00,1.22
5396.00,1.21
5395.00,1.21
5394.00,1.21
5393.00,1.21
5392.00,1.21
5391.00,1.21
5390.00,1.20
5389.00,1.20
5388.00,1.20
5387.00,1.20
5386.00,1.19
5385.00,1.19
5384.00,1.19
5383.00,1.18
5382.00,1.18
5381.00,1.18
5380.00,1.17
5379.00,1.17
5378.00,1.17
5377.00,1.16
5376.00,1.16
5375.00,1.16
5374.00,1.15
5373.00,1.15
5372.00,1.15
5371.00,1.14
5370.00,1.14
5369.00,1.14
5368.00,1.13
5367.00,1.13
5366.00,1.12
5365.00,1.12
5364.00,1.11
5363.00,1.11
5362.00,1.10
5361.00,1.10
5360.00,1.09
5359.00,1.09
5358.00,1.08
5357.00,1.07
5356.00,1.07
5355.00,1.06
5354.00,1.05
5353.00,1.05
5352.00,1.04
5351.00,1.03
5350.00,1.02
5349.00,1.02
5348.00,1.01
5347.00,1.00
5346.00,0.99
5345.00,0.98
5344.00,0.98
5343.00,0.97
5342.00,0.96
5341.00,0.95
5340.00,0.94
5339.00,0.94
5338.00,0.93
5337.00,0.92
5336.00,0.91
5335.00,0.90
5334.00,0.89
5333.00,0.89
5332.00,0.88
5331.00,0.87
5330.00,0.86
5329.00,0.85
5328.00,0.84
5327.00,0.84
5326.00,0.83
5325.00,0.82
5324.00,0.81
5323.00,0.80
5322.00,0.80
5321.00,0.79
5320.00,0.78
5319.00,0.77
5318.00,0.77
5317.00,0.76
5316.00,0.75
5315.00,0.75
5314.00,0.74
5313.00,0.73
5312.00,0.73
5311.00,0.72
5310.00,0.71
5309.00,0.71
5308.00,0.70
5307.00,0.70
5306.00,0.69
5305.00,0.69
5304.00,0.69
5303.00,0.68
5302.00,0.68
5301.00,0.67
5300.00,0.67
5299.00,0.67
5298.00,0.67
5297.00,0.66
5296.00,0.66
5295.00,0.66
5294.00,0.65
5293.00,0.65
5292.00,0.65
5291.00,0.65
5290.00,0.65
5289.00,0.64
5288.00,0.64
5287.00,0.64
5286.00,0.64
5285.00,0.64
5284.00,0.64
5283.00,0.63
5282.00,0.63
5281.00,0.63
5280.00,0.63
5279.00,0.63
5278.00,0.63
5277.00,0.63
5276.00,0.63
5275.00,0.63
5274.00,0.62
5273.00,0.62
5272.00,0.62
5271.00,0.62
5270.00,0.62
5269.00,0.62
5268.00,0.62
5267.00,0.62
5266.00,0.62
5265.00,0.62
5264.00,0.62
5263.00,0.62
5262.00,0.62
5261.00,0.62
5260.00,0.62
5259.00,0.62
5258.00,0.62
5257.00,0.62
5256.00,0.62
5255.00,0.62
5254.00,0.62
5253.00,0.62
5252.00,0.62
5251.00,0.62
5250.00,0.62
5249.00,0.62
5248.00,0.62
5247.00,0.62
5246.00,0.62
5245.00,0.62
5244.00,0.62
5243.00,0.62
5242.00,0.62
5241.00,0.62
5240.00,0.63
5239.00,0.63
5238.00,0.63
5237.00,0.63
5236.00,0.63
5235.00,0.63
5234.00,0.63
5233.00,0.63
5232.00,0.63
5231.00,0.63
5230.00,0.63
5229.00,0.63
5228.00,0.63
5227.00,0.63
5226.00,0.63
5225.00,0.63
5224.00,0.63
5223.00,0.63
5222.00,0.63
5221.00,0.63
5220.00,0.63
5219.00,0.63
5218.00,0.63
5217.00,0.63
5216.00,0.63
5215.00,0.63
5214.00,0.63
5213.00,0.63
5212.00,0.63
5211.00,0.63
5210.00,0.63
5209.00,0.63
5208.00,0.63
5207.00,0.63
5206.00,0.63
5205.00,0.63
5204.00,0.63
5203.00,0.63
5202.00,0.63
5201.00,0.63
5200.00,0.63
5199.00,0.63
5198.00,0.63
5197.00,0.63
5196.00,0.63
5195.00,0.63
5194.00,0.63
5193.00,0.64
5192.00,0.64
5191.00,0.64
5190.00,0.64
5189.00,0.64
5188.00,0.64
5187.00,0.64
5186.00,0.64
5185.00,0.64
5184.00,0.64
5183.00,0.64
5182.00,0.64
5181.00,0.64
5180.00,0.64
5179.00,0.64
5178.00,0.64
5177.00,0.64
5176.00,0.64
5175.00,0.64
5174.00,0.64
5173.00,0.64
5172.00,0.64
5171.00,0.64
5170.00,0.64
5169.00,0.64
5168.00,0.64
5167.00,0.64
5166.00,0.64
5165.00,0.64
5164.00,0.65
5163.00,0.65
5162.00,0.65
5161.00,0.65
5160.00,0.65
5159.00,0.65
5158.00,0.65
5157.00,0.65
5156.00,0.65
5155.00,0.65
5154.00,0.65
5153.00,0.65
5152.00,0.65
5151.00,0.65
5150.00,0.65
5149.00,0.65
5148.00,0.65
5147.00,0.65
5146.00,0.65
5145.00,0.65
5144.00,0.65
5143.00,0.66
5142.00,0.66
5141.00,0.66
5140.00,0.66
5139.00,0.66
5138.00,0.66
5137.00,0.66
5136.00,0.66
5135.00,0.66
5134.00,0.66
5133.00,0.66
5132.00,0.66
5131.00,0.66
5130.00,0.66
5129.00,0.66
5128.00,0.66
5127.00,0.66
5126.00,0.66
5125.00,0.66
5124.00,0.66
5123.00,0.66
5122.00,0.66
5121.00,0.66
5120.00,0.66
5119.00,0.66
5118.00,0.66
5117.00,0.67
5116.00,0.67
5115.00,0.67
5114.00,0.67
5113.00,0.67
5112.00,0.67
5111.00,0.67
5110.00,0.67
5109.00,0.67
5108.00,0.67
5107.00,0.67
5106.00,0.67
5105.00,0.67
5104.00,0.67
5103.00,0.67
5102.00,0.67
5101.00,0.67
5100.00,0.67
5099.00,0.67
5098.00,0.67
5097.00,0.67
5096.00,0.68
5095.00,0.68
5094.00,0.68
5093.00,0.68
5092.00,0.68
5091.00,0.68
5090.00,0.68
5089.00,0.68
5088.00,0.68
5087.00,0.68
5086.00,0.68
5085.00,0.68
5084.00,0.68
5083.00,0.68
5082.00,0.68
5081.00,0.68
5080.00,0.68
5079.00,0.68
5078.00,0.68
5077.00,0.68
5076.00,0.68
5075.00,0.68
5074.00,0.68
5073.00,0.68
5072.00,0.68
5071.00,0.69
5070.00,0.69
5069.00,0.69
5068.00,0.69
5067.00,0.69
5066.00,0.69
5065.00,0.69
5064.00,0.69
5063.00,0.69
5062.00,0.69
5061.00,0.69
5060.00,0.69
5059.00,0.69
5058.00,0.69
5057.00,0.69
5056.00,0.70
5055.00,0.70
5054.00,0.70
5053.00,0.70
5052.00,0.70
5051.00,0.70
5050.00,0.70
5049.00,0.70
5048.00,0.70
5047.00,0.70
5046.00,0.70
5045.00,0.70
5044.00,0.70
5043.00,0.70
5042.00,0.70
5041.00,0.70
5040.00,0.70
5039.00,0.70
5038.00,0.70
5037.00,0.70
5036.00,0.70
5035.00,0.71
5034.00,0.71
5033.00,0.71
5032.00,0.71
5031.00,0.71
5030.00,0.71
5029.00,0.71
5028.00,0.71
5027.00,0.71
5026.00,0.71
5025.00,0.71
5024.00,0.71
5023.00,0.72
5022.00,0.72
5021.00,0.72
5020.00,0.72
5019.00,0.72
5018.00,0.72
5017.00,0.72
5016.00,0.72
5015.00,0.72
5014.00,0.72
5013.00,0.72
5012.00,0.72
5011.00,0.72
5010.00,0.72
5009.00,0.72
5008.00,0.72
5007.00,0.72
5006.00,0.72
5005.00,0.73
5004.00,0.73
5003.00,0.73
5002.00,0.73
5001.00,0.73
5000.00,0.73
4999.00,0.73
4998.00,0.73
4997.00,0.73
4996.00,0.73
4995.00,0.73
4994.00,0.73
4993.00,0.73
4992.00,0.73
4991.00,0.73
4990.00,0.73
4989.00,0.73
4988.00,0.74
4987.00,0.74
4986.00,0.74
4985.00,0.74
4984.00,0.74
4983.00,0.74
4982.00,0.74
4981.00,0.74
4980.00,0.74
4979.00,0.74
4978.00,0.74
4977.00,0.74
4976.00,0.74
4975.00,0.74
4974.00,0.75
4973.00,0.75
4972.00,0.75
4971.00,0.75
4970.00,0.75
4969.00,0.75
4968.00,0.75
4967.00,0.75
4966.00,0.75
4965.00,0.75
4964.00,0.75
4963.00,0.75
4962.00,0.75
4961.00,0.75
4960.00,0.76
4959.00,0.76
4958.00,0.76
4957.00,0.76
4956.00,0.76
4955.00,0.76
4954.00,0.76
4953.00,0.76
4952.00,0.76
4951.00,0.76
4950.00,0.76
4949.00,0.76
4948.00,0.76
4947.00,0.76
4946.00,0.76
4945.00,0.76
4944.00,0.76
4943.00,0.76
4942.00,0.76
4941.00,0.76
4940.00,0.76
4939.00,0.77
4938.00,0.77
4937.00,0.77
4936.00,0.77
4935.00,0.77
4934.00,0.77
4933.00,0.77
4932.00,0.77
4931.00,0.77
4930.00,0.77
4929.00,0.77
4928.00,0.77
4927.00,0.78
4926.00,0.78
4925.00,0.78
4924.00,0.78
4923.00,0.78
4922.00,0.78
4921.00,0.78
4920.00,0.78
4919.00,0.78
4918.00,0.78
4917.00,0.78
4916.00,0.79
4915.00,0.79
4914.00,0.79
4913.00,0.79
4912.00,0.79
4911.00,0.79
4910.00,0.79
4909.00,0.79
4908.00,0.80
4907.00,0.80
4906.00,0.80
4905.00,0.80
4904.00,0.80
4903.00,0.80
4902.00,0.80
4901.00,0.80
4900.00,0.80
4899.00,0.80
4898.00,0.80
4897.00,0.80
4896.00,0.80
4895.00,0.80
4894.00,0.80
4893.00,0.80
4892.00,0.80
4891.00,0.80
4890.00,0.80
4889.00,0.80
4888.00,0.80
4887.00,0.80
4886.00,0.80
4885.00,0.80
4884.00,0.80
4883.00,0.80
4882.00,0.80
4881.00,0.81
4880.00,0.81
4879.00,0.81
4878.00,0.81
4877.00,0.81
4876.00,0.81
4875.00,0.81
4874.00,0.81
4873.00,0.81
4872.00,0.81
4871.00,0.81
4870.00,0.81
4869.00,0.82
4868.00,0.82
4867.00,0.82
4866.00,0.82
4865.00,0.82
4864.00,0.82
4863.00,0.82
4862.00,0.82
4861.00,0.82
4860.00,0.82
4859.00,0.82
4858.00,0.82
4857.00,0.82
4856.00,0.82
4855.00,0.82
4854.00,0.82
4853.00,0.82
4852.00,0.82
4851.00,0.82
4850.00,0.83
4849.00,0.83
4848.00,0.83
4847.00,0.83
4846.00,0.83
4845.00,0.83
4844.00,0.83
4843.00,0.83
4842.00,0.83
4841.00,0.83
4840.00,0.83
4839.00,0.83
4838.00,0.83
4837.00,0.83
4836.00,0.83
4835.00,0.83
4834.00,0.83
4833.00,0.83
4832.00,0.84
4831.00,0.84
4830.00,0.84
4829.00,0.84
4828.00,0.84
4827.00,0.84
4826.00,0.84
4825.00,0.84
4824.00,0.84
4823.00,0.84
4822.00,0.84
4821.00,0.85
4820.00,0.85
4819.00,0.85
4818.00,0.85
4817.00,0.85
4816.00,0.85
4815.00,0.85
4814.00,0.85
4813.00,0.86
4812.00,0.86
4811.00,0.86
4810.00,0.86
4809.00,0.86
4808.00,0.86
4807.00,0.86
4806.00,0.86
4805.00,0.86
4804.00,0.86
4803.00,0.86
4802.00,0.87
4801.00,0.87
4800.00,0.87
4799.00,0.87
4798.00,0.87
4797.00,0.87
4796.00,0.87
4795.00,0.87
4794.00,0.87
4793.00,0.87
4792.00,0.87
4791.00,0.87
4790.00,0.87
4789.00,0.88
4788.00,0.88
4787.00,0.88
4786.00,0.88
4785.00,0.88
4784.00,0.88
4783.00,0.88
4782.00,0.88
4781.00,0.88
4780.00,0.88
4779.00,0.88
4778.00,0.89
4777.00,0.89
4776.00,0.89
4775.00,0.89
4774.00,0.89
4773.00,0.89
4772.00,0.89
4771.00,0.89
4770.00,0.89
4769.00,0.89
4768.00,0.89
4767.00,0.90
4766.00,0.90
4765.00,0.90
4764.00,0.90
4763.00,0.90
4762.00,0.90
4761.00,0.90
4760.00,0.91
4759.00,0.91
4758.00,0.91
4757.00,0.91
4756.00,0.91
4755.00,0.91
4754.00,0.91
4753.00,0.91
4752.00,0.92
4751.00,0.92
4750.00,0.92
4749.00,0.92
4748.00,0.92
4747.00,0.92
4746.00,0.92
4745.00,0.92
4744.00,0.92
4743.00,0.92
4742.00,0.93
4741.00,0.93
4740.00,0.93
4739.00,0.93
4738.00,0.93
4737.00,0.93
4736.00,0.93
4735.00,0.93
4734.00,0.94
4733.00,0.94
4732.00,0.94
4731.00,0.94
4730.00,0.94
4729.00,0.94
4728.00,0.94
4727.00,0.94
4726.00,0.95
4725.00,0.95
4724.00,0.95
4723.00,0.95
4722.00,0.95
4721.00,0.95
4720.00,0.95
4719.00,0.95
4718.00,0.95
4717.00,0.96
4716.00,0.96
4715.00,0.96
4714.00,0.96
4713.00,0.96
4712.00,0.96
4711.00,0.96
4710.00,0.96
4709.00,0.96
4708.00,0.96
4707.00,0.97
4706.00,0.97
4705.00,0.97
4704.00,0.97
4703.00,0.97
4702.00,0.97
4701.00,0.98
4700.00,0.98
4699.00,0.98
4698.00,0.98
4697.00,0.98
4696.00,0.99
4695.00,0.99
4694.00,0.99
4693.00,0.99
4692.00,0.99
4691.00,0.99
4690.00,1.00
4689.00,1.00
4688.00,1.00
4687.00,1.00
4686.00,1.00
4685.00,1.00
4684.00,1.00
4683.00,1.00
4682.00,1.01
4681.00,1.01
4680.00,1.01
4679.00,1.01
4678.00,1.01
4677.00,1.01
4676.00,1.01
4675.00,1.01
4674.00,1.01
4673.00,1.01
4672.00,1.01
4671.00,1.01
4670.00,1.02
4669.00,1.02
4668.00,1.02
4667.00,1.02
4666.00,1.02
4665.00,1.02
4664.00,1.02
4663.00,1.02
4662.00,1.02
4661.00,1.03
4660.00,1.03
4659.00,1.03
4658.00,1.03
4657.00,1.03
4656.00,1.03
4655.00,1.03
4654.00,1.03
4653.00,1.03
4652.00,1.04
4651.00,1.04
4650.00,1.04
4649.00,1.04
4648.00,1.04
4647.00,1.04
4646.00,1.04
4645.00,1.04
4644.00,1.04
4643.00,1.05
4642.00,1.05
4641.00,1.05
4640.00,1.05
4639.00,1.05
4638.00,1.05
4637.00,1.05
4636.00,1.05
4635.00,1.05
4634.00,1.05
4633.00,1.06
4632.00,1.06
4631.00,1.06
4630.00,1.06
4629.00,1.06
4628.00,1.06
4627.00,1.06
4626.00,1.06
4625.00,1.06
4624.00,1.06
4623.00,1.06
4622.00,1.06
4621.00,1.06
4620.00,1.06
4619.00,1.07
4618.00,1.07
4617.00,1.07
4616.00,1.07
4615.00,1.07
4614.00,1.07
4613.00,1.07
4612.00,1.07
4611.00,1.07
4610.00,1.08
4609.00,1.08
4608.00,1.08
4607.00,1.08
4606.00,1.08
4605.00,1.08
4604.00,1.08
4603.00,1.08
4602.00,1.08
4601.00,1.08
4600.00,1.08
4599.00,1.08
4598.00,1.08
4597.00,1.08
4596.00,1.08
4595.00,1.09
4594.00,1.09
4593.00,1.09
4592.00,1.09
4591.00,1.09
4590.00,1.09
4589.00,1.09
4588.00,1.09
4587.00,1.09
4586.00,1.09
4585.00,1.09
4584.00,1.09
4583.00,1.09
4582.00,1.09
4581.00,1.09
4580.00,1.09
4579.00,1.09
4578.00,1.09
4577.00,1.09
4576.00,1.09
4575.00,1.09
4574.00,1.09
4573.00,1.09
4572.00,1.10
4571.00,1.10
4570.00,1.10
4569.00,1.10
4568.00,1.10
4567.00,1.10
4566.00,1.10
4565.00,1.11
4564.00,1.11
4563.00,1.11
4562.00,1.11
4561.00,1.11
4560.00,1.11
4559.00,1.11
4558.00,1.11
4557.00,1.12
4556.00,1.12
4555.00,1.12
4554.00,1.12
4553.00,1.12
4552.00,1.12
4551.00,1.12
4550.00,1.12
4549.00,1.12
4548.00,1.12
4547.00,1.13
4546.00,1.13
4545.00,1.13
4544.00,1.13
4543.00,1.13
4542.00,1.13
4541.00,1.13
4540.00,1.13
4539.00,1.13
4538.00,1.13
4537.00,1.13
4536.00,1.13
4535.00,1.13
4534.00,1.13
4533.00,1.13
4532.00,1.13
4531.00,1.13
4530.00,1.13
4529.00,1.13
4528.00,1.13
4527.00,1.13
4526.00,1.13
4525.00,1.13
4524.00,1.13
4523.00,1.13
4522.00,1.13
4521.00,1.13
4520.00,1.13
4519.00,1.13
4518.00,1.13
4517.00,1.14
4516.00,1.14
4515.00,1.14
4514.00,1.14
4513.00,1.14
4512.00,1.14
4511.00,1.14
4510.00,1.14
4509.00,1.14
4508.00,1.14
4507.00,1.14
4506.00,1.14
4505.00,1.14
4504.00,1.14
4503.00,1.14
4502.00,1.14
4501.00,1.14
4500.00,1.14
4499.00,1.14
4498.00,1.14
4497.00,1.14
4496.00,1.13
4495.00,1.13
4494.00,1.13
4493.00,1.13
4492.00,1.13
4491.00,1.13
4490.00,1.13
4489.00,1.13
4488.00,1.13
4487.00,1.13
4486.00,1.13
4485.00,1.12
4484.00,1.12
4483.00,1.12
4482.00,1.12
4481.00,1.12
4480.00,1.12
4479.00,1.12
4478.00,1.12
4477.00,1.12
4476.00,1.12
4475.00,1.12
4474.00,1.12
4473.00,1.11
4472.00,1.11
4471.00,1.11
4470.00,1.11
4469.00,1.11
4468.00,1.11
4467.00,1.10
4466.00,1.10
4465.00,1.10
4464.00,1.10
4463.00,1.10
4462.00,1.09
4461.00,1.09
4460.00,1.09
4459.00,1.09
4458.00,1.09
4457.00,1.08
4456.00,1.08
4455.00,1.08
4454.00,1.08
4453.00,1.07
4452.00,1.07
4451.00,1.07
4450.00,1.07
4449.00,1.06
4448.00,1.06
4447.00,1.06
4446.00,1.06
4445.00,1.05
4444.00,1.05
4443.00,1.05
4442.00,1.04
4441.00,1.04
4440.00,1.04
4439.00,1.03
4438.00,1.03
4437.00,1.03
4436.00,1.02
4435.00,1.02
4434.00,1.02
4433.00,1.01
4432.00,1.01
4431.00,1.01
4430.00,1.01
4429.00,1.01
4428.00,1.01
4427.00,1.00
4426.00,1.00
4425.00,1.00
4424.00,1.00
4423.00,1.00
4422.00,1.00
4421.00,1.00
4420.00,1.00
4419.00,1.00
4418.00,1.00
4417.00,1.00
4416.00,1.00
4415.00,1.00
4414.00,1.00
4413.00,1.00
4412.00,1.00
4411.00,1.00
4410.00,1.00
4409.00,1.00
4408.00,1.00
4407.00,1.00
4406.00,1.00
4405.00,1.00
4404.00,1.00
4403.00,1.00
4402.00,1.00
4401.00,1.00
4400.00,1.00
4399.00,1.01
4398.00,1.01
4397.00,1.01
4396.00,1.01
4395.00,1.01
4394.00,1.01
4393.00,1.01
4392.00,1.01
4391.00,1.02
4390.00,1.02
4389.00,1.02
4388.00,1.02
4387.00,1.02
4386.00,1.02
4385.00,1.02
4384.00,1.02
4383.00,1.02
4382.00,1.02
4381.00,1.02
4380.00,1.02
4379.00,1.03
4378.00,1.03
4377.00,1.03
4376.00,1.03
4375.00,1.03
4374.00,1.03
4373.00,1.03
4372.00,1.03
4371.00,1.03
4370.00,1.03
4369.00,1.03
4368.00,1.03
4367.00,1.03
4366.00,1.03
4365.00,1.03
4364.00,1.03
4363.00,1.03
4362.00,1.03
4361.00,1.03
4360.00,1.03
4359.00,1.03
4358.00,1.03
4357.00,1.03
4356.00,1.03
4355.00,1.03
4354.00,1.03
4353.00,1.03
4352.00,1.03
4351.00,1.03
4350.00,1.03
4349.00,1.03
4348.00,1.03
4347.00,1.03
4346.00,1.03
4345.00,1.03
4344.00,1.03
4343.00,1.03
4342.00,1.03
4341.00,1.03
4340.00,1.03
4339.00,1.03
4338.00,1.03
4337.00,1.03
4336.00,1.03
4335.00,1.04
4334.00,1.04
4333.00,1.04
4332.00,1.04
4331.00,1.04
4330.00,1.04
4329.00,1.04
4328.00,1.04
4327.00,1.04
4326.00,1.05
4325.00,1.05
4324.00,1.05
4323.00,1.05
4322.00,1.05
4321.00,1.05
4320.00,1.05
4319.00,1.06
4318.00,1.06
4317.00,1.06
4316.00,1.06
4315.00,1.06
4314.00,1.06
4313.00,1.06
4312.00,1.06
4311.00,1.07
4310.00,1.07
4309.00,1.07
4308.00,1.07
4307.00,1.07
4306.00,1.07
4305.00,1.07
4304.00,1.07
4303.00,1.07
4302.00,1.07
4301.00,1.08
4300.00,1.08
4299.00,1.08
4298.00,1.08
4297.00,1.08
4296.00,1.08
4295.00,1.08
4294.00,1.08
4293.00,1.08
4292.00,1.08
4291.00,1.08
4290.00,1.08
4289.00,1.08
4288.00,1.08
4287.00,1.08
4286.00,1.08
4285.00,1.08
4284.00,1.09
4283.00,1.09
4282.00,1.09
4281.00,1.09
4280.00,1.09
4279.00,1.09
4278.00,1.09
4277.00,1.09
4276.00,1.09
4275.00,1.09
4274.00,1.09
4273.00,1.09
4272.00,1.09
4271.00,1.09
4270.00,1.09
4269.00,1.09
4268.00,1.09
4267.00,1.09
4266.00,1.09
4265.00,1.09
4264.00,1.09
4263.00,1.09
4262.00,1.09
4261.00,1.09
4260.00,1.09
4259.00,1.09
4258.00,1.09
4257.00,1.09
4256.00,1.09
4255.00,1.09
4254.00,1.10
4253.00,1.10
4252.00,1.10
4251.00,1.10
4250.00,1.10
4249.00,1.10
4248.00,1.10
4247.00,1.10
4246.00,1.10
4245.00,1.10
4244.00,1.10
4243.00,1.09
4242.00,1.09
4241.00,1.09
4240.00,1.09
4239.00,1.09
4238.00,1.09
4237.00,1.09
4236.00,1.10
4235.00,1.10
4234.00,1.10
4233.00,1.10
4232.00,1.10
4231.00,1.10
4230.00,1.10
4229.00,1.10
4228.00,1.10
4227.00,1.10
4226.00,1.10
4225.00,1.11
4224.00,1.11
4223.00,1.11
4222.00,1.11
4221.00,1.11
4220.00,1.11
4219.00,1.11
4218.00,1.11
4217.00,1.11
4216.00,1.11
4215.00,1.11
4214.00,1.12
4213.00,1.12
4212.00,1.12
4211.00,1.12
4210.00,1.12
4209.00,1.12
4208.00,1.12
4207.00,1.12
4206.00,1.12
4205.00,1.13
4204.00,1.13
4203.00,1.13
4202.00,1.13
4201.00,1.13
4200.00,1.13
4199.00,1.13
4198.00,1.13
4197.00,1.13
4196.00,1.13
4195.00,1.13
4194.00,1.13
4193.00,1.13
4192.00,1.13
4191.00,1.13
4190.00,1.13
4189.00,1.13
4188.00,1.13
4187.00,1.14
4186.00,1.14
4185.00,1.14
4184.00,1.14
4183.00,1.14
4182.00,1.14
4181.00,1.14
4180.00,1.14
4179.00,1.14
4178.00,1.14
4177.00,1.14
4176.00,1.13
4175.00,1.13
4174.00,1.13
4173.00,1.13
4172.00,1.13
4171.00,1.13
4170.00,1.13
4169.00,1.13
4168.00,1.13
4167.00,1.13
4166.00,1.13
4165.00,1.13
4164.00,1.13
4163.00,1.13
4162.00,1.13
4161.00,1.13
4160.00,1.13
4159.00,1.13
4158.00,1.13
4157.00,1.13
4156.00,1.14
4155.00,1.14
4154.00,1.14
4153.00,1.14
4152.00,1.14
4151.00,1.14
4150.00,1.14
4149.00,1.14
4148.00,1.14
4147.00,1.14
4146.00,1.15
4145.00,1.15
4144.00,1.15
4143.00,1.15
4142.00,1.15
4141.00,1.15
4140.00,1.15
4139.00,1.15
4138.00,1.15
4137.00,1.15
4136.00,1.15
4135.00,1.15
4134.00,1.15
4133.00,1.15
4132.00,1.15
4131.00,1.15
4130.00,1.15
4129.00,1.15
4128.00,1.15
4127.00,1.16
4126.00,1.16
4125.00,1.16
4124.00,1.16
4123.00,1.16
4122.00,1.16
4121.00,1.16
4120.00,1.16
4119.00,1.16
4118.00,1.17
4117.00,1.17
4116.00,1.17
4115.00,1.17
4114.00,1.17
4113.00,1.17
4112.00,1.17
4111.00,1.18
4110.00,1.18
4109.00,1.18
4108.00,1.18
4107.00,1.18
4106.00,1.18
4105.00,1.18
4104.00,1.18
4103.00,1.18
4102.00,1.18
4101.00,1.18
4100.00,1.18
4099.00,1.19
4098.00,1.19
4097.00,1.19
4096.00,1.19
4095.00,1.19
4094.00,1.19
4093.00,1.19
4092.00,1.19
4091.00,1.19
4090.00,1.19
4089.00,1.19
4088.00,1.19
4087.00,1.19
4086.00,1.19
4085.00,1.19
4084.00,1.19
4083.00,1.19
4082.00,1.19
4081.00,1.19
4080.00,1.19
4079.00,1.19
4078.00,1.19
4077.00,1.19
4076.00,1.19
4075.00,1.19
4074.00,1.19
4073.00,1.19
4072.00,1.19
4071.00,1.19
4070.00,1.19
4069.00,1.19
4068.00,1.19
4067.00,1.19
4066.00,1.19
4065.00,1.19
4064.00,1.19
4063.00,1.19
4062.00,1.19
4061.00,1.19
4060.00,1.19
4059.00,1.19
4058.00,1.19
4057.00,1.19
4056.00,1.19
4055.00,1.20
4054.00,1.20
4053.00,1.20
4052.00,1.20
4051.00,1.20
4050.00,1.20
4049.00,1.21
4048.00,1.21
4047.00,1.21
4046.00,1.21
4045.00,1.21
4044.00,1.21
4043.00,1.21
4042.00,1.21
4041.00,1.21
4040.00,1.21
4039.00,1.21
4038.00,1.21
4037.00,1.21
4036.00,1.21
4035.00,1.21
4034.00,1.21
4033.00,1.21
4032.00,1.21
4031.00,1.21
4030.00,1.21
4029.00,1.21
4028.00,1.21
4027.00,1.21
4026.00,1.21
4025.00,1.21
4024.00,1.21
4023.00,1.22
4022.00,1.22
4021.00,1.22
4020.00,1.22
4019.00,1.22
4018.00,1.22
4017.00,1.22
4016.00,1.22
4015.00,1.22
4014.00,1.22
4013.00,1.22
4012.00,1.22
4011.00,1.22
4010.00,1.22
4009.00,1.22
4008.00,1.22
4007.00,1.22
4006.00,1.22
4005.00,1.22
4004.00,1.22
4003.00,1.22
4002.00,1.22
4001.00,1.22
4000.00,1.22
