创建为新数据集,样品 252 用户 Administrator 日期 星期日, 七月 22 2018
cm-1,%T
10000.00,1.46
9999.00,1.46
9998.00,1.45
9997.00,1.45
9996.00,1.45
9995.00,1.45
9994.00,1.45
9993.00,1.44
9992.00,1.44
9991.00,1.44
9990.00,1.43
9989.00,1.43
9988.00,1.43
9987.00,1.42
9986.00,1.42
9985.00,1.42
9984.00,1.42
9983.00,1.41
9982.00,1.41
9981.00,1.41
9980.00,1.41
9979.00,1.41
9978.00,1.41
9977.00,1.41
9976.00,1.41
9975.00,1.41
9974.00,1.42
9973.00,1.42
9972.00,1.42
9971.00,1.42
9970.00,1.42
9969.00,1.43
9968.00,1.43
9967.00,1.43
9966.00,1.43
9965.00,1.43
9964.00,1.43
9963.00,1.44
9962.00,1.44
9961.00,1.44
9960.00,1.44
9959.00,1.44
9958.00,1.44
9957.00,1.44
9956.00,1.44
9955.00,1.44
9954.00,1.44
9953.00,1.44
9952.00,1.44
9951.00,1.44
9950.00,1.44
9949.00,1.44
9948.00,1.44
9947.00,1.44
9946.00,1.44
9945.00,1.44
9944.00,1.44
9943.00,1.44
9942.00,1.45
9941.00,1.45
9940.00,1.45
9939.00,1.45
9938.00,1.45
9937.00,1.45
9936.00,1.45
9935.00,1.45
9934.00,1.45
9933.00,1.45
9932.00,1.45
9931.00,1.45
9930.00,1.46
9929.00,1.46
9928.00,1.46
9927.00,1.46
9926.00,1.46
9925.00,1.46
9924.00,1.45
9923.00,1.45
9922.00,1.45
9921.00,1.45
9920.00,1.45
9919.00,1.44
9918.00,1.44
9917.00,1.44
9916.00,1.44
9915.00,1.43
9914.00,1.43
9913.00,1.43
9912.00,1.43
9911.00,1.43
9910.00,1.43
9909.00,1.43
9908.00,1.43
9907.00,1.43
9906.00,1.43
9905.00,1.43
9904.00,1.43
9903.00,1.43
9902.00,1.44
9901.00,1.44
9900.00,1.44
9899.00,1.44
9898.00,1.44
9897.00,1.44
9896.00,1.44
9895.00,1.44
9894.00,1.44
9893.00,1.44
9892.00,1.44
9891.00,1.44
9890.00,1.44
9889.00,1.44
9888.00,1.44
9887.00,1.44
9886.00,1.44
9885.00,1.44
9884.00,1.43
9883.00,1.44
9882.00,1.44
9881.00,1.44
9880.00,1.44
9879.00,1.44
9878.00,1.44
9877.00,1.44
9876.00,1.44
9875.00,1.44
9874.00,1.44
9873.00,1.44
9872.00,1.44
9871.00,1.44
9870.00,1.44
9869.00,1.44
9868.00,1.44
9867.00,1.44
9866.00,1.44
9865.00,1.43
9864.00,1.43
9863.00,1.43
9862.00,1.43
9861.00,1.42
9860.00,1.42
9859.00,1.42
9858.00,1.42
9857.00,1.41
9856.00,1.41
9855.00,1.41
9854.00,1.41
9853.00,1.41
9852.00,1.41
9851.00,1.41
9850.00,1.41
9849.00,1.41
9848.00,1.41
9847.00,1.41
9846.00,1.42
9845.00,1.42
9844.00,1.42
9843.00,1.42
9842.00,1.42
9841.00,1.42
9840.00,1.43
9839.00,1.43
9838.00,1.43
9837.00,1.43
9836.00,1.43
9835.00,1.43
9834.00,1.43
9833.00,1.43
9832.00,1.43
9831.00,1.43
9830.00,1.43
9829.00,1.43
9828.00,1.43
9827.00,1.43
9826.00,1.43
9825.00,1.43
9824.00,1.43
9823.00,1.43
9822.00,1.43
9821.00,1.43
9820.00,1.42
9819.00,1.42
9818.00,1.42
9817.00,1.42
9816.00,1.42
9815.00,1.42
9814.00,1.42
9813.00,1.42
9812.00,1.42
9811.00,1.42
9810.00,1.42
9809.00,1.42
9808.00,1.42
9807.00,1.42
9806.00,1.43
9805.00,1.43
9804.00,1.43
9803.00,1.43
9802.00,1.43
9801.00,1.43
9800.00,1.43
9799.00,1.43
9798.00,1.43
9797.00,1.43
9796.00,1.43
9795.00,1.43
9794.00,1.43
9793.00,1.43
9792.00,1.43
9791.00,1.43
9790.00,1.42
9789.00,1.42
9788.00,1.42
9787.00,1.42
9786.00,1.42
9785.00,1.41
9784.00,1.41
9783.00,1.41
9782.00,1.41
9781.00,1.41
9780.00,1.41
9779.00,1.40
9778.00,1.40
9777.00,1.40
9776.00,1.40
9775.00,1.40
9774.00,1.40
9773.00,1.40
9772.00,1.40
9771.00,1.40
9770.00,1.40
9769.00,1.40
9768.00,1.40
9767.00,1.40
9766.00,1.40
9765.00,1.40
9764.00,1.41
9763.00,1.41
9762.00,1.41
9761.00,1.41
9760.00,1.41
9759.00,1.42
9758.00,1.42
9757.00,1.42
9756.00,1.42
9755.00,1.43
9754.00,1.43
9753.00,1.43
9752.00,1.43
9751.00,1.44
9750.00,1.44
9749.00,1.44
9748.00,1.44
9747.00,1.45
9746.00,1.45
9745.00,1.45
9744.00,1.45
9743.00,1.45
9742.00,1.45
9741.00,1.46
9740.00,1.45
9739.00,1.45
9738.00,1.45
9737.00,1.45
9736.00,1.45
9735.00,1.45
9734.00,1.45
9733.00,1.44
9732.00,1.44
9731.00,1.44
9730.00,1.44
9729.00,1.43
9728.00,1.43
9727.00,1.43
9726.00,1.43
9725.00,1.43
9724.00,1.43
9723.00,1.43
9722.00,1.43
9721.00,1.43
9720.00,1.43
9719.00,1.44
9718.00,1.44
9717.00,1.44
9716.00,1.44
9715.00,1.44
9714.00,1.44
9713.00,1.44
9712.00,1.44
9711.00,1.44
9710.00,1.44
9709.00,1.44
9708.00,1.44
9707.00,1.44
9706.00,1.44
9705.00,1.43
9704.00,1.43
9703.00,1.43
9702.00,1.43
9701.00,1.43
9700.00,1.43
9699.00,1.43
9698.00,1.43
9697.00,1.42
9696.00,1.42
9695.00,1.42
9694.00,1.42
9693.00,1.42
9692.00,1.42
9691.00,1.42
9690.00,1.42
9689.00,1.42
9688.00,1.42
9687.00,1.42
9686.00,1.42
9685.00,1.42
9684.00,1.42
9683.00,1.41
9682.00,1.41
9681.00,1.41
9680.00,1.41
9679.00,1.41
9678.00,1.41
9677.00,1.41
9676.00,1.41
9675.00,1.40
9674.00,1.40
9673.00,1.40
9672.00,1.40
9671.00,1.40
9670.00,1.40
9669.00,1.40
9668.00,1.40
9667.00,1.41
9666.00,1.41
9665.00,1.41
9664.00,1.41
9663.00,1.41
9662.00,1.42
9661.00,1.42
9660.00,1.42
9659.00,1.43
9658.00,1.43
9657.00,1.43
9656.00,1.43
9655.00,1.43
9654.00,1.44
9653.00,1.44
9652.00,1.44
9651.00,1.44
9650.00,1.44
9649.00,1.44
9648.00,1.44
9647.00,1.44
9646.00,1.43
9645.00,1.43
9644.00,1.43
9643.00,1.43
9642.00,1.43
9641.00,1.43
9640.00,1.43
9639.00,1.43
9638.00,1.43
9637.00,1.43
9636.00,1.43
9635.00,1.43
9634.00,1.43
9633.00,1.43
9632.00,1.43
9631.00,1.43
9630.00,1.43
9629.00,1.43
9628.00,1.43
9627.00,1.43
9626.00,1.43
9625.00,1.43
9624.00,1.43
9623.00,1.43
9622.00,1.43
9621.00,1.43
9620.00,1.42
9619.00,1.42
9618.00,1.42
9617.00,1.42
9616.00,1.42
9615.00,1.42
9614.00,1.42
9613.00,1.42
9612.00,1.42
9611.00,1.42
9610.00,1.42
9609.00,1.42
9608.00,1.42
9607.00,1.42
9606.00,1.42
9605.00,1.42
9604.00,1.42
9603.00,1.42
9602.00,1.42
9601.00,1.42
9600.00,1.42
9599.00,1.42
9598.00,1.42
9597.00,1.42
9596.00,1.42
9595.00,1.42
9594.00,1.42
9593.00,1.42
9592.00,1.42
9591.00,1.42
9590.00,1.42
9589.00,1.42
9588.00,1.43
9587.00,1.43
9586.00,1.43
9585.00,1.43
9584.00,1.43
9583.00,1.43
9582.00,1.43
9581.00,1.43
9580.00,1.43
9579.00,1.43
9578.00,1.44
9577.00,1.44
9576.00,1.44
9575.00,1.44
9574.00,1.44
9573.00,1.44
9572.00,1.44
9571.00,1.44
9570.00,1.44
9569.00,1.44
9568.00,1.44
9567.00,1.44
9566.00,1.44
9565.00,1.44
9564.00,1.44
9563.00,1.44
9562.00,1.44
9561.00,1.44
9560.00,1.44
9559.00,1.44
9558.00,1.44
9557.00,1.44
9556.00,1.44
9555.00,1.44
9554.00,1.44
9553.00,1.44
9552.00,1.44
9551.00,1.44
9550.00,1.44
9549.00,1.44
9548.00,1.44
9547.00,1.44
9546.00,1.44
9545.00,1.44
9544.00,1.44
9543.00,1.44
9542.00,1.44
9541.00,1.44
9540.00,1.44
9539.00,1.44
9538.00,1.44
9537.00,1.45
9536.00,1.44
9535.00,1.44
9534.00,1.44
9533.00,1.44
9532.00,1.44
9531.00,1.44
9530.00,1.44
9529.00,1.44
9528.00,1.44
9527.00,1.44
9526.00,1.44
9525.00,1.43
9524.00,1.43
9523.00,1.43
9522.00,1.43
9521.00,1.43
9520.00,1.43
9519.00,1.43
9518.00,1.43
9517.00,1.43
9516.00,1.43
9515.00,1.43
9514.00,1.43
9513.00,1.44
9512.00,1.44
9511.00,1.44
9510.00,1.44
9509.00,1.44
9508.00,1.44
9507.00,1.44
9506.00,1.44
9505.00,1.44
9504.00,1.44
9503.00,1.44
9502.00,1.44
9501.00,1.44
9500.00,1.44
9499.00,1.44
9498.00,1.44
9497.00,1.44
9496.00,1.44
9495.00,1.44
9494.00,1.44
9493.00,1.44
9492.00,1.44
9491.00,1.44
9490.00,1.44
9489.00,1.44
9488.00,1.44
9487.00,1.44
9486.00,1.44
9485.00,1.44
9484.00,1.44
9483.00,1.44
9482.00,1.44
9481.00,1.44
9480.00,1.44
9479.00,1.44
9478.00,1.44
9477.00,1.44
9476.00,1.44
9475.00,1.43
9474.00,1.43
9473.00,1.43
9472.00,1.43
9471.00,1.44
9470.00,1.44
9469.00,1.44
9468.00,1.44
9467.00,1.44
9466.00,1.44
9465.00,1.44
9464.00,1.44
9463.00,1.44
9462.00,1.44
9461.00,1.44
9460.00,1.44
9459.00,1.44
9458.00,1.44
9457.00,1.44
9456.00,1.44
9455.00,1.44
9454.00,1.44
9453.00,1.44
9452.00,1.44
9451.00,1.44
9450.00,1.44
9449.00,1.44
9448.00,1.43
9447.00,1.43
9446.00,1.43
9445.00,1.43
9444.00,1.43
9443.00,1.43
9442.00,1.43
9441.00,1.43
9440.00,1.43
9439.00,1.43
9438.00,1.42
9437.00,1.42
9436.00,1.42
9435.00,1.42
9434.00,1.42
9433.00,1.42
9432.00,1.42
9431.00,1.42
9430.00,1.42
9429.00,1.42
9428.00,1.42
9427.00,1.42
9426.00,1.42
9425.00,1.42
9424.00,1.41
9423.00,1.41
9422.00,1.41
9421.00,1.41
9420.00,1.41
9419.00,1.41
9418.00,1.40
9417.00,1.40
9416.00,1.40
9415.00,1.40
9414.00,1.40
9413.00,1.40
9412.00,1.40
9411.00,1.40
9410.00,1.39
9409.00,1.39
9408.00,1.39
9407.00,1.39
9406.00,1.39
9405.00,1.39
9404.00,1.39
9403.00,1.39
9402.00,1.39
9401.00,1.39
9400.00,1.39
9399.00,1.39
9398.00,1.40
9397.00,1.40
9396.00,1.40
9395.00,1.40
9394.00,1.40
9393.00,1.40
9392.00,1.40
9391.00,1.40
9390.00,1.40
9389.00,1.41
9388.00,1.41
9387.00,1.41
9386.00,1.41
9385.00,1.41
9384.00,1.41
9383.00,1.41
9382.00,1.41
9381.00,1.42
9380.00,1.42
9379.00,1.42
9378.00,1.42
9377.00,1.42
9376.00,1.42
9375.00,1.42
9374.00,1.42
9373.00,1.42
9372.00,1.42
9371.00,1.43
9370.00,1.43
9369.00,1.43
9368.00,1.43
9367.00,1.43
9366.00,1.43
9365.00,1.43
9364.00,1.43
9363.00,1.42
9362.00,1.42
9361.00,1.42
9360.00,1.42
9359.00,1.42
9358.00,1.42
9357.00,1.42
9356.00,1.42
9355.00,1.42
9354.00,1.42
9353.00,1.42
9352.00,1.42
9351.00,1.42
9350.00,1.42
9349.00,1.42
9348.00,1.42
9347.00,1.42
9346.00,1.42
9345.00,1.42
9344.00,1.42
9343.00,1.42
9342.00,1.42
9341.00,1.42
9340.00,1.42
9339.00,1.42
9338.00,1.42
9337.00,1.42
9336.00,1.42
9335.00,1.42
9334.00,1.42
9333.00,1.42
9332.00,1.42
9331.00,1.42
9330.00,1.42
9329.00,1.42
9328.00,1.42
9327.00,1.42
9326.00,1.42
9325.00,1.42
9324.00,1.42
9323.00,1.42
9322.00,1.42
9321.00,1.42
9320.00,1.43
9319.00,1.43
9318.00,1.43
9317.00,1.43
9316.00,1.43
9315.00,1.43
9314.00,1.43
9313.00,1.43
9312.00,1.43
9311.00,1.43
9310.00,1.43
9309.00,1.43
9308.00,1.43
9307.00,1.43
9306.00,1.44
9305.00,1.44
9304.00,1.44
9303.00,1.44
9302.00,1.44
9301.00,1.44
9300.00,1.44
9299.00,1.44
9298.00,1.44
9297.00,1.44
9296.00,1.44
9295.00,1.44
9294.00,1.44
9293.00,1.44
9292.00,1.44
9291.00,1.44
9290.00,1.44
9289.00,1.45
9288.00,1.45
9287.00,1.45
9286.00,1.45
9285.00,1.45
9284.00,1.45
9283.00,1.45
9282.00,1.46
9281.00,1.46
9280.00,1.46
9279.00,1.45
9278.00,1.45
9277.00,1.45
9276.00,1.45
9275.00,1.45
9274.00,1.45
9273.00,1.45
9272.00,1.44
9271.00,1.44
9270.00,1.44
9269.00,1.44
9268.00,1.44
9267.00,1.44
9266.00,1.44
9265.00,1.44
9264.00,1.44
9263.00,1.44
9262.00,1.44
9261.00,1.44
9260.00,1.44
9259.00,1.44
9258.00,1.44
9257.00,1.44
9256.00,1.44
9255.00,1.44
9254.00,1.44
9253.00,1.44
9252.00,1.44
9251.00,1.44
9250.00,1.44
9249.00,1.44
9248.00,1.44
9247.00,1.44
9246.00,1.44
9245.00,1.44
9244.00,1.44
9243.00,1.44
9242.00,1.44
9241.00,1.44
9240.00,1.44
9239.00,1.44
9238.00,1.44
9237.00,1.44
9236.00,1.44
9235.00,1.43
9234.00,1.43
9233.00,1.43
9232.00,1.43
9231.00,1.43
9230.00,1.43
9229.00,1.43
9228.00,1.43
9227.00,1.43
9226.00,1.43
9225.00,1.43
9224.00,1.43
9223.00,1.43
9222.00,1.43
9221.00,1.43
9220.00,1.43
9219.00,1.43
9218.00,1.43
9217.00,1.43
9216.00,1.43
9215.00,1.44
9214.00,1.44
9213.00,1.44
9212.00,1.44
9211.00,1.44
9210.00,1.44
9209.00,1.44
9208.00,1.44
9207.00,1.45
9206.00,1.45
9205.00,1.45
9204.00,1.45
9203.00,1.45
9202.00,1.44
9201.00,1.44
9200.00,1.44
9199.00,1.44
9198.00,1.44
9197.00,1.44
9196.00,1.44
9195.00,1.43
9194.00,1.43
9193.00,1.43
9192.00,1.43
9191.00,1.43
9190.00,1.43
9189.00,1.42
9188.00,1.42
9187.00,1.42
9186.00,1.42
9185.00,1.42
9184.00,1.42
9183.00,1.42
9182.00,1.42
9181.00,1.42
9180.00,1.42
9179.00,1.43
9178.00,1.43
9177.00,1.43
9176.00,1.43
9175.00,1.43
9174.00,1.43
9173.00,1.43
9172.00,1.43
9171.00,1.43
9170.00,1.43
9169.00,1.43
9168.00,1.43
9167.00,1.43
9166.00,1.43
9165.00,1.43
9164.00,1.43
9163.00,1.43
9162.00,1.43
9161.00,1.43
9160.00,1.43
9159.00,1.43
9158.00,1.43
9157.00,1.43
9156.00,1.43
9155.00,1.43
9154.00,1.43
9153.00,1.43
9152.00,1.43
9151.00,1.43
9150.00,1.43
9149.00,1.43
9148.00,1.43
9147.00,1.43
9146.00,1.44
9145.00,1.44
9144.00,1.44
9143.00,1.44
9142.00,1.44
9141.00,1.44
9140.00,1.44
9139.00,1.45
9138.00,1.45
9137.00,1.45
9136.00,1.45
9135.00,1.45
9134.00,1.45
9133.00,1.45
9132.00,1.45
9131.00,1.45
9130.00,1.45
9129.00,1.45
9128.00,1.45
9127.00,1.44
9126.00,1.44
9125.00,1.44
9124.00,1.44
9123.00,1.44
9122.00,1.44
9121.00,1.44
9120.00,1.43
9119.00,1.43
9118.00,1.43
9117.00,1.43
9116.00,1.43
9115.00,1.43
9114.00,1.43
9113.00,1.43
9112.00,1.43
9111.00,1.43
9110.00,1.43
9109.00,1.43
9108.00,1.43
9107.00,1.44
9106.00,1.44
9105.00,1.44
9104.00,1.44
9103.00,1.44
9102.00,1.44
9101.00,1.45
9100.00,1.45
9099.00,1.45
9098.00,1.45
9097.00,1.45
9096.00,1.45
9095.00,1.45
9094.00,1.46
9093.00,1.46
9092.00,1.46
9091.00,1.46
9090.00,1.45
9089.00,1.45
9088.00,1.45
9087.00,1.45
9086.00,1.45
9085.00,1.45
9084.00,1.44
9083.00,1.44
9082.00,1.44
9081.00,1.44
9080.00,1.44
9079.00,1.44
9078.00,1.43
9077.00,1.43
9076.00,1.43
9075.00,1.43
9074.00,1.43
9073.00,1.44
9072.00,1.44
9071.00,1.44
9070.00,1.44
9069.00,1.44
9068.00,1.44
9067.00,1.44
9066.00,1.44
9065.00,1.44
9064.00,1.44
9063.00,1.44
9062.00,1.44
9061.00,1.44
9060.00,1.44
9059.00,1.44
9058.00,1.44
9057.00,1.44
9056.00,1.44
9055.00,1.43
9054.00,1.43
9053.00,1.43
9052.00,1.43
9051.00,1.43
9050.00,1.43
9049.00,1.43
9048.00,1.43
9047.00,1.43
9046.00,1.43
9045.00,1.43
9044.00,1.43
9043.00,1.43
9042.00,1.43
9041.00,1.43
9040.00,1.43
9039.00,1.43
9038.00,1.44
9037.00,1.44
9036.00,1.44
9035.00,1.44
9034.00,1.44
9033.00,1.44
9032.00,1.44
9031.00,1.44
9030.00,1.45
9029.00,1.45
9028.00,1.45
9027.00,1.45
9026.00,1.45
9025.00,1.45
9024.00,1.45
9023.00,1.45
9022.00,1.45
9021.00,1.45
9020.00,1.44
9019.00,1.44
9018.00,1.44
9017.00,1.44
9016.00,1.44
9015.00,1.44
9014.00,1.44
9013.00,1.44
9012.00,1.44
9011.00,1.44
9010.00,1.43
9009.00,1.43
9008.00,1.43
9007.00,1.43
9006.00,1.43
9005.00,1.43
9004.00,1.43
9003.00,1.43
9002.00,1.43
9001.00,1.44
9000.00,1.44
8999.00,1.44
8998.00,1.44
8997.00,1.44
8996.00,1.44
8995.00,1.44
8994.00,1.44
8993.00,1.44
8992.00,1.44
8991.00,1.44
8990.00,1.44
8989.00,1.43
8988.00,1.43
8987.00,1.43
8986.00,1.43
8985.00,1.43
8984.00,1.43
8983.00,1.43
8982.00,1.43
8981.00,1.43
8980.00,1.43
8979.00,1.43
8978.00,1.42
8977.00,1.42
8976.00,1.42
8975.00,1.42
8974.00,1.42
8973.00,1.42
8972.00,1.42
8971.00,1.42
8970.00,1.42
8969.00,1.42
8968.00,1.43
8967.00,1.43
8966.00,1.43
8965.00,1.43
8964.00,1.43
8963.00,1.43
8962.00,1.43
8961.00,1.43
8960.00,1.43
8959.00,1.43
8958.00,1.43
8957.00,1.44
8956.00,1.44
8955.00,1.44
8954.00,1.44
8953.00,1.44
8952.00,1.44
8951.00,1.44
8950.00,1.45
8949.00,1.45
8948.00,1.45
8947.00,1.45
8946.00,1.45
8945.00,1.45
8944.00,1.45
8943.00,1.45
8942.00,1.45
8941.00,1.45
8940.00,1.45
8939.00,1.45
8938.00,1.45
8937.00,1.44
8936.00,1.44
8935.00,1.44
8934.00,1.44
8933.00,1.44
8932.00,1.44
8931.00,1.44
8930.00,1.44
8929.00,1.44
8928.00,1.44
8927.00,1.44
8926.00,1.44
8925.00,1.44
8924.00,1.44
8923.00,1.44
8922.00,1.43
8921.00,1.43
8920.00,1.43
8919.00,1.43
8918.00,1.43
8917.00,1.43
8916.00,1.43
8915.00,1.43
8914.00,1.43
8913.00,1.43
8912.00,1.43
8911.00,1.43
8910.00,1.44
8909.00,1.44
8908.00,1.44
8907.00,1.44
8906.00,1.44
8905.00,1.44
8904.00,1.44
8903.00,1.44
8902.00,1.44
8901.00,1.44
8900.00,1.44
8899.00,1.44
8898.00,1.44
8897.00,1.44
8896.00,1.44
8895.00,1.44
8894.00,1.44
8893.00,1.44
8892.00,1.44
8891.00,1.44
8890.00,1.45
8889.00,1.45
8888.00,1.45
8887.00,1.45
8886.00,1.45
8885.00,1.45
8884.00,1.45
8883.00,1.45
8882.00,1.45
8881.00,1.45
8880.00,1.45
8879.00,1.45
8878.00,1.44
8877.00,1.44
8876.00,1.44
8875.00,1.44
8874.00,1.44
8873.00,1.44
8872.00,1.44
8871.00,1.44
8870.00,1.44
8869.00,1.44
8868.00,1.44
8867.00,1.44
8866.00,1.44
8865.00,1.44
8864.00,1.44
8863.00,1.44
8862.00,1.44
8861.00,1.44
8860.00,1.44
8859.00,1.44
8858.00,1.44
8857.00,1.44
8856.00,1.44
8855.00,1.44
8854.00,1.44
8853.00,1.44
8852.00,1.44
8851.00,1.44
8850.00,1.43
8849.00,1.43
8848.00,1.43
8847.00,1.43
8846.00,1.43
8845.00,1.43
8844.00,1.43
8843.00,1.43
8842.00,1.43
8841.00,1.42
8840.00,1.42
8839.00,1.42
8838.00,1.42
8837.00,1.42
8836.00,1.42
8835.00,1.42
8834.00,1.42
8833.00,1.42
8832.00,1.42
8831.00,1.42
8830.00,1.42
8829.00,1.42
8828.00,1.42
8827.00,1.42
8826.00,1.42
8825.00,1.42
8824.00,1.42
8823.00,1.42
8822.00,1.42
8821.00,1.42
8820.00,1.42
8819.00,1.42
8818.00,1.42
8817.00,1.42
8816.00,1.42
8815.00,1.42
8814.00,1.42
8813.00,1.42
8812.00,1.42
8811.00,1.42
8810.00,1.42
8809.00,1.42
8808.00,1.42
8807.00,1.42
8806.00,1.42
8805.00,1.42
8804.00,1.42
8803.00,1.42
8802.00,1.42
8801.00,1.42
8800.00,1.42
8799.00,1.42
8798.00,1.42
8797.00,1.42
8796.00,1.42
8795.00,1.42
8794.00,1.42
8793.00,1.42
8792.00,1.42
8791.00,1.42
8790.00,1.42
8789.00,1.42
8788.00,1.42
8787.00,1.42
8786.00,1.42
8785.00,1.42
8784.00,1.42
8783.00,1.42
8782.00,1.42
8781.00,1.41
8780.00,1.41
8779.00,1.41
8778.00,1.41
8777.00,1.41
8776.00,1.41
8775.00,1.41
8774.00,1.41
8773.00,1.41
8772.00,1.41
8771.00,1.41
8770.00,1.41
8769.00,1.41
8768.00,1.41
8767.00,1.41
8766.00,1.40
8765.00,1.40
8764.00,1.40
8763.00,1.40
8762.00,1.40
8761.00,1.40
8760.00,1.40
8759.00,1.40
8758.00,1.40
8757.00,1.40
8756.00,1.39
8755.00,1.39
8754.00,1.39
8753.00,1.39
8752.00,1.39
8751.00,1.39
8750.00,1.39
8749.00,1.38
8748.00,1.38
8747.00,1.38
8746.00,1.38
8745.00,1.38
8744.00,1.38
8743.00,1.38
8742.00,1.38
8741.00,1.38
8740.00,1.38
8739.00,1.38
8738.00,1.38
8737.00,1.38
8736.00,1.38
8735.00,1.38
8734.00,1.38
8733.00,1.38
8732.00,1.38
8731.00,1.38
8730.00,1.38
8729.00,1.37
8728.00,1.37
8727.00,1.37
8726.00,1.37
8725.00,1.37
8724.00,1.37
8723.00,1.37
8722.00,1.37
8721.00,1.37
8720.00,1.37
8719.00,1.37
8718.00,1.37
8717.00,1.37
8716.00,1.37
8715.00,1.37
8714.00,1.37
8713.00,1.37
8712.00,1.37
8711.00,1.37
8710.00,1.37
8709.00,1.37
8708.00,1.37
8707.00,1.37
8706.00,1.37
8705.00,1.37
8704.00,1.37
8703.00,1.37
8702.00,1.37
8701.00,1.37
8700.00,1.37
8699.00,1.37
8698.00,1.37
8697.00,1.37
8696.00,1.37
8695.00,1.37
8694.00,1.37
8693.00,1.37
8692.00,1.37
8691.00,1.37
8690.00,1.37
8689.00,1.37
8688.00,1.37
8687.00,1.37
8686.00,1.37
8685.00,1.37
8684.00,1.37
8683.00,1.37
8682.00,1.37
8681.00,1.37
8680.00,1.37
8679.00,1.37
8678.00,1.37
8677.00,1.37
8676.00,1.37
8675.00,1.37
8674.00,1.37
8673.00,1.37
8672.00,1.37
8671.00,1.37
8670.00,1.37
8669.00,1.37
8668.00,1.37
8667.00,1.37
8666.00,1.37
8665.00,1.37
8664.00,1.37
8663.00,1.37
8662.00,1.37
8661.00,1.37
8660.00,1.37
8659.00,1.37
8658.00,1.37
8657.00,1.37
8656.00,1.37
8655.00,1.37
8654.00,1.37
8653.00,1.37
8652.00,1.37
8651.00,1.37
8650.00,1.37
8649.00,1.36
8648.00,1.36
8647.00,1.36
8646.00,1.36
8645.00,1.36
8644.00,1.36
8643.00,1.36
8642.00,1.36
8641.00,1.36
8640.00,1.36
8639.00,1.35
8638.00,1.35
8637.00,1.35
8636.00,1.35
8635.00,1.35
8634.00,1.34
8633.00,1.34
8632.00,1.34
8631.00,1.34
8630.00,1.34
8629.00,1.34
8628.00,1.34
8627.00,1.34
8626.00,1.34
8625.00,1.34
8624.00,1.34
8623.00,1.34
8622.00,1.34
8621.00,1.34
8620.00,1.34
8619.00,1.34
8618.00,1.34
8617.00,1.34
8616.00,1.34
8615.00,1.34
8614.00,1.34
8613.00,1.34
8612.00,1.34
8611.00,1.34
8610.00,1.34
8609.00,1.34
8608.00,1.34
8607.00,1.34
8606.00,1.34
8605.00,1.34
8604.00,1.34
8603.00,1.34
8602.00,1.34
8601.00,1.34
8600.00,1.34
8599.00,1.34
8598.00,1.34
8597.00,1.34
8596.00,1.34
8595.00,1.34
8594.00,1.34
8593.00,1.34
8592.00,1.34
8591.00,1.34
8590.00,1.34
8589.00,1.34
8588.00,1.34
8587.00,1.34
8586.00,1.34
8585.00,1.34
8584.00,1.34
8583.00,1.34
8582.00,1.34
8581.00,1.34
8580.00,1.34
8579.00,1.34
8578.00,1.33
8577.00,1.33
8576.00,1.33
8575.00,1.33
8574.00,1.33
8573.00,1.33
8572.00,1.32
8571.00,1.32
8570.00,1.32
8569.00,1.32
8568.00,1.32
8567.00,1.32
8566.00,1.31
8565.00,1.31
8564.00,1.31
8563.00,1.31
8562.00,1.31
8561.00,1.31
8560.00,1.31
8559.00,1.31
8558.00,1.31
8557.00,1.31
8556.00,1.31
8555.00,1.31
8554.00,1.31
8553.00,1.31
8552.00,1.31
8551.00,1.31
8550.00,1.31
8549.00,1.31
8548.00,1.31
8547.00,1.31
8546.00,1.31
8545.00,1.31
8544.00,1.31
8543.00,1.31
8542.00,1.31
8541.00,1.31
8540.00,1.30
8539.00,1.30
8538.00,1.30
8537.00,1.30
8536.00,1.30
8535.00,1.30
8534.00,1.30
8533.00,1.30
8532.00,1.30
8531.00,1.30
8530.00,1.30
8529.00,1.30
8528.00,1.29
8527.00,1.29
8526.00,1.29
8525.00,1.29
8524.00,1.29
8523.00,1.29
8522.00,1.29
8521.00,1.29
8520.00,1.29
8519.00,1.29
8518.00,1.29
8517.00,1.29
8516.00,1.29
8515.00,1.28
8514.00,1.28
8513.00,1.28
8512.00,1.28
8511.00,1.28
8510.00,1.28
8509.00,1.28
8508.00,1.28
8507.00,1.28
8506.00,1.27
8505.00,1.27
8504.00,1.27
8503.00,1.27
8502.00,1.27
8501.00,1.27
8500.00,1.27
8499.00,1.27
8498.00,1.27
8497.00,1.27
8496.00,1.27
8495.00,1.27
8494.00,1.27
8493.00,1.27
8492.00,1.26
8491.00,1.26
8490.00,1.26
8489.00,1.26
8488.00,1.26
8487.00,1.26
8486.00,1.26
8485.00,1.25
8484.00,1.25
8483.00,1.25
8482.00,1.25
8481.00,1.25
8480.00,1.25
8479.00,1.25
8478.00,1.25
8477.00,1.24
8476.00,1.24
8475.00,1.24
8474.00,1.24
8473.00,1.24
8472.00,1.24
8471.00,1.24
8470.00,1.24
8469.00,1.24
8468.00,1.24
8467.00,1.24
8466.00,1.23
8465.00,1.23
8464.00,1.23
8463.00,1.23
8462.00,1.23
8461.00,1.23
8460.00,1.23
8459.00,1.22
8458.00,1.22
8457.00,1.22
8456.00,1.22
8455.00,1.22
8454.00,1.22
8453.00,1.22
8452.00,1.22
8451.00,1.22
8450.00,1.22
8449.00,1.22
8448.00,1.22
8447.00,1.22
8446.00,1.22
8445.00,1.22
8444.00,1.22
8443.00,1.22
8442.00,1.22
8441.00,1.22
8440.00,1.22
8439.00,1.22
8438.00,1.22
8437.00,1.22
8436.00,1.22
8435.00,1.22
8434.00,1.22
8433.00,1.22
8432.00,1.22
8431.00,1.22
8430.00,1.22
8429.00,1.22
8428.00,1.22
8427.00,1.22
8426.00,1.22
8425.00,1.22
8424.00,1.22
8423.00,1.23
8422.00,1.23
8421.00,1.23
8420.00,1.23
8419.00,1.23
8418.00,1.23
8417.00,1.23
8416.00,1.24
8415.00,1.24
8414.00,1.24
8413.00,1.24
8412.00,1.24
8411.00,1.24
8410.00,1.24
8409.00,1.24
8408.00,1.24
8407.00,1.24
8406.00,1.24
8405.00,1.24
8404.00,1.24
8403.00,1.24
8402.00,1.24
8401.00,1.25
8400.00,1.25
8399.00,1.25
8398.00,1.25
8397.00,1.25
8396.00,1.25
8395.00,1.25
8394.00,1.25
8393.00,1.25
8392.00,1.25
8391.00,1.25
8390.00,1.25
8389.00,1.25
8388.00,1.25
8387.00,1.25
8386.00,1.25
8385.00,1.26
8384.00,1.26
8383.00,1.26
8382.00,1.26
8381.00,1.26
8380.00,1.26
8379.00,1.27
8378.00,1.27
8377.00,1.27
8376.00,1.27
8375.00,1.27
8374.00,1.28
8373.00,1.28
8372.00,1.28
8371.00,1.28
8370.00,1.29
8369.00,1.29
8368.00,1.29
8367.00,1.29
8366.00,1.29
8365.00,1.29
8364.00,1.29
8363.00,1.29
8362.00,1.29
8361.00,1.29
8360.00,1.29
8359.00,1.29
8358.00,1.29
8357.00,1.29
8356.00,1.29
8355.00,1.29
8354.00,1.29
8353.00,1.29
8352.00,1.29
8351.00,1.29
8350.00,1.29
8349.00,1.29
8348.00,1.28
8347.00,1.28
8346.00,1.28
8345.00,1.28
8344.00,1.28
8343.00,1.28
8342.00,1.28
8341.00,1.28
8340.00,1.28
8339.00,1.28
8338.00,1.28
8337.00,1.28
8336.00,1.28
8335.00,1.28
8334.00,1.28
8333.00,1.29
8332.00,1.29
8331.00,1.29
8330.00,1.29
8329.00,1.29
8328.00,1.29
8327.00,1.30
8326.00,1.30
8325.00,1.30
8324.00,1.30
8323.00,1.30
8322.00,1.30
8321.00,1.30
8320.00,1.30
8319.00,1.30
8318.00,1.30
8317.00,1.30
8316.00,1.30
8315.00,1.30
8314.00,1.30
8313.00,1.30
8312.00,1.30
8311.00,1.30
8310.00,1.30
8309.00,1.30
8308.00,1.30
8307.00,1.30
8306.00,1.30
8305.00,1.30
8304.00,1.30
8303.00,1.30
8302.00,1.30
8301.00,1.30
8300.00,1.30
8299.00,1.30
8298.00,1.30
8297.00,1.30
8296.00,1.30
8295.00,1.30
8294.00,1.30
8293.00,1.30
8292.00,1.30
8291.00,1.30
8290.00,1.30
8289.00,1.30
8288.00,1.30
8287.00,1.30
8286.00,1.30
8285.00,1.30
8284.00,1.30
8283.00,1.29
8282.00,1.29
8281.00,1.29
8280.00,1.29
8279.00,1.29
8278.00,1.29
8277.00,1.29
8276.00,1.29
8275.00,1.29
8274.00,1.30
8273.00,1.30
8272.00,1.30
8271.00,1.30
8270.00,1.30
8269.00,1.30
8268.00,1.30
8267.00,1.30
8266.00,1.30
8265.00,1.30
8264.00,1.30
8263.00,1.30
8262.00,1.30
8261.00,1.30
8260.00,1.30
8259.00,1.30
8258.00,1.30
8257.00,1.30
8256.00,1.30
8255.00,1.30
8254.00,1.30
8253.00,1.30
8252.00,1.30
8251.00,1.30
8250.00,1.31
8249.00,1.31
8248.00,1.31
8247.00,1.31
8246.00,1.31
8245.00,1.31
8244.00,1.31
8243.00,1.31
8242.00,1.31
8241.00,1.31
8240.00,1.31
8239.00,1.32
8238.00,1.32
8237.00,1.32
8236.00,1.32
8235.00,1.32
8234.00,1.32
8233.00,1.32
8232.00,1.32
8231.00,1.33
8230.00,1.33
8229.00,1.33
8228.00,1.33
8227.00,1.33
8226.00,1.33
8225.00,1.33
8224.00,1.33
8223.00,1.33
8222.00,1.33
8221.00,1.33
8220.00,1.33
8219.00,1.33
8218.00,1.33
8217.00,1.33
8216.00,1.33
8215.00,1.33
8214.00,1.33
8213.00,1.33
8212.00,1.33
8211.00,1.33
8210.00,1.33
8209.00,1.33
8208.00,1.33
8207.00,1.33
8206.00,1.33
8205.00,1.33
8204.00,1.33
8203.00,1.33
8202.00,1.33
8201.00,1.33
8200.00,1.33
8199.00,1.33
8198.00,1.33
8197.00,1.33
8196.00,1.33
8195.00,1.33
8194.00,1.33
8193.00,1.33
8192.00,1.33
8191.00,1.33
8190.00,1.33
8189.00,1.33
8188.00,1.33
8187.00,1.33
8186.00,1.33
8185.00,1.33
8184.00,1.34
8183.00,1.34
8182.00,1.34
8181.00,1.34
8180.00,1.34
8179.00,1.34
8178.00,1.34
8177.00,1.34
8176.00,1.34
8175.00,1.34
8174.00,1.34
8173.00,1.34
8172.00,1.34
8171.00,1.34
8170.00,1.35
8169.00,1.35
8168.00,1.35
8167.00,1.35
8166.00,1.35
8165.00,1.35
8164.00,1.35
8163.00,1.35
8162.00,1.35
8161.00,1.35
8160.00,1.35
8159.00,1.35
8158.00,1.35
8157.00,1.35
8156.00,1.35
8155.00,1.35
8154.00,1.35
8153.00,1.35
8152.00,1.35
8151.00,1.35
8150.00,1.35
8149.00,1.36
8148.00,1.36
8147.00,1.36
8146.00,1.36
8145.00,1.36
8144.00,1.36
8143.00,1.36
8142.00,1.36
8141.00,1.36
8140.00,1.36
8139.00,1.36
8138.00,1.36
8137.00,1.36
8136.00,1.36
8135.00,1.36
8134.00,1.36
8133.00,1.36
8132.00,1.36
8131.00,1.36
8130.00,1.36
8129.00,1.36
8128.00,1.36
8127.00,1.36
8126.00,1.36
8125.00,1.36
8124.00,1.36
8123.00,1.36
8122.00,1.36
8121.00,1.37
8120.00,1.37
8119.00,1.37
8118.00,1.37
8117.00,1.37
8116.00,1.37
8115.00,1.37
8114.00,1.37
8113.00,1.37
8112.00,1.37
8111.00,1.37
8110.00,1.37
8109.00,1.37
8108.00,1.37
8107.00,1.37
8106.00,1.37
8105.00,1.37
8104.00,1.37
8103.00,1.37
8102.00,1.37
8101.00,1.37
8100.00,1.37
8099.00,1.37
8098.00,1.37
8097.00,1.37
8096.00,1.37
8095.00,1.38
8094.00,1.38
8093.00,1.38
8092.00,1.38
8091.00,1.38
8090.00,1.38
8089.00,1.38
8088.00,1.38
8087.00,1.38
8086.00,1.38
8085.00,1.38
8084.00,1.38
8083.00,1.39
8082.00,1.39
8081.00,1.39
8080.00,1.39
8079.00,1.39
8078.00,1.39
8077.00,1.39
8076.00,1.39
8075.00,1.39
8074.00,1.39
8073.00,1.39
8072.00,1.39
8071.00,1.39
8070.00,1.39
8069.00,1.39
8068.00,1.39
8067.00,1.39
8066.00,1.39
8065.00,1.39
8064.00,1.39
8063.00,1.39
8062.00,1.39
8061.00,1.39
8060.00,1.39
8059.00,1.39
8058.00,1.39
8057.00,1.39
8056.00,1.39
8055.00,1.39
8054.00,1.39
8053.00,1.40
8052.00,1.40
8051.00,1.40
8050.00,1.40
8049.00,1.40
8048.00,1.40
8047.00,1.40
8046.00,1.40
8045.00,1.40
8044.00,1.40
8043.00,1.40
8042.00,1.40
8041.00,1.40
8040.00,1.40
8039.00,1.40
8038.00,1.40
8037.00,1.40
8036.00,1.40
8035.00,1.40
8034.00,1.40
8033.00,1.40
8032.00,1.40
8031.00,1.40
8030.00,1.40
8029.00,1.40
8028.00,1.40
8027.00,1.40
8026.00,1.40
8025.00,1.40
8024.00,1.39
8023.00,1.39
8022.00,1.39
8021.00,1.39
8020.00,1.39
8019.00,1.39
8018.00,1.39
8017.00,1.39
8016.00,1.39
8015.00,1.39
8014.00,1.39
8013.00,1.39
8012.00,1.39
8011.00,1.39
8010.00,1.39
8009.00,1.39
8008.00,1.39
8007.00,1.39
8006.00,1.39
8005.00,1.39
8004.00,1.39
8003.00,1.40
8002.00,1.40
8001.00,1.40
8000.00,1.40
7999.00,1.40
7998.00,1.40
7997.00,1.41
7996.00,1.41
7995.00,1.41
7994.00,1.41
7993.00,1.41
7992.00,1.41
7991.00,1.41
7990.00,1.41
7989.00,1.41
7988.00,1.41
7987.00,1.41
7986.00,1.41
7985.00,1.41
7984.00,1.41
7983.00,1.41
7982.00,1.41
7981.00,1.41
7980.00,1.41
7979.00,1.41
7978.00,1.41
7977.00,1.41
7976.00,1.41
7975.00,1.41
7974.00,1.41
7973.00,1.41
7972.00,1.41
7971.00,1.41
7970.00,1.41
7969.00,1.41
7968.00,1.41
7967.00,1.41
7966.00,1.41
7965.00,1.42
7964.00,1.42
7963.00,1.42
7962.00,1.42
7961.00,1.42
7960.00,1.42
7959.00,1.42
7958.00,1.42
7957.00,1.42
7956.00,1.42
7955.00,1.42
7954.00,1.42
7953.00,1.42
7952.00,1.42
7951.00,1.42
7950.00,1.42
7949.00,1.42
7948.00,1.42
7947.00,1.42
7946.00,1.42
7945.00,1.42
7944.00,1.42
7943.00,1.42
7942.00,1.42
7941.00,1.42
7940.00,1.42
7939.00,1.42
7938.00,1.42
7937.00,1.42
7936.00,1.42
7935.00,1.42
7934.00,1.42
7933.00,1.42
7932.00,1.42
7931.00,1.43
7930.00,1.43
7929.00,1.43
7928.00,1.43
7927.00,1.43
7926.00,1.43
7925.00,1.43
7924.00,1.43
7923.00,1.43
7922.00,1.43
7921.00,1.43
7920.00,1.43
7919.00,1.43
7918.00,1.43
7917.00,1.43
7916.00,1.43
7915.00,1.42
7914.00,1.42
7913.00,1.42
7912.00,1.42
7911.00,1.42
7910.00,1.42
7909.00,1.42
7908.00,1.42
7907.00,1.42
7906.00,1.42
7905.00,1.42
7904.00,1.42
7903.00,1.42
7902.00,1.42
7901.00,1.42
7900.00,1.42
7899.00,1.42
7898.00,1.42
7897.00,1.42
7896.00,1.42
7895.00,1.43
7894.00,1.43
7893.00,1.43
7892.00,1.43
7891.00,1.43
7890.00,1.43
7889.00,1.43
7888.00,1.43
7887.00,1.43
7886.00,1.43
7885.00,1.43
7884.00,1.43
7883.00,1.43
7882.00,1.43
7881.00,1.43
7880.00,1.43
7879.00,1.43
7878.00,1.43
7877.00,1.43
7876.00,1.43
7875.00,1.43
7874.00,1.43
7873.00,1.43
7872.00,1.43
7871.00,1.42
7870.00,1.42
7869.00,1.42
7868.00,1.42
7867.00,1.42
7866.00,1.42
7865.00,1.42
7864.00,1.42
7863.00,1.42
7862.00,1.42
7861.00,1.42
7860.00,1.42
7859.00,1.42
7858.00,1.42
7857.00,1.43
7856.00,1.43
7855.00,1.43
7854.00,1.43
7853.00,1.43
7852.00,1.43
7851.00,1.43
7850.00,1.43
7849.00,1.43
7848.00,1.43
7847.00,1.43
7846.00,1.43
7845.00,1.43
7844.00,1.43
7843.00,1.43
7842.00,1.43
7841.00,1.43
7840.00,1.44
7839.00,1.44
7838.00,1.44
7837.00,1.44
7836.00,1.44
7835.00,1.44
7834.00,1.44
7833.00,1.44
7832.00,1.44
7831.00,1.44
7830.00,1.44
7829.00,1.44
7828.00,1.44
7827.00,1.44
7826.00,1.44
7825.00,1.44
7824.00,1.44
7823.00,1.44
7822.00,1.44
7821.00,1.44
7820.00,1.44
7819.00,1.44
7818.00,1.44
7817.00,1.44
7816.00,1.44
7815.00,1.44
7814.00,1.44
7813.00,1.44
7812.00,1.44
7811.00,1.44
7810.00,1.44
7809.00,1.44
7808.00,1.44
7807.00,1.44
7806.00,1.44
7805.00,1.44
7804.00,1.45
7803.00,1.45
7802.00,1.45
7801.00,1.45
7800.00,1.45
7799.00,1.45
7798.00,1.45
7797.00,1.45
7796.00,1.45
7795.00,1.45
7794.00,1.45
7793.00,1.45
7792.00,1.45
7791.00,1.45
7790.00,1.45
7789.00,1.45
7788.00,1.45
7787.00,1.45
7786.00,1.45
7785.00,1.45
7784.00,1.45
7783.00,1.45
7782.00,1.45
7781.00,1.45
7780.00,1.45
7779.00,1.45
7778.00,1.45
7777.00,1.45
7776.00,1.45
7775.00,1.45
7774.00,1.45
7773.00,1.45
7772.00,1.45
7771.00,1.45
7770.00,1.45
7769.00,1.45
7768.00,1.45
7767.00,1.45
7766.00,1.45
7765.00,1.45
7764.00,1.45
7763.00,1.45
7762.00,1.45
7761.00,1.45
7760.00,1.45
7759.00,1.45
7758.00,1.45
7757.00,1.45
7756.00,1.45
7755.00,1.45
7754.00,1.45
7753.00,1.45
7752.00,1.45
7751.00,1.45
7750.00,1.45
7749.00,1.45
7748.00,1.45
7747.00,1.45
7746.00,1.45
7745.00,1.45
7744.00,1.45
7743.00,1.45
7742.00,1.45
7741.00,1.45
7740.00,1.45
7739.00,1.45
7738.00,1.45
7737.00,1.45
7736.00,1.45
7735.00,1.45
7734.00,1.45
7733.00,1.45
7732.00,1.45
7731.00,1.45
7730.00,1.45
7729.00,1.45
7728.00,1.45
7727.00,1.45
7726.00,1.45
7725.00,1.45
7724.00,1.45
7723.00,1.45
7722.00,1.45
7721.00,1.45
7720.00,1.45
7719.00,1.45
7718.00,1.45
7717.00,1.45
7716.00,1.45
7715.00,1.45
7714.00,1.45
7713.00,1.45
7712.00,1.45
7711.00,1.45
7710.00,1.45
7709.00,1.45
7708.00,1.45
7707.00,1.45
7706.00,1.45
7705.00,1.45
7704.00,1.45
7703.00,1.45
7702.00,1.45
7701.00,1.45
7700.00,1.45
7699.00,1.45
7698.00,1.45
7697.00,1.45
7696.00,1.45
7695.00,1.45
7694.00,1.45
7693.00,1.45
7692.00,1.45
7691.00,1.45
7690.00,1.45
7689.00,1.45
7688.00,1.45
7687.00,1.45
7686.00,1.45
7685.00,1.45
7684.00,1.45
7683.00,1.45
7682.00,1.45
7681.00,1.45
7680.00,1.45
7679.00,1.45
7678.00,1.45
7677.00,1.45
7676.00,1.45
7675.00,1.45
7674.00,1.45
7673.00,1.45
7672.00,1.45
7671.00,1.45
7670.00,1.45
7669.00,1.45
7668.00,1.45
7667.00,1.45
7666.00,1.45
7665.00,1.46
7664.00,1.46
7663.00,1.46
7662.00,1.46
7661.00,1.46
7660.00,1.46
7659.00,1.46
7658.00,1.46
7657.00,1.46
7656.00,1.46
7655.00,1.46
7654.00,1.45
7653.00,1.45
7652.00,1.45
7651.00,1.45
7650.00,1.45
7649.00,1.45
7648.00,1.45
7647.00,1.45
7646.00,1.45
7645.00,1.45
7644.00,1.45
7643.00,1.46
7642.00,1.46
7641.00,1.46
7640.00,1.46
7639.00,1.46
7638.00,1.46
7637.00,1.46
7636.00,1.46
7635.00,1.46
7634.00,1.46
7633.00,1.46
7632.00,1.46
7631.00,1.46
7630.00,1.46
7629.00,1.46
7628.00,1.46
7627.00,1.46
7626.00,1.46
7625.00,1.46
7624.00,1.46
7623.00,1.46
7622.00,1.46
7621.00,1.46
7620.00,1.46
7619.00,1.46
7618.00,1.46
7617.00,1.46
7616.00,1.46
7615.00,1.46
7614.00,1.46
7613.00,1.46
7612.00,1.46
7611.00,1.46
7610.00,1.46
7609.00,1.45
7608.00,1.45
7607.00,1.45
7606.00,1.45
7605.00,1.45
7604.00,1.45
7603.00,1.45
7602.00,1.45
7601.00,1.45
7600.00,1.45
7599.00,1.45
7598.00,1.45
7597.00,1.45
7596.00,1.45
7595.00,1.45
7594.00,1.45
7593.00,1.45
7592.00,1.45
7591.00,1.45
7590.00,1.45
7589.00,1.45
7588.00,1.45
7587.00,1.45
7586.00,1.45
7585.00,1.45
7584.00,1.45
7583.00,1.45
7582.00,1.45
7581.00,1.45
7580.00,1.45
7579.00,1.45
7578.00,1.45
7577.00,1.45
7576.00,1.45
7575.00,1.45
7574.00,1.45
7573.00,1.45
7572.00,1.45
7571.00,1.45
7570.00,1.45
7569.00,1.44
7568.00,1.44
7567.00,1.44
7566.00,1.44
7565.00,1.44
7564.00,1.44
7563.00,1.44
7562.00,1.44
7561.00,1.44
7560.00,1.44
7559.00,1.44
7558.00,1.44
7557.00,1.44
7556.00,1.44
7555.00,1.44
7554.00,1.44
7553.00,1.44
7552.00,1.44
7551.00,1.44
7550.00,1.44
7549.00,1.44
7548.00,1.44
7547.00,1.44
7546.00,1.44
7545.00,1.44
7544.00,1.44
7543.00,1.44
7542.00,1.44
7541.00,1.44
7540.00,1.44
7539.00,1.44
7538.00,1.44
7537.00,1.44
7536.00,1.44
7535.00,1.44
7534.00,1.44
7533.00,1.44
7532.00,1.44
7531.00,1.44
7530.00,1.44
7529.00,1.44
7528.00,1.44
7527.00,1.44
7526.00,1.44
7525.00,1.44
7524.00,1.44
7523.00,1.44
7522.00,1.44
7521.00,1.44
7520.00,1.44
7519.00,1.44
7518.00,1.44
7517.00,1.44
7516.00,1.44
7515.00,1.44
7514.00,1.44
7513.00,1.44
7512.00,1.44
7511.00,1.44
7510.00,1.44
7509.00,1.44
7508.00,1.44
7507.00,1.44
7506.00,1.44
7505.00,1.44
7504.00,1.44
7503.00,1.44
7502.00,1.44
7501.00,1.44
7500.00,1.44
7499.00,1.44
7498.00,1.44
7497.00,1.44
7496.00,1.44
7495.00,1.44
7494.00,1.44
7493.00,1.44
7492.00,1.44
7491.00,1.44
7490.00,1.44
7489.00,1.44
7488.00,1.44
7487.00,1.43
7486.00,1.43
7485.00,1.43
7484.00,1.43
7483.00,1.43
7482.00,1.43
7481.00,1.43
7480.00,1.43
7479.00,1.43
7478.00,1.43
7477.00,1.42
7476.00,1.42
7475.00,1.42
7474.00,1.42
7473.00,1.42
7472.00,1.42
7471.00,1.42
7470.00,1.42
7469.00,1.42
7468.00,1.41
7467.00,1.41
7466.00,1.41
7465.00,1.41
7464.00,1.41
7463.00,1.41
7462.00,1.41
7461.00,1.41
7460.00,1.41
7459.00,1.41
7458.00,1.41
7457.00,1.41
7456.00,1.41
7455.00,1.41
7454.00,1.41
7453.00,1.41
7452.00,1.41
7451.00,1.41
7450.00,1.41
7449.00,1.40
7448.00,1.40
7447.00,1.40
7446.00,1.40
7445.00,1.40
7444.00,1.40
7443.00,1.40
7442.00,1.40
7441.00,1.40
7440.00,1.40
7439.00,1.40
7438.00,1.40
7437.00,1.40
7436.00,1.40
7435.00,1.39
7434.00,1.39
7433.00,1.39
7432.00,1.39
7431.00,1.39
7430.00,1.39
7429.00,1.39
7428.00,1.39
7427.00,1.39
7426.00,1.39
7425.00,1.38
7424.00,1.38
7423.00,1.38
7422.00,1.38
7421.00,1.38
7420.00,1.38
7419.00,1.38
7418.00,1.38
7417.00,1.38
7416.00,1.38
7415.00,1.38
7414.00,1.37
7413.00,1.37
7412.00,1.37
7411.00,1.37
7410.00,1.37
7409.00,1.37
7408.00,1.37
7407.00,1.37
7406.00,1.37
7405.00,1.36
7404.00,1.36
7403.00,1.36
7402.00,1.36
7401.00,1.36
7400.00,1.36
7399.00,1.36
7398.00,1.36
7397.00,1.35
7396.00,1.35
7395.00,1.35
7394.00,1.35
7393.00,1.35
7392.00,1.35
7391.00,1.35
7390.00,1.35
7389.00,1.35
7388.00,1.34
7387.00,1.34
7386.00,1.34
7385.00,1.34
7384.00,1.34
7383.00,1.34
7382.00,1.34
7381.00,1.33
7380.00,1.33
7379.00,1.33
7378.00,1.33
7377.00,1.33
7376.00,1.33
7375.00,1.33
7374.00,1.33
7373.00,1.32
7372.00,1.32
7371.00,1.32
7370.00,1.32
7369.00,1.32
7368.00,1.32
7367.00,1.32
7366.00,1.32
7365.00,1.32
7364.00,1.32
7363.00,1.32
7362.00,1.32
7361.00,1.33
7360.00,1.33
7359.00,1.33
7358.00,1.33
7357.00,1.33
7356.00,1.33
7355.00,1.33
7354.00,1.33
7353.00,1.33
7352.00,1.33
7351.00,1.33
7350.00,1.33
7349.00,1.33
7348.00,1.33
7347.00,1.33
7346.00,1.33
7345.00,1.33
7344.00,1.33
7343.00,1.33
7342.00,1.33
7341.00,1.33
7340.00,1.33
7339.00,1.33
7338.00,1.32
7337.00,1.32
7336.00,1.32
7335.00,1.32
7334.00,1.32
7333.00,1.32
7332.00,1.32
7331.00,1.32
7330.00,1.32
7329.00,1.32
7328.00,1.31
7327.00,1.31
7326.00,1.31
7325.00,1.31
7324.00,1.31
7323.00,1.31
7322.00,1.31
7321.00,1.31
7320.00,1.30
7319.00,1.30
7318.00,1.30
7317.00,1.30
7316.00,1.30
7315.00,1.30
7314.00,1.30
7313.00,1.30
7312.00,1.29
7311.00,1.29
7310.00,1.29
7309.00,1.29
7308.00,1.29
7307.00,1.29
7306.00,1.29
7305.00,1.29
7304.00,1.29
7303.00,1.28
7302.00,1.28
7301.00,1.28
7300.00,1.28
7299.00,1.28
7298.00,1.28
7297.00,1.28
7296.00,1.28
7295.00,1.28
7294.00,1.28
7293.00,1.27
7292.00,1.27
7291.00,1.27
7290.00,1.27
7289.00,1.27
7288.00,1.27
7287.00,1.27
7286.00,1.27
7285.00,1.27
7284.00,1.27
7283.00,1.27
7282.00,1.27
7281.00,1.27
7280.00,1.26
7279.00,1.26
7278.00,1.26
7277.00,1.26
7276.00,1.26
7275.00,1.26
7274.00,1.25
7273.00,1.25
7272.00,1.25
7271.00,1.25
7270.00,1.25
7269.00,1.24
7268.00,1.24
7267.00,1.24
7266.00,1.24
7265.00,1.24
7264.00,1.24
7263.00,1.23
7262.00,1.23
7261.00,1.23
7260.00,1.23
7259.00,1.23
7258.00,1.23
7257.00,1.22
7256.00,1.22
7255.00,1.22
7254.00,1.22
7253.00,1.22
7252.00,1.21
7251.00,1.21
7250.00,1.21
7249.00,1.21
7248.00,1.20
7247.00,1.20
7246.00,1.20
7245.00,1.20
7244.00,1.19
7243.00,1.19
7242.00,1.19
7241.00,1.18
7240.00,1.18
7239.00,1.17
7238.00,1.17
7237.00,1.17
7236.00,1.16
7235.00,1.16
7234.00,1.16
7233.00,1.15
7232.00,1.15
7231.00,1.15
7230.00,1.14
7229.00,1.14
7228.00,1.14
7227.00,1.13
7226.00,1.13
7225.00,1.13
7224.00,1.12
7223.00,1.12
7222.00,1.12
7221.00,1.11
7220.00,1.11
7219.00,1.11
7218.00,1.10
7217.00,1.10
7216.00,1.09
7215.00,1.09
7214.00,1.09
7213.00,1.08
7212.00,1.08
7211.00,1.07
7210.00,1.07
7209.00,1.07
7208.00,1.06
7207.00,1.06
7206.00,1.05
7205.00,1.05
7204.00,1.05
7203.00,1.04
7202.00,1.04
7201.00,1.04
7200.00,1.03
7199.00,1.03
7198.00,1.03
7197.00,1.02
7196.00,1.02
7195.00,1.02
7194.00,1.01
7193.00,1.01
7192.00,1.01
7191.00,1.01
7190.00,1.00
7189.00,1.00
7188.00,1.00
7187.00,1.00
7186.00,0.99
7185.00,0.99
7184.00,0.99
7183.00,0.98
7182.00,0.98
7181.00,0.98
7180.00,0.98
7179.00,0.97
7178.00,0.97
7177.00,0.97
7176.00,0.97
7175.00,0.96
7174.00,0.96
7173.00,0.96
7172.00,0.96
7171.00,0.95
7170.00,0.95
7169.00,0.95
7168.00,0.94
7167.00,0.94
7166.00,0.94
7165.00,0.93
7164.00,0.93
7163.00,0.93
7162.00,0.92
7161.00,0.92
7160.00,0.92
7159.00,0.91
7158.00,0.91
7157.00,0.91
7156.00,0.90
7155.00,0.90
7154.00,0.90
7153.00,0.89
7152.00,0.89
7151.00,0.89
7150.00,0.89
7149.00,0.88
7148.00,0.88
7147.00,0.88
7146.00,0.87
7145.00,0.87
7144.00,0.87
7143.00,0.86
7142.00,0.86
7141.00,0.86
7140.00,0.86
7139.00,0.85
7138.00,0.85
7137.00,0.85
7136.00,0.84
7135.00,0.84
7134.00,0.84
7133.00,0.84
7132.00,0.83
7131.00,0.83
7130.00,0.83
7129.00,0.83
7128.00,0.82
7127.00,0.82
7126.00,0.82
7125.00,0.82
7124.00,0.81
7123.00,0.81
7122.00,0.81
7121.00,0.80
7120.00,0.80
7119.00,0.80
7118.00,0.79
7117.00,0.79
7116.00,0.79
7115.00,0.79
7114.00,0.78
7113.00,0.78
7112.00,0.78
7111.00,0.78
7110.00,0.78
7109.00,0.77
7108.00,0.77
7107.00,0.77
7106.00,0.77
7105.00,0.76
7104.00,0.76
7103.00,0.76
7102.00,0.76
7101.00,0.76
7100.00,0.75
7099.00,0.75
7098.00,0.75
7097.00,0.75
7096.00,0.74
7095.00,0.74
7094.00,0.74
7093.00,0.74
7092.00,0.73
7091.00,0.73
7090.00,0.73
7089.00,0.73
7088.00,0.72
7087.00,0.72
7086.00,0.72
7085.00,0.72
7084.00,0.72
7083.00,0.72
7082.00,0.71
7081.00,0.71
7080.00,0.71
7079.00,0.71
7078.00,0.71
7077.00,0.71
7076.00,0.71
7075.00,0.70
7074.00,0.70
7073.00,0.70
7072.00,0.70
7071.00,0.70
7070.00,0.70
7069.00,0.69
7068.00,0.69
7067.00,0.69
7066.00,0.69
7065.00,0.69
7064.00,0.69
7063.00,0.68
7062.00,0.68
7061.00,0.68
7060.00,0.68
7059.00,0.68
7058.00,0.67
7057.00,0.67
7056.00,0.67
7055.00,0.67
7054.00,0.67
7053.00,0.67
7052.00,0.67
7051.00,0.66
7050.00,0.66
7049.00,0.66
7048.00,0.66
7047.00,0.66
7046.00,0.66
7045.00,0.66
7044.00,0.66
7043.00,0.66
7042.00,0.65
7041.00,0.65
7040.00,0.65
7039.00,0.65
7038.00,0.65
7037.00,0.65
7036.00,0.65
7035.00,0.65
7034.00,0.65
7033.00,0.65
7032.00,0.65
7031.00,0.64
7030.00,0.64
7029.00,0.64
7028.00,0.64
7027.00,0.64
7026.00,0.64
7025.00,0.64
7024.00,0.64
7023.00,0.63
7022.00,0.63
7021.00,0.63
7020.00,0.63
7019.00,0.63
7018.00,0.63
7017.00,0.63
7016.00,0.63
7015.00,0.63
7014.00,0.63
7013.00,0.63
7012.00,0.63
7011.00,0.62
7010.00,0.62
7009.00,0.62
7008.00,0.62
7007.00,0.62
7006.00,0.62
7005.00,0.62
7004.00,0.62
7003.00,0.62
7002.00,0.62
7001.00,0.62
7000.00,0.62
6999.00,0.62
6998.00,0.62
6997.00,0.62
6996.00,0.62
6995.00,0.62
6994.00,0.62
6993.00,0.61
6992.00,0.61
6991.00,0.61
6990.00,0.61
6989.00,0.61
6988.00,0.61
6987.00,0.61
6986.00,0.61
6985.00,0.61
6984.00,0.61
6983.00,0.61
6982.00,0.61
6981.00,0.61
6980.00,0.61
6979.00,0.61
6978.00,0.61
6977.00,0.61
6976.00,0.61
6975.00,0.60
6974.00,0.60
6973.00,0.60
6972.00,0.60
6971.00,0.60
6970.00,0.60
6969.00,0.60
6968.00,0.60
6967.00,0.60
6966.00,0.60
6965.00,0.60
6964.00,0.60
6963.00,0.60
6962.00,0.60
6961.00,0.60
6960.00,0.60
6959.00,0.60
6958.00,0.60
6957.00,0.60
6956.00,0.60
6955.00,0.60
6954.00,0.60
6953.00,0.60
6952.00,0.59
6951.00,0.59
6950.00,0.59
6949.00,0.59
6948.00,0.59
6947.00,0.59
6946.00,0.59
6945.00,0.59
6944.00,0.59
6943.00,0.59
6942.00,0.59
6941.00,0.59
6940.00,0.59
6939.00,0.59
6938.00,0.59
6937.00,0.59
6936.00,0.59
6935.00,0.59
6934.00,0.59
6933.00,0.59
6932.00,0.59
6931.00,0.59
6930.00,0.58
6929.00,0.58
6928.00,0.58
6927.00,0.58
6926.00,0.58
6925.00,0.58
6924.00,0.58
6923.00,0.58
6922.00,0.58
6921.00,0.58
6920.00,0.58
6919.00,0.58
6918.00,0.58
6917.00,0.58
6916.00,0.58
6915.00,0.58
6914.00,0.58
6913.00,0.58
6912.00,0.58
6911.00,0.58
6910.00,0.58
6909.00,0.58
6908.00,0.58
6907.00,0.58
6906.00,0.57
6905.00,0.57
6904.00,0.57
6903.00,0.57
6902.00,0.57
6901.00,0.57
6900.00,0.57
6899.00,0.57
6898.00,0.57
6897.00,0.57
6896.00,0.57
6895.00,0.57
6894.00,0.57
6893.00,0.57
6892.00,0.57
6891.00,0.57
6890.00,0.57
6889.00,0.57
6888.00,0.58
6887.00,0.58
6886.00,0.58
6885.00,0.58
6884.00,0.58
6883.00,0.58
6882.00,0.58
6881.00,0.58
6880.00,0.58
6879.00,0.58
6878.00,0.58
6877.00,0.58
6876.00,0.58
6875.00,0.58
6874.00,0.58
6873.00,0.58
6872.00,0.58
6871.00,0.58
6870.00,0.58
6869.00,0.58
6868.00,0.58
6867.00,0.58
6866.00,0.58
6865.00,0.58
6864.00,0.58
6863.00,0.58
6862.00,0.58
6861.00,0.58
6860.00,0.58
6859.00,0.58
6858.00,0.58
6857.00,0.58
6856.00,0.58
6855.00,0.58
6854.00,0.58
6853.00,0.58
6852.00,0.58
6851.00,0.58
6850.00,0.58
6849.00,0.57
6848.00,0.57
6847.00,0.57
6846.00,0.57
6845.00,0.57
6844.00,0.57
6843.00,0.57
6842.00,0.57
6841.00,0.57
6840.00,0.57
6839.00,0.57
6838.00,0.57
6837.00,0.57
6836.00,0.58
6835.00,0.58
6834.00,0.58
6833.00,0.58
6832.00,0.58
6831.00,0.58
6830.00,0.58
6829.00,0.58
6828.00,0.58
6827.00,0.58
6826.00,0.58
6825.00,0.58
6824.00,0.58
6823.00,0.58
6822.00,0.58
6821.00,0.58
6820.00,0.58
6819.00,0.58
6818.00,0.58
6817.00,0.58
6816.00,0.58
6815.00,0.58
6814.00,0.58
6813.00,0.58
6812.00,0.58
6811.00,0.58
6810.00,0.58
6809.00,0.59
6808.00,0.59
6807.00,0.59
6806.00,0.59
6805.00,0.59
6804.00,0.59
6803.00,0.59
6802.00,0.59
6801.00,0.59
6800.00,0.59
6799.00,0.59
6798.00,0.59
6797.00,0.59
6796.00,0.59
6795.00,0.59
6794.00,0.59
6793.00,0.59
6792.00,0.59
6791.00,0.59
6790.00,0.59
6789.00,0.59
6788.00,0.59
6787.00,0.59
6786.00,0.59
6785.00,0.59
6784.00,0.59
6783.00,0.60
6782.00,0.60
6781.00,0.60
6780.00,0.60
6779.00,0.60
6778.00,0.60
6777.00,0.60
6776.00,0.60
6775.00,0.60
6774.00,0.60
6773.00,0.60
6772.00,0.60
6771.00,0.60
6770.00,0.60
6769.00,0.60
6768.00,0.61
6767.00,0.61
6766.00,0.61
6765.00,0.61
6764.00,0.61
6763.00,0.61
6762.00,0.61
6761.00,0.61
6760.00,0.61
6759.00,0.61
6758.00,0.61
6757.00,0.61
6756.00,0.61
6755.00,0.61
6754.00,0.61
6753.00,0.61
6752.00,0.61
6751.00,0.61
6750.00,0.62
6749.00,0.62
6748.00,0.62
6747.00,0.62
6746.00,0.62
6745.00,0.62
6744.00,0.62
6743.00,0.62
6742.00,0.62
6741.00,0.62
6740.00,0.62
6739.00,0.62
6738.00,0.62
6737.00,0.62
6736.00,0.63
6735.00,0.63
6734.00,0.63
6733.00,0.63
6732.00,0.63
6731.00,0.63
6730.00,0.63
6729.00,0.63
6728.00,0.64
6727.00,0.64
6726.00,0.64
6725.00,0.64
6724.00,0.64
6723.00,0.64
6722.00,0.64
6721.00,0.65
6720.00,0.65
6719.00,0.65
6718.00,0.65
6717.00,0.65
6716.00,0.65
6715.00,0.65
6714.00,0.65
6713.00,0.65
6712.00,0.65
6711.00,0.65
6710.00,0.65
6709.00,0.65
6708.00,0.65
6707.00,0.65
6706.00,0.65
6705.00,0.65
6704.00,0.65
6703.00,0.65
6702.00,0.65
6701.00,0.65
6700.00,0.66
6699.00,0.66
6698.00,0.66
6697.00,0.66
6696.00,0.66
6695.00,0.66
6694.00,0.66
6693.00,0.66
6692.00,0.66
6691.00,0.66
6690.00,0.66
6689.00,0.66
6688.00,0.66
6687.00,0.67
6686.00,0.67
6685.00,0.67
6684.00,0.67
6683.00,0.67
6682.00,0.67
6681.00,0.67
6680.00,0.67
6679.00,0.67
6678.00,0.67
6677.00,0.67
6676.00,0.67
6675.00,0.67
6674.00,0.67
6673.00,0.67
6672.00,0.67
6671.00,0.68
6670.00,0.68
6669.00,0.68
6668.00,0.68
6667.00,0.68
6666.00,0.68
6665.00,0.68
6664.00,0.68
6663.00,0.68
6662.00,0.68
6661.00,0.68
6660.00,0.68
6659.00,0.69
6658.00,0.69
6657.00,0.69
6656.00,0.69
6655.00,0.69
6654.00,0.69
6653.00,0.69
6652.00,0.69
6651.00,0.70
6650.00,0.70
6649.00,0.70
6648.00,0.70
6647.00,0.70
6646.00,0.70
6645.00,0.70
6644.00,0.70
6643.00,0.70
6642.00,0.71
6641.00,0.71
6640.00,0.71
6639.00,0.71
6638.00,0.71
6637.00,0.71
6636.00,0.71
6635.00,0.71
6634.00,0.71
6633.00,0.72
6632.00,0.72
6631.00,0.72
6630.00,0.72
6629.00,0.72
6628.00,0.72
6627.00,0.72
6626.00,0.72
6625.00,0.73
6624.00,0.73
6623.00,0.73
6622.00,0.73
6621.00,0.73
6620.00,0.73
6619.00,0.73
6618.00,0.74
6617.00,0.74
6616.00,0.74
6615.00,0.74
6614.00,0.74
6613.00,0.74
6612.00,0.74
6611.00,0.75
6610.00,0.75
6609.00,0.75
6608.00,0.75
6607.00,0.75
6606.00,0.75
6605.00,0.75
6604.00,0.75
6603.00,0.75
6602.00,0.75
6601.00,0.75
6600.00,0.75
6599.00,0.75
6598.00,0.76
6597.00,0.76
6596.00,0.76
6595.00,0.76
6594.00,0.76
6593.00,0.76
6592.00,0.76
6591.00,0.76
6590.00,0.76
6589.00,0.77
6588.00,0.77
6587.00,0.77
6586.00,0.77
6585.00,0.77
6584.00,0.77
6583.00,0.77
6582.00,0.77
6581.00,0.77
6580.00,0.78
6579.00,0.78
6578.00,0.78
6577.00,0.78
6576.00,0.78
6575.00,0.78
6574.00,0.78
6573.00,0.78
6572.00,0.78
6571.00,0.78
6570.00,0.78
6569.00,0.78
6568.00,0.78
6567.00,0.78
6566.00,0.78
6565.00,0.78
6564.00,0.79
6563.00,0.79
6562.00,0.79
6561.00,0.79
6560.00,0.79
6559.00,0.79
6558.00,0.79
6557.00,0.79
6556.00,0.79
6555.00,0.79
6554.00,0.79
6553.00,0.79
6552.00,0.79
6551.00,0.80
6550.00,0.80
6549.00,0.80
6548.00,0.80
6547.00,0.80
6546.00,0.80
6545.00,0.80
6544.00,0.80
6543.00,0.80
6542.00,0.81
6541.00,0.81
6540.00,0.81
6539.00,0.81
6538.00,0.81
6537.00,0.81
6536.00,0.81
6535.00,0.82
6534.00,0.82
6533.00,0.82
6532.00,0.82
6531.00,0.82
6530.00,0.82
6529.00,0.82
6528.00,0.82
6527.00,0.82
6526.00,0.82
6525.00,0.82
6524.00,0.82
6523.00,0.82
6522.00,0.82
6521.00,0.82
6520.00,0.82
6519.00,0.82
6518.00,0.82
6517.00,0.82
6516.00,0.82
6515.00,0.82
6514.00,0.82
6513.00,0.82
6512.00,0.83
6511.00,0.83
6510.00,0.83
6509.00,0.83
6508.00,0.83
6507.00,0.83
6506.00,0.83
6505.00,0.83
6504.00,0.83
6503.00,0.83
6502.00,0.83
6501.00,0.84
6500.00,0.84
6499.00,0.84
6498.00,0.84
6497.00,0.84
6496.00,0.84
6495.00,0.84
6494.00,0.84
6493.00,0.84
6492.00,0.84
6491.00,0.85
6490.00,0.85
6489.00,0.85
6488.00,0.85
6487.00,0.85
6486.00,0.85
6485.00,0.85
6484.00,0.85
6483.00,0.85
6482.00,0.85
6481.00,0.85
6480.00,0.85
6479.00,0.85
6478.00,0.85
6477.00,0.85
6476.00,0.85
6475.00,0.85
6474.00,0.85
6473.00,0.85
6472.00,0.85
6471.00,0.85
6470.00,0.85
6469.00,0.85
6468.00,0.85
6467.00,0.86
6466.00,0.86
6465.00,0.86
6464.00,0.86
6463.00,0.86
6462.00,0.86
6461.00,0.86
6460.00,0.86
6459.00,0.86
6458.00,0.86
6457.00,0.86
6456.00,0.86
6455.00,0.87
6454.00,0.87
6453.00,0.87
6452.00,0.87
6451.00,0.87
6450.00,0.87
6449.00,0.87
6448.00,0.87
6447.00,0.87
6446.00,0.87
6445.00,0.87
6444.00,0.87
6443.00,0.87
6442.00,0.87
6441.00,0.87
6440.00,0.87
6439.00,0.87
6438.00,0.87
6437.00,0.87
6436.00,0.87
6435.00,0.87
6434.00,0.87
6433.00,0.87
6432.00,0.87
6431.00,0.87
6430.00,0.87
6429.00,0.87
6428.00,0.88
6427.00,0.88
6426.00,0.88
6425.00,0.88
6424.00,0.88
6423.00,0.88
6422.00,0.88
6421.00,0.88
6420.00,0.88
6419.00,0.88
6418.00,0.89
6417.00,0.89
6416.00,0.89
6415.00,0.89
6414.00,0.89
6413.00,0.89
6412.00,0.89
6411.00,0.89
6410.00,0.89
6409.00,0.89
6408.00,0.89
6407.00,0.89
6406.00,0.89
6405.00,0.89
6404.00,0.89
6403.00,0.89
6402.00,0.89
6401.00,0.89
6400.00,0.89
6399.00,0.89
6398.00,0.89
6397.00,0.89
6396.00,0.89
6395.00,0.89
6394.00,0.89
6393.00,0.89
6392.00,0.89
6391.00,0.89
6390.00,0.89
6389.00,0.89
6388.00,0.89
6387.00,0.90
6386.00,0.90
6385.00,0.90
6384.00,0.90
6383.00,0.90
6382.00,0.90
6381.00,0.90
6380.00,0.90
6379.00,0.90
6378.00,0.90
6377.00,0.90
6376.00,0.90
6375.00,0.90
6374.00,0.90
6373.00,0.91
6372.00,0.91
6371.00,0.91
6370.00,0.91
6369.00,0.91
6368.00,0.91
6367.00,0.91
6366.00,0.91
6365.00,0.91
6364.00,0.92
6363.00,0.92
6362.00,0.92
6361.00,0.92
6360.00,0.92
6359.00,0.92
6358.00,0.92
6357.00,0.92
6356.00,0.92
6355.00,0.92
6354.00,0.92
6353.00,0.92
6352.00,0.92
6351.00,0.92
6350.00,0.93
6349.00,0.93
6348.00,0.93
6347.00,0.93
6346.00,0.93
6345.00,0.93
6344.00,0.93
6343.00,0.93
6342.00,0.93
6341.00,0.93
6340.00,0.94
6339.00,0.94
6338.00,0.94
6337.00,0.94
6336.00,0.94
6335.00,0.94
6334.00,0.94
6333.00,0.94
6332.00,0.95
6331.00,0.95
6330.00,0.95
6329.00,0.95
6328.00,0.95
6327.00,0.95
6326.00,0.95
6325.00,0.95
6324.00,0.95
6323.00,0.95
6322.00,0.95
6321.00,0.96
6320.00,0.96
6319.00,0.96
6318.00,0.96
6317.00,0.96
6316.00,0.96
6315.00,0.96
6314.00,0.96
6313.00,0.96
6312.00,0.96
6311.00,0.96
6310.00,0.96
6309.00,0.96
6308.00,0.96
6307.00,0.97
6306.00,0.97
6305.00,0.97
6304.00,0.97
6303.00,0.97
6302.00,0.97
6301.00,0.97
6300.00,0.97
6299.00,0.98
6298.00,0.98
6297.00,0.98
6296.00,0.98
6295.00,0.98
6294.00,0.98
6293.00,0.98
6292.00,0.99
6291.00,0.99
6290.00,0.99
6289.00,0.99
6288.00,0.99
6287.00,0.99
6286.00,0.99
6285.00,0.99
6284.00,1.00
6283.00,1.00
6282.00,1.00
6281.00,1.00
6280.00,1.00
6279.00,1.00
6278.00,1.00
6277.00,1.00
6276.00,1.00
6275.00,1.01
6274.00,1.01
6273.00,1.01
6272.00,1.01
6271.00,1.01
6270.00,1.01
6269.00,1.01
6268.00,1.01
6267.00,1.01
6266.00,1.02
6265.00,1.02
6264.00,1.02
6263.00,1.02
6262.00,1.02
6261.00,1.02
6260.00,1.02
6259.00,1.02
6258.00,1.02
6257.00,1.02
6256.00,1.02
6255.00,1.02
6254.00,1.02
6253.00,1.03
6252.00,1.03
6251.00,1.03
6250.00,1.03
6249.00,1.03
6248.00,1.03
6247.00,1.03
6246.00,1.03
6245.00,1.04
6244.00,1.04
6243.00,1.04
6242.00,1.04
6241.00,1.04
6240.00,1.04
6239.00,1.05
6238.00,1.05
6237.00,1.05
6236.00,1.05
6235.00,1.05
6234.00,1.06
6233.00,1.06
6232.00,1.06
6231.00,1.06
6230.00,1.06
6229.00,1.06
6228.00,1.07
6227.00,1.07
6226.00,1.07
6225.00,1.07
6224.00,1.07
6223.00,1.07
6222.00,1.08
6221.00,1.08
6220.00,1.08
6219.00,1.08
6218.00,1.08
6217.00,1.08
6216.00,1.08
6215.00,1.08
6214.00,1.09
6213.00,1.09
6212.00,1.09
6211.00,1.09
6210.00,1.09
6209.00,1.09
6208.00,1.09
6207.00,1.09
6206.00,1.09
6205.00,1.10
6204.00,1.10
6203.00,1.10
6202.00,1.10
6201.00,1.10
6200.00,1.10
6199.00,1.10
6198.00,1.10
6197.00,1.11
6196.00,1.11
6195.00,1.11
6194.00,1.11
6193.00,1.11
6192.00,1.11
6191.00,1.12
6190.00,1.12
6189.00,1.12
6188.00,1.12
6187.00,1.12
6186.00,1.12
6185.00,1.13
6184.00,1.13
6183.00,1.13
6182.00,1.13
6181.00,1.13
6180.00,1.13
6179.00,1.13
6178.00,1.14
6177.00,1.14
6176.00,1.14
6175.00,1.14
6174.00,1.14
6173.00,1.14
6172.00,1.15
6171.00,1.15
6170.00,1.15
6169.00,1.15
6168.00,1.15
6167.00,1.16
6166.00,1.16
6165.00,1.16
6164.00,1.16
6163.00,1.16
6162.00,1.16
6161.00,1.17
6160.00,1.17
6159.00,1.17
6158.00,1.17
6157.00,1.17
6156.00,1.18
6155.00,1.18
6154.00,1.18
6153.00,1.18
6152.00,1.18
6151.00,1.18
6150.00,1.19
6149.00,1.19
6148.00,1.19
6147.00,1.19
6146.00,1.19
6145.00,1.19
6144.00,1.20
6143.00,1.20
6142.00,1.20
6141.00,1.20
6140.00,1.20
6139.00,1.20
6138.00,1.21
6137.00,1.21
6136.00,1.21
6135.00,1.21
6134.00,1.21
6133.00,1.21
6132.00,1.21
6131.00,1.22
6130.00,1.22
6129.00,1.22
6128.00,1.22
6127.00,1.22
6126.00,1.22
6125.00,1.23
6124.00,1.23
6123.00,1.23
6122.00,1.23
6121.00,1.23
6120.00,1.23
6119.00,1.24
6118.00,1.24
6117.00,1.24
6116.00,1.24
6115.00,1.24
6114.00,1.25
6113.00,1.25
6112.00,1.25
6111.00,1.25
6110.00,1.25
6109.00,1.26
6108.00,1.26
6107.00,1.26
6106.00,1.26
6105.00,1.26
6104.00,1.26
6103.00,1.27
6102.00,1.27
6101.00,1.27
6100.00,1.27
6099.00,1.27
6098.00,1.27
6097.00,1.28
6096.00,1.28
6095.00,1.28
6094.00,1.28
6093.00,1.28
6092.00,1.28
6091.00,1.29
6090.00,1.29
6089.00,1.29
6088.00,1.29
6087.00,1.29
6086.00,1.29
6085.00,1.29
6084.00,1.29
6083.00,1.30
6082.00,1.30
6081.00,1.30
6080.00,1.30
6079.00,1.30
6078.00,1.30
6077.00,1.30
6076.00,1.30
6075.00,1.30
6074.00,1.30
6073.00,1.30
6072.00,1.31
6071.00,1.31
6070.00,1.31
6069.00,1.31
6068.00,1.31
6067.00,1.31
6066.00,1.31
6065.00,1.32
6064.00,1.32
6063.00,1.32
6062.00,1.32
6061.00,1.32
6060.00,1.32
6059.00,1.32
6058.00,1.32
6057.00,1.32
6056.00,1.33
6055.00,1.33
6054.00,1.33
6053.00,1.33
6052.00,1.33
6051.00,1.33
6050.00,1.33
6049.00,1.33
6048.00,1.33
6047.00,1.33
6046.00,1.34
6045.00,1.34
6044.00,1.34
6043.00,1.34
6042.00,1.34
6041.00,1.34
6040.00,1.34
6039.00,1.34
6038.00,1.34
6037.00,1.34
6036.00,1.35
6035.00,1.35
6034.00,1.35
6033.00,1.35
6032.00,1.35
6031.00,1.35
6030.00,1.35
6029.00,1.35
6028.00,1.35
6027.00,1.35
6026.00,1.35
6025.00,1.35
6024.00,1.35
6023.00,1.35
6022.00,1.35
6021.00,1.35
6020.00,1.35
6019.00,1.35
6018.00,1.35
6017.00,1.35
6016.00,1.35
6015.00,1.35
6014.00,1.35
6013.00,1.35
6012.00,1.35
6011.00,1.35
6010.00,1.35
6009.00,1.35
6008.00,1.35
6007.00,1.35
6006.00,1.35
6005.00,1.35
6004.00,1.35
6003.00,1.35
6002.00,1.35
6001.00,1.35
6000.00,1.34
5999.00,1.34
5998.00,1.34
5997.00,1.34
5996.00,1.34
5995.00,1.34
5994.00,1.34
5993.00,1.34
5992.00,1.34
5991.00,1.33
5990.00,1.33
5989.00,1.33
5988.00,1.33
5987.00,1.32
5986.00,1.32
5985.00,1.32
5984.00,1.31
5983.00,1.31
5982.00,1.31
5981.00,1.30
5980.00,1.30
5979.00,1.29
5978.00,1.29
5977.00,1.28
5976.00,1.28
5975.00,1.27
5974.00,1.27
5973.00,1.26
5972.00,1.25
5971.00,1.25
5970.00,1.24
5969.00,1.23
5968.00,1.22
5967.00,1.22
5966.00,1.21
5965.00,1.20
5964.00,1.19
5963.00,1.18
5962.00,1.18
5961.00,1.17
5960.00,1.16
5959.00,1.15
5958.00,1.14
5957.00,1.13
5956.00,1.12
5955.00,1.11
5954.00,1.11
5953.00,1.10
5952.00,1.09
5951.00,1.08
5950.00,1.08
5949.00,1.07
5948.00,1.06
5947.00,1.06
5946.00,1.05
5945.00,1.05
5944.00,1.04
5943.00,1.04
5942.00,1.04
5941.00,1.03
5940.00,1.03
5939.00,1.03
5938.00,1.03
5937.00,1.03
5936.00,1.03
5935.00,1.03
5934.00,1.03
5933.00,1.02
5932.00,1.02
5931.00,1.02
5930.00,1.02
5929.00,1.02
5928.00,1.02
5927.00,1.02
5926.00,1.02
5925.00,1.02
5924.00,1.01
5923.00,1.01
5922.00,1.01
5921.00,1.01
5920.00,1.00
5919.00,1.00
5918.00,1.00
5917.00,0.99
5916.00,0.99
5915.00,0.99
5914.00,0.98
5913.00,0.98
5912.00,0.98
5911.00,0.97
5910.00,0.97
5909.00,0.97
5908.00,0.97
5907.00,0.96
5906.00,0.96
5905.00,0.96
5904.00,0.96
5903.00,0.96
5902.00,0.96
5901.00,0.96
5900.00,0.96
5899.00,0.96
5898.00,0.96
5897.00,0.96
5896.00,0.96
5895.00,0.97
5894.00,0.97
5893.00,0.97
5892.00,0.97
5891.00,0.98
5890.00,0.98
5889.00,0.98
5888.00,0.99
5887.00,0.99
5886.00,0.99
5885.00,1.00
5884.00,1.00
5883.00,1.01
5882.00,1.01
5881.00,1.01
5880.00,1.02
5879.00,1.02
5878.00,1.02
5877.00,1.02
5876.00,1.03
5875.00,1.03
5874.00,1.03
5873.00,1.03
5872.00,1.04
5871.00,1.04
5870.00,1.04
5869.00,1.04
5868.00,1.04
5867.00,1.05
5866.00,1.05
5865.00,1.05
5864.00,1.05
5863.00,1.05
5862.00,1.06
5861.00,1.06
5860.00,1.06
5859.00,1.06
5858.00,1.06
5857.00,1.06
5856.00,1.07
5855.00,1.07
5854.00,1.07
5853.00,1.07
5852.00,1.07
5851.00,1.07
5850.00,1.07
5849.00,1.07
5848.00,1.07
5847.00,1.07
5846.00,1.07
5845.00,1.07
5844.00,1.07
5843.00,1.07
5842.00,1.07
5841.00,1.07
5840.00,1.07
5839.00,1.07
5838.00,1.07
5837.00,1.07
5836.00,1.07
5835.00,1.07
5834.00,1.07
5833.00,1.07
5832.00,1.07
5831.00,1.07
5830.00,1.07
5829.00,1.07
5828.00,1.07
5827.00,1.07
5826.00,1.07
5825.00,1.07
5824.00,1.07
5823.00,1.07
5822.00,1.07
5821.00,1.07
5820.00,1.07
5819.00,1.07
5818.00,1.07
5817.00,1.07
5816.00,1.07
5815.00,1.07
5814.00,1.07
5813.00,1.07
5812.00,1.07
5811.00,1.07
5810.00,1.07
5809.00,1.07
5808.00,1.07
5807.00,1.07
5806.00,1.07
5805.00,1.07
5804.00,1.07
5803.00,1.07
5802.00,1.07
5801.00,1.06
5800.00,1.06
5799.00,1.06
5798.00,1.06
5797.00,1.06
5796.00,1.06
5795.00,1.06
5794.00,1.05
5793.00,1.05
5792.00,1.05
5791.00,1.05
5790.00,1.04
5789.00,1.04
5788.00,1.04
5787.00,1.04
5786.00,1.04
5785.00,1.03
5784.00,1.03
5783.00,1.03
5782.00,1.03
5781.00,1.02
5780.00,1.02
5779.00,1.02
5778.00,1.02
5777.00,1.02
5776.00,1.01
5775.00,1.01
5774.00,1.01
5773.00,1.01
5772.00,1.01
5771.00,1.01
5770.00,1.01
5769.00,1.01
5768.00,1.02
5767.00,1.02
5766.00,1.02
5765.00,1.02
5764.00,1.02
5763.00,1.03
5762.00,1.03
5761.00,1.03
5760.00,1.04
5759.00,1.04
5758.00,1.04
5757.00,1.05
5756.00,1.05
5755.00,1.05
5754.00,1.06
5753.00,1.06
5752.00,1.07
5751.00,1.07
5750.00,1.07
5749.00,1.08
5748.00,1.08
5747.00,1.09
5746.00,1.09
5745.00,1.09
5744.00,1.10
5743.00,1.10
5742.00,1.11
5741.00,1.11
5740.00,1.11
5739.00,1.12
5738.00,1.12
5737.00,1.12
5736.00,1.13
5735.00,1.13
5734.00,1.13
5733.00,1.14
5732.00,1.14
5731.00,1.14
5730.00,1.14
5729.00,1.15
5728.00,1.15
5727.00,1.15
5726.00,1.15
5725.00,1.15
5724.00,1.15
5723.00,1.15
5722.00,1.15
5721.00,1.15
5720.00,1.15
5719.00,1.15
5718.00,1.15
5717.00,1.15
5716.00,1.15
5715.00,1.15
5714.00,1.15
5713.00,1.15
5712.00,1.15
5711.00,1.15
5710.00,1.15
5709.00,1.15
5708.00,1.15
5707.00,1.15
5706.00,1.14
5705.00,1.14
5704.00,1.14
5703.00,1.14
5702.00,1.14
5701.00,1.14
5700.00,1.14
5699.00,1.14
5698.00,1.14
5697.00,1.14
5696.00,1.14
5695.00,1.14
5694.00,1.13
5693.00,1.13
5692.00,1.13
5691.00,1.13
5690.00,1.13
5689.00,1.13
5688.00,1.13
5687.00,1.12
5686.00,1.12
5685.00,1.12
5684.00,1.12
5683.00,1.12
5682.00,1.12
5681.00,1.11
5680.00,1.11
5679.00,1.11
5678.00,1.11
5677.00,1.11
5676.00,1.11
5675.00,1.11
5674.00,1.11
5673.00,1.11
5672.00,1.11
5671.00,1.11
5670.00,1.11
5669.00,1.11
5668.00,1.11
5667.00,1.11
5666.00,1.11
5665.00,1.11
5664.00,1.11
5663.00,1.12
5662.00,1.12
5661.00,1.12
5660.00,1.12
5659.00,1.12
5658.00,1.13
5657.00,1.13
5656.00,1.13
5655.00,1.13
5654.00,1.13
5653.00,1.14
5652.00,1.14
5651.00,1.14
5650.00,1.14
5649.00,1.15
5648.00,1.15
5647.00,1.15
5646.00,1.15
5645.00,1.16
5644.00,1.16
5643.00,1.16
5642.00,1.17
5641.00,1.17
5640.00,1.17
5639.00,1.17
5638.00,1.18
5637.00,1.18
5636.00,1.18
5635.00,1.18
5634.00,1.19
5633.00,1.19
5632.00,1.19
5631.00,1.19
5630.00,1.19
5629.00,1.20
5628.00,1.20
5627.00,1.20
5626.00,1.20
5625.00,1.20
5624.00,1.20
5623.00,1.21
5622.00,1.21
5621.00,1.21
5620.00,1.21
5619.00,1.21
5618.00,1.21
5617.00,1.21
5616.00,1.22
5615.00,1.22
5614.00,1.22
5613.00,1.22
5612.00,1.22
5611.00,1.22
5610.00,1.22
5609.00,1.23
5608.00,1.23
5607.00,1.23
5606.00,1.23
5605.00,1.23
5604.00,1.24
5603.00,1.24
5602.00,1.24
5601.00,1.24
5600.00,1.25
5599.00,1.25
5598.00,1.25
5597.00,1.25
5596.00,1.26
5595.00,1.26
5594.00,1.26
5593.00,1.26
5592.00,1.26
5591.00,1.27
5590.00,1.27
5589.00,1.27
5588.00,1.27
5587.00,1.27
5586.00,1.27
5585.00,1.28
5584.00,1.28
5583.00,1.28
5582.00,1.28
5581.00,1.28
5580.00,1.28
5579.00,1.28
5578.00,1.29
5577.00,1.29
5576.00,1.29
5575.00,1.29
5574.00,1.29
5573.00,1.29
5572.00,1.29
5571.00,1.30
5570.00,1.30
5569.00,1.30
5568.00,1.30
5567.00,1.30
5566.00,1.30
5565.00,1.31
5564.00,1.31
5563.00,1.31
5562.00,1.31
5561.00,1.31
5560.00,1.31
5559.00,1.32
5558.00,1.32
5557.00,1.32
5556.00,1.32
5555.00,1.32
5554.00,1.33
5553.00,1.33
5552.00,1.33
5551.00,1.33
5550.00,1.33
5549.00,1.33
5548.00,1.34
5547.00,1.34
5546.00,1.34
5545.00,1.34
5544.00,1.34
5543.00,1.34
5542.00,1.35
5541.00,1.35
5540.00,1.35
5539.00,1.35
5538.00,1.35
5537.00,1.35
5536.00,1.36
5535.00,1.36
5534.00,1.36
5533.00,1.36
5532.00,1.36
5531.00,1.36
5530.00,1.36
5529.00,1.36
5528.00,1.37
5527.00,1.37
5526.00,1.37
5525.00,1.37
5524.00,1.37
5523.00,1.37
5522.00,1.37
5521.00,1.37
5520.00,1.37
5519.00,1.37
5518.00,1.37
5517.00,1.37
5516.00,1.37
5515.00,1.37
5514.00,1.37
5513.00,1.38
5512.00,1.38
5511.00,1.38
5510.00,1.38
5509.00,1.38
5508.00,1.38
5507.00,1.38
5506.00,1.38
5505.00,1.38
5504.00,1.38
5503.00,1.38
5502.00,1.38
5501.00,1.38
5500.00,1.38
5499.00,1.39
5498.00,1.39
5497.00,1.39
5496.00,1.39
5495.00,1.39
5494.00,1.39
5493.00,1.39
5492.00,1.39
5491.00,1.40
5490.00,1.40
5489.00,1.40
5488.00,1.40
5487.00,1.40
5486.00,1.40
5485.00,1.40
5484.00,1.40
5483.00,1.41
5482.00,1.41
5481.00,1.41
5480.00,1.41
5479.00,1.41
5478.00,1.41
5477.00,1.41
5476.00,1.41
5475.00,1.41
5474.00,1.42
5473.00,1.42
5472.00,1.42
5471.00,1.42
5470.00,1.42
5469.00,1.42
5468.00,1.42
5467.00,1.43
5466.00,1.43
5465.00,1.43
5464.00,1.43
5463.00,1.43
5462.00,1.43
5461.00,1.43
5460.00,1.44
5459.00,1.44
5458.00,1.44
5457.00,1.44
5456.00,1.44
5455.00,1.44
5454.00,1.44
5453.00,1.44
5452.00,1.44
5451.00,1.44
5450.00,1.44
5449.00,1.44
5448.00,1.45
5447.00,1.45
5446.00,1.45
5445.00,1.45
5444.00,1.45
5443.00,1.45
5442.00,1.45
5441.00,1.45
5440.00,1.45
5439.00,1.45
5438.00,1.45
5437.00,1.45
5436.00,1.45
5435.00,1.45
5434.00,1.45
5433.00,1.45
5432.00,1.45
5431.00,1.45
5430.00,1.45
5429.00,1.45
5428.00,1.45
5427.00,1.45
5426.00,1.45
5425.00,1.45
5424.00,1.45
5423.00,1.46
5422.00,1.46
5421.00,1.46
5420.00,1.46
5419.00,1.46
5418.00,1.46
5417.00,1.46
5416.00,1.46
5415.00,1.46
5414.00,1.46
5413.00,1.46
5412.00,1.46
5411.00,1.46
5410.00,1.46
5409.00,1.46
5408.00,1.46
5407.00,1.46
5406.00,1.46
5405.00,1.46
5404.00,1.46
5403.00,1.46
5402.00,1.46
5401.00,1.46
5400.00,1.45
5399.00,1.45
5398.00,1.45
5397.00,1.45
5396.00,1.45
5395.00,1.45
5394.00,1.45
5393.00,1.45
5392.00,1.45
5391.00,1.45
5390.00,1.44
5389.00,1.44
5388.00,1.44
5387.00,1.44
5386.00,1.44
5385.00,1.44
5384.00,1.43
5383.00,1.43
5382.00,1.43
5381.00,1.43
5380.00,1.42
5379.00,1.42
5378.00,1.42
5377.00,1.41
5376.00,1.41
5375.00,1.41
5374.00,1.40
5373.00,1.40
5372.00,1.40
5371.00,1.39
5370.00,1.39
5369.00,1.38
5368.00,1.38
5367.00,1.37
5366.00,1.37
5365.00,1.36
5364.00,1.35
5363.00,1.35
5362.00,1.34
5361.00,1.33
5360.00,1.33
5359.00,1.32
5358.00,1.31
5357.00,1.30
5356.00,1.29
5355.00,1.29
5354.00,1.28
5353.00,1.27
5352.00,1.26
5351.00,1.25
5350.00,1.24
5349.00,1.23
5348.00,1.22
5347.00,1.21
5346.00,1.20
5345.00,1.19
5344.00,1.18
5343.00,1.17
5342.00,1.16
5341.00,1.15
5340.00,1.14
5339.00,1.13
5338.00,1.11
5337.00,1.10
5336.00,1.09
5335.00,1.08
5334.00,1.07
5333.00,1.06
5332.00,1.05
5331.00,1.04
5330.00,1.02
5329.00,1.01
5328.00,1.00
5327.00,0.99
5326.00,0.98
5325.00,0.97
5324.00,0.96
5323.00,0.94
5322.00,0.93
5321.00,0.92
5320.00,0.91
5319.00,0.90
5318.00,0.89
5317.00,0.88
5316.00,0.87
5315.00,0.86
5314.00,0.85
5313.00,0.84
5312.00,0.83
5311.00,0.82
5310.00,0.81
5309.00,0.80
5308.00,0.79
5307.00,0.78
5306.00,0.78
5305.00,0.77
5304.00,0.76
5303.00,0.76
5302.00,0.75
5301.00,0.75
5300.00,0.74
5299.00,0.74
5298.00,0.73
5297.00,0.73
5296.00,0.73
5295.00,0.72
5294.00,0.72
5293.00,0.72
5292.00,0.71
5291.00,0.71
5290.00,0.71
5289.00,0.70
5288.00,0.70
5287.00,0.70
5286.00,0.70
5285.00,0.70
5284.00,0.69
5283.00,0.69
5282.00,0.69
5281.00,0.69
5280.00,0.69
5279.00,0.68
5278.00,0.68
5277.00,0.68
5276.00,0.68
5275.00,0.68
5274.00,0.68
5273.00,0.68
5272.00,0.68
5271.00,0.68
5270.00,0.67
5269.00,0.67
5268.00,0.67
5267.00,0.67
5266.00,0.67
5265.00,0.67
5264.00,0.67
5263.00,0.67
5262.00,0.67
5261.00,0.67
5260.00,0.67
5259.00,0.67
5258.00,0.67
5257.00,0.67
5256.00,0.67
5255.00,0.67
5254.00,0.67
5253.00,0.67
5252.00,0.67
5251.00,0.66
5250.00,0.66
5249.00,0.66
5248.00,0.66
5247.00,0.66
5246.00,0.66
5245.00,0.66
5244.00,0.66
5243.00,0.66
5242.00,0.66
5241.00,0.66
5240.00,0.66
5239.00,0.66
5238.00,0.67
5237.00,0.67
5236.00,0.67
5235.00,0.67
5234.00,0.67
5233.00,0.67
5232.00,0.67
5231.00,0.67
5230.00,0.67
5229.00,0.67
5228.00,0.67
5227.00,0.67
5226.00,0.67
5225.00,0.67
5224.00,0.67
5223.00,0.67
5222.00,0.67
5221.00,0.67
5220.00,0.67
5219.00,0.67
5218.00,0.67
5217.00,0.67
5216.00,0.67
5215.00,0.67
5214.00,0.67
5213.00,0.67
5212.00,0.67
5211.00,0.67
5210.00,0.67
5209.00,0.67
5208.00,0.67
5207.00,0.67
5206.00,0.67
5205.00,0.67
5204.00,0.67
5203.00,0.67
5202.00,0.67
5201.00,0.67
5200.00,0.67
5199.00,0.67
5198.00,0.67
5197.00,0.68
5196.00,0.68
5195.00,0.68
5194.00,0.68
5193.00,0.68
5192.00,0.68
5191.00,0.68
5190.00,0.68
5189.00,0.68
5188.00,0.68
5187.00,0.68
5186.00,0.69
5185.00,0.69
5184.00,0.69
5183.00,0.69
5182.00,0.69
5181.00,0.69
5180.00,0.69
5179.00,0.69
5178.00,0.69
5177.00,0.69
5176.00,0.69
5175.00,0.70
5174.00,0.70
5173.00,0.70
5172.00,0.70
5171.00,0.70
5170.00,0.70
5169.00,0.70
5168.00,0.70
5167.00,0.70
5166.00,0.70
5165.00,0.70
5164.00,0.70
5163.00,0.70
5162.00,0.70
5161.00,0.70
5160.00,0.70
5159.00,0.70
5158.00,0.70
5157.00,0.70
5156.00,0.70
5155.00,0.70
5154.00,0.70
5153.00,0.70
5152.00,0.70
5151.00,0.70
5150.00,0.70
5149.00,0.70
5148.00,0.70
5147.00,0.70
5146.00,0.70
5145.00,0.70
5144.00,0.70
5143.00,0.70
5142.00,0.71
5141.00,0.71
5140.00,0.71
5139.00,0.71
5138.00,0.71
5137.00,0.71
5136.00,0.71
5135.00,0.71
5134.00,0.71
5133.00,0.71
5132.00,0.71
5131.00,0.71
5130.00,0.71
5129.00,0.71
5128.00,0.72
5127.00,0.72
5126.00,0.72
5125.00,0.72
5124.00,0.72
5123.00,0.72
5122.00,0.72
5121.00,0.72
5120.00,0.72
5119.00,0.72
5118.00,0.72
5117.00,0.72
5116.00,0.72
5115.00,0.72
5114.00,0.72
5113.00,0.72
5112.00,0.72
5111.00,0.72
5110.00,0.72
5109.00,0.72
5108.00,0.72
5107.00,0.72
5106.00,0.72
5105.00,0.72
5104.00,0.72
5103.00,0.73
5102.00,0.73
5101.00,0.73
5100.00,0.73
5099.00,0.73
5098.00,0.73
5097.00,0.73
5096.00,0.73
5095.00,0.73
5094.00,0.73
5093.00,0.73
5092.00,0.73
5091.00,0.73
5090.00,0.73
5089.00,0.73
5088.00,0.73
5087.00,0.74
5086.00,0.74
5085.00,0.74
5084.00,0.74
5083.00,0.74
5082.00,0.74
5081.00,0.74
5080.00,0.74
5079.00,0.74
5078.00,0.74
5077.00,0.75
5076.00,0.75
5075.00,0.75
5074.00,0.75
5073.00,0.75
5072.00,0.75
5071.00,0.75
5070.00,0.75
5069.00,0.75
5068.00,0.75
5067.00,0.75
5066.00,0.75
5065.00,0.75
5064.00,0.76
5063.00,0.76
5062.00,0.76
5061.00,0.76
5060.00,0.76
5059.00,0.76
5058.00,0.76
5057.00,0.76
5056.00,0.76
5055.00,0.76
5054.00,0.76
5053.00,0.77
5052.00,0.77
5051.00,0.77
5050.00,0.77
5049.00,0.77
5048.00,0.77
5047.00,0.77
5046.00,0.77
5045.00,0.77
5044.00,0.77
5043.00,0.77
5042.00,0.77
5041.00,0.77
5040.00,0.77
5039.00,0.78
5038.00,0.78
5037.00,0.78
5036.00,0.78
5035.00,0.78
5034.00,0.78
5033.00,0.78
5032.00,0.78
5031.00,0.78
5030.00,0.78
5029.00,0.78
5028.00,0.78
5027.00,0.78
5026.00,0.78
5025.00,0.78
5024.00,0.78
5023.00,0.78
5022.00,0.79
5021.00,0.79
5020.00,0.79
5019.00,0.79
5018.00,0.79
5017.00,0.79
5016.00,0.79
5015.00,0.79
5014.00,0.79
5013.00,0.79
5012.00,0.79
5011.00,0.79
5010.00,0.79
5009.00,0.79
5008.00,0.79
5007.00,0.79
5006.00,0.80
5005.00,0.80
5004.00,0.80
5003.00,0.80
5002.00,0.80
5001.00,0.80
5000.00,0.80
4999.00,0.80
4998.00,0.80
4997.00,0.80
4996.00,0.80
4995.00,0.81
4994.00,0.81
4993.00,0.81
4992.00,0.81
4991.00,0.81
4990.00,0.81
4989.00,0.81
4988.00,0.81
4987.00,0.82
4986.00,0.82
4985.00,0.82
4984.00,0.82
4983.00,0.82
4982.00,0.82
4981.00,0.82
4980.00,0.82
4979.00,0.82
4978.00,0.83
4977.00,0.83
4976.00,0.83
4975.00,0.83
4974.00,0.83
4973.00,0.83
4972.00,0.83
4971.00,0.83
4970.00,0.83
4969.00,0.84
4968.00,0.84
4967.00,0.84
4966.00,0.84
4965.00,0.84
4964.00,0.84
4963.00,0.84
4962.00,0.85
4961.00,0.85
4960.00,0.85
4959.00,0.85
4958.00,0.85
4957.00,0.85
4956.00,0.85
4955.00,0.85
4954.00,0.85
4953.00,0.86
4952.00,0.86
4951.00,0.86
4950.00,0.86
4949.00,0.86
4948.00,0.86
4947.00,0.86
4946.00,0.86
4945.00,0.86
4944.00,0.86
4943.00,0.86
4942.00,0.86
4941.00,0.86
4940.00,0.86
4939.00,0.86
4938.00,0.86
4937.00,0.86
4936.00,0.86
4935.00,0.86
4934.00,0.86
4933.00,0.86
4932.00,0.86
4931.00,0.86
4930.00,0.86
4929.00,0.86
4928.00,0.86
4927.00,0.86
4926.00,0.87
4925.00,0.87
4924.00,0.87
4923.00,0.87
4922.00,0.87
4921.00,0.87
4920.00,0.87
4919.00,0.87
4918.00,0.87
4917.00,0.87
4916.00,0.87
4915.00,0.88
4914.00,0.88
4913.00,0.88
4912.00,0.88
4911.00,0.88
4910.00,0.88
4909.00,0.88
4908.00,0.88
4907.00,0.88
4906.00,0.88
4905.00,0.89
4904.00,0.89
4903.00,0.89
4902.00,0.89
4901.00,0.89
4900.00,0.89
4899.00,0.89
4898.00,0.89
4897.00,0.89
4896.00,0.89
4895.00,0.89
4894.00,0.89
4893.00,0.89
4892.00,0.89
4891.00,0.89
4890.00,0.89
4889.00,0.89
4888.00,0.89
4887.00,0.89
4886.00,0.89
4885.00,0.89
4884.00,0.89
4883.00,0.89
4882.00,0.89
4881.00,0.89
4880.00,0.89
4879.00,0.89
4878.00,0.89
4877.00,0.89
4876.00,0.89
4875.00,0.89
4874.00,0.89
4873.00,0.89
4872.00,0.89
4871.00,0.89
4870.00,0.89
4869.00,0.90
4868.00,0.90
4867.00,0.90
4866.00,0.90
4865.00,0.90
4864.00,0.90
4863.00,0.90
4862.00,0.90
4861.00,0.90
4860.00,0.90
4859.00,0.90
4858.00,0.90
4857.00,0.90
4856.00,0.91
4855.00,0.91
4854.00,0.91
4853.00,0.91
4852.00,0.91
4851.00,0.91
4850.00,0.91
4849.00,0.91
4848.00,0.91
4847.00,0.91
4846.00,0.91
4845.00,0.91
4844.00,0.91
4843.00,0.91
4842.00,0.91
4841.00,0.92
4840.00,0.92
4839.00,0.92
4838.00,0.92
4837.00,0.92
4836.00,0.92
4835.00,0.92
4834.00,0.92
4833.00,0.92
4832.00,0.92
4831.00,0.92
4830.00,0.92
4829.00,0.92
4828.00,0.92
4827.00,0.92
4826.00,0.93
4825.00,0.93
4824.00,0.93
4823.00,0.93
4822.00,0.93
4821.00,0.93
4820.00,0.93
4819.00,0.93
4818.00,0.93
4817.00,0.94
4816.00,0.94
4815.00,0.94
4814.00,0.94
4813.00,0.94
4812.00,0.94
4811.00,0.94
4810.00,0.94
4809.00,0.94
4808.00,0.94
4807.00,0.94
4806.00,0.95
4805.00,0.95
4804.00,0.95
4803.00,0.95
4802.00,0.95
4801.00,0.95
4800.00,0.95
4799.00,0.95
4798.00,0.95
4797.00,0.95
4796.00,0.95
4795.00,0.95
4794.00,0.95
4793.00,0.95
4792.00,0.96
4791.00,0.96
4790.00,0.96
4789.00,0.96
4788.00,0.96
4787.00,0.96
4786.00,0.96
4785.00,0.96
4784.00,0.96
4783.00,0.97
4782.00,0.97
4781.00,0.97
4780.00,0.97
4779.00,0.97
4778.00,0.97
4777.00,0.98
4776.00,0.98
4775.00,0.98
4774.00,0.98
4773.00,0.98
4772.00,0.98
4771.00,0.99
4770.00,0.99
4769.00,0.99
4768.00,0.99
4767.00,0.99
4766.00,1.00
4765.00,1.00
4764.00,1.00
4763.00,1.00
4762.00,1.00
4761.00,1.00
4760.00,1.01
4759.00,1.01
4758.00,1.01
4757.00,1.01
4756.00,1.01
4755.00,1.01
4754.00,1.01
4753.00,1.02
4752.00,1.02
4751.00,1.02
4750.00,1.02
4749.00,1.02
4748.00,1.02
4747.00,1.02
4746.00,1.03
4745.00,1.03
4744.00,1.03
4743.00,1.03
4742.00,1.03
4741.00,1.03
4740.00,1.03
4739.00,1.03
4738.00,1.03
4737.00,1.03
4736.00,1.03
4735.00,1.04
4734.00,1.04
4733.00,1.04
4732.00,1.04
4731.00,1.04
4730.00,1.04
4729.00,1.04
4728.00,1.04
4727.00,1.05
4726.00,1.05
4725.00,1.05
4724.00,1.05
4723.00,1.06
4722.00,1.06
4721.00,1.06
4720.00,1.06
4719.00,1.07
4718.00,1.07
4717.00,1.07
4716.00,1.07
4715.00,1.08
4714.00,1.08
4713.00,1.08
4712.00,1.08
4711.00,1.08
4710.00,1.09
4709.00,1.09
4708.00,1.09
4707.00,1.09
4706.00,1.09
4705.00,1.09
4704.00,1.09
4703.00,1.09
4702.00,1.10
4701.00,1.10
4700.00,1.10
4699.00,1.10
4698.00,1.10
4697.00,1.10
4696.00,1.10
4695.00,1.11
4694.00,1.11
4693.00,1.11
4692.00,1.11
4691.00,1.11
4690.00,1.12
4689.00,1.12
4688.00,1.12
4687.00,1.12
4686.00,1.12
4685.00,1.13
4684.00,1.13
4683.00,1.13
4682.00,1.13
4681.00,1.14
4680.00,1.14
4679.00,1.14
4678.00,1.14
4677.00,1.15
4676.00,1.15
4675.00,1.15
4674.00,1.15
4673.00,1.15
4672.00,1.16
4671.00,1.16
4670.00,1.16
4669.00,1.16
4668.00,1.17
4667.00,1.17
4666.00,1.17
4665.00,1.17
4664.00,1.17
4663.00,1.17
4662.00,1.18
4661.00,1.18
4660.00,1.18
4659.00,1.18
4658.00,1.18
4657.00,1.18
4656.00,1.18
4655.00,1.18
4654.00,1.18
4653.00,1.18
4652.00,1.18
4651.00,1.18
4650.00,1.18
4649.00,1.18
4648.00,1.18
4647.00,1.18
4646.00,1.18
4645.00,1.19
4644.00,1.19
4643.00,1.19
4642.00,1.19
4641.00,1.19
4640.00,1.19
4639.00,1.19
4638.00,1.19
4637.00,1.19
4636.00,1.19
4635.00,1.19
4634.00,1.19
4633.00,1.19
4632.00,1.19
4631.00,1.19
4630.00,1.19
4629.00,1.20
4628.00,1.20
4627.00,1.20
4626.00,1.20
4625.00,1.20
4624.00,1.20
4623.00,1.20
4622.00,1.20
4621.00,1.20
4620.00,1.20
4619.00,1.21
4618.00,1.21
4617.00,1.21
4616.00,1.21
4615.00,1.21
4614.00,1.22
4613.00,1.22
4612.00,1.22
4611.00,1.22
4610.00,1.23
4609.00,1.23
4608.00,1.23
4607.00,1.23
4606.00,1.23
4605.00,1.23
4604.00,1.24
4603.00,1.24
4602.00,1.24
4601.00,1.24
4600.00,1.24
4599.00,1.24
4598.00,1.24
4597.00,1.24
4596.00,1.24
4595.00,1.25
4594.00,1.25
4593.00,1.25
4592.00,1.25
4591.00,1.25
4590.00,1.25
4589.00,1.25
4588.00,1.25
4587.00,1.26
4586.00,1.26
4585.00,1.26
4584.00,1.26
4583.00,1.26
4582.00,1.26
4581.00,1.26
4580.00,1.27
4579.00,1.27
4578.00,1.27
4577.00,1.27
4576.00,1.27
4575.00,1.27
4574.00,1.27
4573.00,1.27
4572.00,1.27
4571.00,1.28
4570.00,1.28
4569.00,1.28
4568.00,1.28
4567.00,1.28
4566.00,1.28
4565.00,1.28
4564.00,1.28
4563.00,1.28
4562.00,1.28
4561.00,1.28
4560.00,1.28
4559.00,1.28
4558.00,1.28
4557.00,1.28
4556.00,1.28
4555.00,1.28
4554.00,1.28
4553.00,1.28
4552.00,1.28
4551.00,1.28
4550.00,1.28
4549.00,1.28
4548.00,1.28
4547.00,1.28
4546.00,1.28
4545.00,1.29
4544.00,1.29
4543.00,1.29
4542.00,1.29
4541.00,1.29
4540.00,1.29
4539.00,1.29
4538.00,1.29
4537.00,1.29
4536.00,1.29
4535.00,1.30
4534.00,1.30
4533.00,1.30
4532.00,1.30
4531.00,1.30
4530.00,1.30
4529.00,1.30
4528.00,1.30
4527.00,1.30
4526.00,1.30
4525.00,1.30
4524.00,1.30
4523.00,1.30
4522.00,1.30
4521.00,1.30
4520.00,1.30
4519.00,1.30
4518.00,1.30
4517.00,1.30
4516.00,1.30
4515.00,1.30
4514.00,1.30
4513.00,1.30
4512.00,1.30
4511.00,1.30
4510.00,1.31
4509.00,1.31
4508.00,1.31
4507.00,1.31
4506.00,1.31
4505.00,1.31
4504.00,1.31
4503.00,1.31
4502.00,1.31
4501.00,1.31
4500.00,1.31
4499.00,1.31
4498.00,1.30
4497.00,1.30
4496.00,1.30
4495.00,1.30
4494.00,1.30
4493.00,1.30
4492.00,1.29
4491.00,1.29
4490.00,1.29
4489.00,1.29
4488.00,1.29
4487.00,1.29
4486.00,1.28
4485.00,1.28
4484.00,1.28
4483.00,1.28
4482.00,1.28
4481.00,1.27
4480.00,1.27
4479.00,1.27
4478.00,1.27
4477.00,1.27
4476.00,1.26
4475.00,1.26
4474.00,1.26
4473.00,1.26
4472.00,1.26
4471.00,1.25
4470.00,1.25
4469.00,1.25
4468.00,1.25
4467.00,1.24
4466.00,1.24
4465.00,1.24
4464.00,1.24
4463.00,1.23
4462.00,1.23
4461.00,1.23
4460.00,1.23
4459.00,1.22
4458.00,1.22
4457.00,1.22
4456.00,1.21
4455.00,1.21
4454.00,1.20
4453.00,1.20
4452.00,1.20
4451.00,1.19
4450.00,1.19
4449.00,1.19
4448.00,1.18
4447.00,1.18
4446.00,1.17
4445.00,1.17
4444.00,1.17
4443.00,1.16
4442.00,1.16
4441.00,1.16
4440.00,1.15
4439.00,1.15
4438.00,1.15
4437.00,1.14
4436.00,1.14
4435.00,1.14
4434.00,1.14
4433.00,1.13
4432.00,1.13
4431.00,1.13
4430.00,1.13
4429.00,1.13
4428.00,1.12
4427.00,1.12
4426.00,1.12
4425.00,1.12
4424.00,1.12
4423.00,1.12
4422.00,1.12
4421.00,1.12
4420.00,1.12
4419.00,1.12
4418.00,1.12
4417.00,1.12
4416.00,1.12
4415.00,1.12
4414.00,1.12
4413.00,1.12
4412.00,1.12
4411.00,1.12
4410.00,1.12
4409.00,1.12
4408.00,1.12
4407.00,1.12
4406.00,1.12
4405.00,1.12
4404.00,1.12
4403.00,1.12
4402.00,1.12
4401.00,1.12
4400.00,1.12
4399.00,1.12
4398.00,1.12
4397.00,1.12
4396.00,1.12
4395.00,1.12
4394.00,1.12
4393.00,1.12
4392.00,1.12
4391.00,1.12
4390.00,1.12
4389.00,1.12
4388.00,1.12
4387.00,1.12
4386.00,1.12
4385.00,1.13
4384.00,1.13
4383.00,1.13
4382.00,1.13
4381.00,1.13
4380.00,1.13
4379.00,1.14
4378.00,1.14
4377.00,1.14
4376.00,1.14
4375.00,1.14
4374.00,1.15
4373.00,1.15
4372.00,1.15
4371.00,1.15
4370.00,1.15
4369.00,1.15
4368.00,1.15
4367.00,1.16
4366.00,1.16
4365.00,1.16
4364.00,1.16
4363.00,1.16
4362.00,1.16
4361.00,1.16
4360.00,1.16
4359.00,1.16
4358.00,1.16
4357.00,1.16
4356.00,1.16
4355.00,1.16
4354.00,1.16
4353.00,1.16
4352.00,1.16
4351.00,1.16
4350.00,1.16
4349.00,1.16
4348.00,1.16
4347.00,1.16
4346.00,1.16
4345.00,1.16
4344.00,1.15
4343.00,1.15
4342.00,1.15
4341.00,1.15
4340.00,1.15
4339.00,1.15
4338.00,1.15
4337.00,1.15
4336.00,1.15
4335.00,1.15
4334.00,1.15
4333.00,1.15
4332.00,1.15
4331.00,1.15
4330.00,1.16
4329.00,1.16
4328.00,1.16
4327.00,1.16
4326.00,1.16
4325.00,1.16
4324.00,1.17
4323.00,1.17
4322.00,1.17
4321.00,1.17
4320.00,1.17
4319.00,1.18
4318.00,1.18
4317.00,1.18
4316.00,1.18
4315.00,1.18
4314.00,1.19
4313.00,1.19
4312.00,1.19
4311.00,1.19
4310.00,1.19
4309.00,1.19
4308.00,1.20
4307.00,1.20
4306.00,1.20
4305.00,1.20
4304.00,1.20
4303.00,1.21
4302.00,1.21
4301.00,1.21
4300.00,1.21
4299.00,1.22
4298.00,1.22
4297.00,1.22
4296.00,1.22
4295.00,1.23
4294.00,1.23
4293.00,1.23
4292.00,1.23
4291.00,1.24
4290.00,1.24
4289.00,1.24
4288.00,1.24
4287.00,1.24
4286.00,1.24
4285.00,1.24
4284.00,1.24
4283.00,1.24
4282.00,1.24
4281.00,1.24
4280.00,1.24
4279.00,1.24
4278.00,1.24
4277.00,1.23
4276.00,1.23
4275.00,1.23
4274.00,1.23
4273.00,1.23
4272.00,1.23
4271.00,1.23
4270.00,1.23
4269.00,1.23
4268.00,1.23
4267.00,1.23
4266.00,1.23
4265.00,1.23
4264.00,1.23
4263.00,1.24
4262.00,1.24
4261.00,1.24
4260.00,1.24
4259.00,1.24
4258.00,1.24
4257.00,1.24
4256.00,1.24
4255.00,1.24
4254.00,1.24
4253.00,1.24
4252.00,1.24
4251.00,1.25
4250.00,1.25
4249.00,1.25
4248.00,1.25
4247.00,1.25
4246.00,1.25
4245.00,1.25
4244.00,1.25
4243.00,1.25
4242.00,1.26
4241.00,1.26
4240.00,1.26
4239.00,1.26
4238.00,1.26
4237.00,1.26
4236.00,1.27
4235.00,1.27
4234.00,1.27
4233.00,1.27
4232.00,1.27
4231.00,1.27
4230.00,1.28
4229.00,1.28
4228.00,1.28
4227.00,1.28
4226.00,1.28
4225.00,1.28
4224.00,1.28
4223.00,1.28
4222.00,1.28
4221.00,1.29
4220.00,1.29
4219.00,1.29
4218.00,1.29
4217.00,1.29
4216.00,1.29
4215.00,1.29
4214.00,1.29
4213.00,1.29
4212.00,1.29
4211.00,1.29
4210.00,1.29
4209.00,1.29
4208.00,1.29
4207.00,1.29
4206.00,1.29
4205.00,1.29
4204.00,1.29
4203.00,1.29
4202.00,1.29
4201.00,1.29
4200.00,1.29
4199.00,1.29
4198.00,1.29
4197.00,1.29
4196.00,1.29
4195.00,1.29
4194.00,1.29
4193.00,1.30
4192.00,1.30
4191.00,1.30
4190.00,1.30
4189.00,1.30
4188.00,1.30
4187.00,1.30
4186.00,1.30
4185.00,1.30
4184.00,1.30
4183.00,1.30
4182.00,1.30
4181.00,1.29
4180.00,1.29
4179.00,1.29
4178.00,1.29
4177.00,1.29
4176.00,1.29
4175.00,1.29
4174.00,1.29
4173.00,1.29
4172.00,1.29
4171.00,1.29
4170.00,1.29
4169.00,1.29
4168.00,1.29
4167.00,1.29
4166.00,1.29
4165.00,1.29
4164.00,1.29
4163.00,1.29
4162.00,1.29
4161.00,1.29
4160.00,1.30
4159.00,1.30
4158.00,1.30
4157.00,1.30
4156.00,1.30
4155.00,1.30
4154.00,1.30
4153.00,1.30
4152.00,1.31
4151.00,1.31
4150.00,1.31
4149.00,1.31
4148.00,1.31
4147.00,1.31
4146.00,1.31
4145.00,1.32
4144.00,1.32
4143.00,1.32
4142.00,1.32
4141.00,1.32
4140.00,1.32
4139.00,1.32
4138.00,1.32
4137.00,1.32
4136.00,1.32
4135.00,1.32
4134.00,1.33
4133.00,1.33
4132.00,1.33
4131.00,1.33
4130.00,1.33
4129.00,1.33
4128.00,1.33
4127.00,1.33
4126.00,1.33
4125.00,1.33
4124.00,1.33
4123.00,1.34
4122.00,1.34
4121.00,1.34
4120.00,1.34
4119.00,1.34
4118.00,1.34
4117.00,1.35
4116.00,1.35
4115.00,1.35
4114.00,1.35
4113.00,1.35
4112.00,1.35
4111.00,1.35
4110.00,1.35
4109.00,1.35
4108.00,1.35
4107.00,1.35
4106.00,1.35
4105.00,1.35
4104.00,1.35
4103.00,1.35
4102.00,1.35
4101.00,1.35
4100.00,1.35
4099.00,1.35
4098.00,1.35
4097.00,1.34
4096.00,1.34
4095.00,1.34
4094.00,1.34
4093.00,1.34
4092.00,1.34
4091.00,1.34
4090.00,1.34
4089.00,1.34
4088.00,1.35
4087.00,1.35
4086.00,1.35
4085.00,1.35
4084.00,1.35
4083.00,1.35
4082.00,1.35
4081.00,1.36
4080.00,1.36
4079.00,1.36
4078.00,1.36
4077.00,1.36
4076.00,1.37
4075.00,1.37
4074.00,1.37
4073.00,1.37
4072.00,1.37
4071.00,1.37
4070.00,1.37
4069.00,1.37
4068.00,1.38
4067.00,1.38
4066.00,1.38
4065.00,1.38
4064.00,1.37
4063.00,1.37
4062.00,1.37
4061.00,1.37
4060.00,1.37
4059.00,1.37
4058.00,1.37
4057.00,1.37
4056.00,1.37
4055.00,1.37
4054.00,1.37
4053.00,1.36
4052.00,1.36
4051.00,1.36
4050.00,1.36
4049.00,1.36
4048.00,1.37
4047.00,1.37
4046.00,1.37
4045.00,1.37
4044.00,1.37
4043.00,1.38
4042.00,1.38
4041.00,1.38
4040.00,1.38
4039.00,1.39
4038.00,1.39
4037.00,1.39
4036.00,1.40
4035.00,1.40
4034.00,1.40
4033.00,1.40
4032.00,1.40
4031.00,1.41
4030.00,1.41
4029.00,1.41
4028.00,1.41
4027.00,1.41
4026.00,1.41
4025.00,1.41
4024.00,1.42
4023.00,1.42
4022.00,1.42
4021.00,1.42
4020.00,1.42
4019.00,1.42
4018.00,1.42
4017.00,1.42
4016.00,1.42
4015.00,1.42
4014.00,1.42
4013.00,1.42
4012.00,1.42
4011.00,1.43
4010.00,1.43
4009.00,1.43
4008.00,1.43
4007.00,1.43
4006.00,1.44
4005.00,1.44
4004.00,1.44
4003.00,1.45
4002.00,1.45
4001.00,1.46
4000.00,1.46
