创建为新数据集,样品 255 用户 Administrator 日期 星期日, 七月 22 2018
cm-1,%T
10000.00,1.04
9999.00,1.04
9998.00,1.04
9997.00,1.04
9996.00,1.04
9995.00,1.03
9994.00,1.03
9993.00,1.03
9992.00,1.03
9991.00,1.03
9990.00,1.02
9989.00,1.02
9988.00,1.02
9987.00,1.02
9986.00,1.02
9985.00,1.02
9984.00,1.02
9983.00,1.02
9982.00,1.02
9981.00,1.03
9980.00,1.03
9979.00,1.03
9978.00,1.03
9977.00,1.03
9976.00,1.04
9975.00,1.04
9974.00,1.04
9973.00,1.04
9972.00,1.04
9971.00,1.04
9970.00,1.04
9969.00,1.04
9968.00,1.04
9967.00,1.03
9966.00,1.03
9965.00,1.03
9964.00,1.03
9963.00,1.03
9962.00,1.02
9961.00,1.02
9960.00,1.02
9959.00,1.02
9958.00,1.02
9957.00,1.01
9956.00,1.01
9955.00,1.01
9954.00,1.01
9953.00,1.01
9952.00,1.01
9951.00,1.01
9950.00,1.01
9949.00,1.01
9948.00,1.02
9947.00,1.02
9946.00,1.02
9945.00,1.02
9944.00,1.02
9943.00,1.02
9942.00,1.03
9941.00,1.03
9940.00,1.03
9939.00,1.03
9938.00,1.03
9937.00,1.03
9936.00,1.03
9935.00,1.03
9934.00,1.03
9933.00,1.03
9932.00,1.03
9931.00,1.03
9930.00,1.03
9929.00,1.03
9928.00,1.03
9927.00,1.02
9926.00,1.02
9925.00,1.02
9924.00,1.02
9923.00,1.02
9922.00,1.01
9921.00,1.01
9920.00,1.01
9919.00,1.01
9918.00,1.01
9917.00,1.01
9916.00,1.01
9915.00,1.01
9914.00,1.01
9913.00,1.01
9912.00,1.01
9911.00,1.01
9910.00,1.01
9909.00,1.01
9908.00,1.01
9907.00,1.01
9906.00,1.02
9905.00,1.02
9904.00,1.02
9903.00,1.02
9902.00,1.02
9901.00,1.02
9900.00,1.02
9899.00,1.02
9898.00,1.02
9897.00,1.02
9896.00,1.02
9895.00,1.02
9894.00,1.02
9893.00,1.02
9892.00,1.02
9891.00,1.02
9890.00,1.02
9889.00,1.02
9888.00,1.02
9887.00,1.02
9886.00,1.02
9885.00,1.02
9884.00,1.02
9883.00,1.02
9882.00,1.02
9881.00,1.02
9880.00,1.02
9879.00,1.02
9878.00,1.02
9877.00,1.02
9876.00,1.02
9875.00,1.02
9874.00,1.02
9873.00,1.01
9872.00,1.01
9871.00,1.01
9870.00,1.01
9869.00,1.01
9868.00,1.00
9867.00,1.00
9866.00,1.00
9865.00,1.00
9864.00,1.00
9863.00,1.00
9862.00,1.00
9861.00,1.00
9860.00,1.00
9859.00,1.00
9858.00,1.00
9857.00,1.00
9856.00,1.00
9855.00,1.00
9854.00,1.00
9853.00,1.00
9852.00,0.99
9851.00,0.99
9850.00,0.99
9849.00,0.99
9848.00,0.99
9847.00,0.99
9846.00,0.99
9845.00,0.99
9844.00,0.99
9843.00,0.99
9842.00,0.99
9841.00,1.00
9840.00,1.00
9839.00,1.00
9838.00,1.00
9837.00,1.00
9836.00,1.00
9835.00,1.00
9834.00,1.00
9833.00,1.00
9832.00,1.00
9831.00,1.00
9830.00,1.00
9829.00,1.00
9828.00,1.00
9827.00,1.00
9826.00,1.00
9825.00,1.01
9824.00,1.01
9823.00,1.01
9822.00,1.01
9821.00,1.01
9820.00,1.01
9819.00,1.01
9818.00,1.01
9817.00,1.02
9816.00,1.02
9815.00,1.02
9814.00,1.02
9813.00,1.02
9812.00,1.03
9811.00,1.03
9810.00,1.03
9809.00,1.03
9808.00,1.03
9807.00,1.03
9806.00,1.03
9805.00,1.04
9804.00,1.04
9803.00,1.03
9802.00,1.03
9801.00,1.03
9800.00,1.03
9799.00,1.03
9798.00,1.03
9797.00,1.02
9796.00,1.02
9795.00,1.02
9794.00,1.02
9793.00,1.02
9792.00,1.01
9791.00,1.01
9790.00,1.01
9789.00,1.01
9788.00,1.01
9787.00,1.00
9786.00,1.00
9785.00,1.00
9784.00,1.00
9783.00,1.00
9782.00,1.00
9781.00,1.00
9780.00,1.00
9779.00,1.00
9778.00,1.00
9777.00,1.00
9776.00,1.00
9775.00,1.00
9774.00,1.00
9773.00,1.00
9772.00,1.00
9771.00,1.01
9770.00,1.01
9769.00,1.01
9768.00,1.01
9767.00,1.01
9766.00,1.02
9765.00,1.02
9764.00,1.02
9763.00,1.02
9762.00,1.03
9761.00,1.03
9760.00,1.03
9759.00,1.03
9758.00,1.04
9757.00,1.04
9756.00,1.04
9755.00,1.04
9754.00,1.04
9753.00,1.04
9752.00,1.04
9751.00,1.04
9750.00,1.04
9749.00,1.04
9748.00,1.04
9747.00,1.03
9746.00,1.03
9745.00,1.03
9744.00,1.03
9743.00,1.03
9742.00,1.02
9741.00,1.02
9740.00,1.02
9739.00,1.02
9738.00,1.02
9737.00,1.01
9736.00,1.01
9735.00,1.01
9734.00,1.01
9733.00,1.01
9732.00,1.01
9731.00,1.01
9730.00,1.01
9729.00,1.01
9728.00,1.01
9727.00,1.00
9726.00,1.00
9725.00,1.00
9724.00,1.00
9723.00,1.00
9722.00,0.99
9721.00,0.99
9720.00,0.99
9719.00,0.98
9718.00,0.98
9717.00,0.98
9716.00,0.98
9715.00,0.97
9714.00,0.97
9713.00,0.97
9712.00,0.97
9711.00,0.96
9710.00,0.96
9709.00,0.96
9708.00,0.96
9707.00,0.97
9706.00,0.97
9705.00,0.97
9704.00,0.97
9703.00,0.97
9702.00,0.98
9701.00,0.98
9700.00,0.98
9699.00,0.98
9698.00,0.98
9697.00,0.99
9696.00,0.99
9695.00,0.99
9694.00,0.99
9693.00,0.99
9692.00,0.99
9691.00,0.99
9690.00,0.99
9689.00,0.99
9688.00,0.99
9687.00,0.98
9686.00,0.98
9685.00,0.98
9684.00,0.98
9683.00,0.98
9682.00,0.98
9681.00,0.98
9680.00,0.98
9679.00,0.98
9678.00,0.98
9677.00,0.98
9676.00,0.99
9675.00,0.99
9674.00,0.99
9673.00,0.99
9672.00,0.99
9671.00,1.00
9670.00,1.00
9669.00,1.00
9668.00,1.00
9667.00,1.01
9666.00,1.01
9665.00,1.01
9664.00,1.01
9663.00,1.01
9662.00,1.01
9661.00,1.01
9660.00,1.01
9659.00,1.01
9658.00,1.01
9657.00,1.01
9656.00,1.01
9655.00,1.01
9654.00,1.01
9653.00,1.01
9652.00,1.01
9651.00,1.00
9650.00,1.00
9649.00,1.00
9648.00,1.00
9647.00,1.00
9646.00,1.00
9645.00,1.00
9644.00,1.00
9643.00,1.00
9642.00,1.00
9641.00,1.00
9640.00,1.00
9639.00,1.00
9638.00,1.00
9637.00,1.00
9636.00,1.00
9635.00,1.00
9634.00,1.01
9633.00,1.01
9632.00,1.01
9631.00,1.01
9630.00,1.01
9629.00,1.01
9628.00,1.02
9627.00,1.02
9626.00,1.02
9625.00,1.02
9624.00,1.02
9623.00,1.02
9622.00,1.02
9621.00,1.02
9620.00,1.02
9619.00,1.02
9618.00,1.02
9617.00,1.02
9616.00,1.01
9615.00,1.01
9614.00,1.01
9613.00,1.01
9612.00,1.01
9611.00,1.00
9610.00,1.00
9609.00,1.00
9608.00,1.00
9607.00,1.00
9606.00,1.00
9605.00,1.00
9604.00,1.00
9603.00,1.00
9602.00,1.01
9601.00,1.01
9600.00,1.01
9599.00,1.01
9598.00,1.01
9597.00,1.01
9596.00,1.01
9595.00,1.01
9594.00,1.01
9593.00,1.00
9592.00,1.00
9591.00,1.00
9590.00,1.00
9589.00,1.00
9588.00,0.99
9587.00,0.99
9586.00,0.99
9585.00,0.99
9584.00,0.99
9583.00,0.99
9582.00,0.99
9581.00,0.99
9580.00,0.99
9579.00,0.99
9578.00,0.99
9577.00,1.00
9576.00,1.00
9575.00,1.00
9574.00,1.01
9573.00,1.01
9572.00,1.02
9571.00,1.02
9570.00,1.03
9569.00,1.03
9568.00,1.03
9567.00,1.04
9566.00,1.04
9565.00,1.04
9564.00,1.05
9563.00,1.05
9562.00,1.05
9561.00,1.05
9560.00,1.05
9559.00,1.05
9558.00,1.05
9557.00,1.05
9556.00,1.04
9555.00,1.04
9554.00,1.04
9553.00,1.04
9552.00,1.03
9551.00,1.03
9550.00,1.03
9549.00,1.02
9548.00,1.02
9547.00,1.02
9546.00,1.02
9545.00,1.01
9544.00,1.01
9543.00,1.01
9542.00,1.01
9541.00,1.01
9540.00,1.01
9539.00,1.01
9538.00,1.01
9537.00,1.01
9536.00,1.01
9535.00,1.01
9534.00,1.01
9533.00,1.01
9532.00,1.01
9531.00,1.01
9530.00,1.01
9529.00,1.01
9528.00,1.01
9527.00,1.01
9526.00,1.01
9525.00,1.01
9524.00,1.01
9523.00,1.01
9522.00,1.01
9521.00,1.01
9520.00,1.01
9519.00,1.01
9518.00,1.01
9517.00,1.01
9516.00,1.01
9515.00,1.01
9514.00,1.01
9513.00,1.01
9512.00,1.01
9511.00,1.01
9510.00,1.01
9509.00,1.01
9508.00,1.01
9507.00,1.01
9506.00,1.01
9505.00,1.01
9504.00,1.01
9503.00,1.01
9502.00,1.01
9501.00,1.01
9500.00,1.01
9499.00,1.01
9498.00,1.01
9497.00,1.02
9496.00,1.02
9495.00,1.02
9494.00,1.02
9493.00,1.02
9492.00,1.02
9491.00,1.02
9490.00,1.02
9489.00,1.02
9488.00,1.02
9487.00,1.02
9486.00,1.02
9485.00,1.02
9484.00,1.02
9483.00,1.02
9482.00,1.02
9481.00,1.02
9480.00,1.02
9479.00,1.01
9478.00,1.01
9477.00,1.01
9476.00,1.01
9475.00,1.01
9474.00,1.01
9473.00,1.01
9472.00,1.01
9471.00,1.01
9470.00,1.01
9469.00,1.01
9468.00,1.01
9467.00,1.01
9466.00,1.01
9465.00,1.01
9464.00,1.01
9463.00,1.01
9462.00,1.01
9461.00,1.01
9460.00,1.01
9459.00,1.01
9458.00,1.01
9457.00,1.01
9456.00,1.01
9455.00,1.01
9454.00,1.01
9453.00,1.01
9452.00,1.01
9451.00,1.01
9450.00,1.00
9449.00,1.00
9448.00,1.00
9447.00,1.00
9446.00,1.00
9445.00,1.00
9444.00,1.00
9443.00,1.01
9442.00,1.01
9441.00,1.01
9440.00,1.01
9439.00,1.01
9438.00,1.01
9437.00,1.01
9436.00,1.01
9435.00,1.02
9434.00,1.02
9433.00,1.02
9432.00,1.02
9431.00,1.02
9430.00,1.02
9429.00,1.02
9428.00,1.03
9427.00,1.03
9426.00,1.03
9425.00,1.03
9424.00,1.03
9423.00,1.03
9422.00,1.03
9421.00,1.04
9420.00,1.04
9419.00,1.04
9418.00,1.04
9417.00,1.04
9416.00,1.04
9415.00,1.04
9414.00,1.04
9413.00,1.04
9412.00,1.04
9411.00,1.04
9410.00,1.04
9409.00,1.03
9408.00,1.03
9407.00,1.03
9406.00,1.03
9405.00,1.03
9404.00,1.03
9403.00,1.03
9402.00,1.03
9401.00,1.03
9400.00,1.02
9399.00,1.02
9398.00,1.02
9397.00,1.02
9396.00,1.03
9395.00,1.03
9394.00,1.03
9393.00,1.03
9392.00,1.03
9391.00,1.03
9390.00,1.03
9389.00,1.03
9388.00,1.03
9387.00,1.03
9386.00,1.03
9385.00,1.03
9384.00,1.03
9383.00,1.03
9382.00,1.03
9381.00,1.03
9380.00,1.03
9379.00,1.03
9378.00,1.03
9377.00,1.03
9376.00,1.02
9375.00,1.02
9374.00,1.02
9373.00,1.02
9372.00,1.02
9371.00,1.02
9370.00,1.02
9369.00,1.02
9368.00,1.02
9367.00,1.02
9366.00,1.02
9365.00,1.02
9364.00,1.02
9363.00,1.02
9362.00,1.02
9361.00,1.02
9360.00,1.02
9359.00,1.02
9358.00,1.02
9357.00,1.02
9356.00,1.02
9355.00,1.02
9354.00,1.02
9353.00,1.02
9352.00,1.02
9351.00,1.02
9350.00,1.02
9349.00,1.02
9348.00,1.02
9347.00,1.02
9346.00,1.02
9345.00,1.02
9344.00,1.02
9343.00,1.02
9342.00,1.02
9341.00,1.02
9340.00,1.02
9339.00,1.02
9338.00,1.02
9337.00,1.02
9336.00,1.02
9335.00,1.02
9334.00,1.02
9333.00,1.02
9332.00,1.02
9331.00,1.02
9330.00,1.02
9329.00,1.02
9328.00,1.01
9327.00,1.01
9326.00,1.01
9325.00,1.01
9324.00,1.01
9323.00,1.01
9322.00,1.01
9321.00,1.01
9320.00,1.01
9319.00,1.01
9318.00,1.01
9317.00,1.01
9316.00,1.01
9315.00,1.02
9314.00,1.02
9313.00,1.02
9312.00,1.02
9311.00,1.02
9310.00,1.02
9309.00,1.02
9308.00,1.02
9307.00,1.02
9306.00,1.02
9305.00,1.01
9304.00,1.01
9303.00,1.01
9302.00,1.01
9301.00,1.01
9300.00,1.01
9299.00,1.01
9298.00,1.00
9297.00,1.00
9296.00,1.00
9295.00,1.00
9294.00,1.00
9293.00,1.00
9292.00,1.00
9291.00,1.00
9290.00,1.00
9289.00,1.00
9288.00,1.00
9287.00,1.00
9286.00,1.00
9285.00,1.00
9284.00,1.00
9283.00,1.00
9282.00,1.00
9281.00,1.01
9280.00,1.01
9279.00,1.01
9278.00,1.01
9277.00,1.01
9276.00,1.01
9275.00,1.02
9274.00,1.02
9273.00,1.02
9272.00,1.02
9271.00,1.02
9270.00,1.02
9269.00,1.02
9268.00,1.02
9267.00,1.02
9266.00,1.02
9265.00,1.02
9264.00,1.02
9263.00,1.02
9262.00,1.02
9261.00,1.01
9260.00,1.01
9259.00,1.01
9258.00,1.01
9257.00,1.01
9256.00,1.01
9255.00,1.01
9254.00,1.01
9253.00,1.01
9252.00,1.01
9251.00,1.00
9250.00,1.00
9249.00,1.00
9248.00,1.00
9247.00,1.00
9246.00,1.00
9245.00,1.00
9244.00,1.00
9243.00,1.00
9242.00,1.00
9241.00,1.00
9240.00,1.00
9239.00,1.00
9238.00,1.00
9237.00,1.00
9236.00,1.00
9235.00,1.00
9234.00,1.00
9233.00,1.00
9232.00,1.01
9231.00,1.01
9230.00,1.01
9229.00,1.01
9228.00,1.02
9227.00,1.02
9226.00,1.02
9225.00,1.03
9224.00,1.03
9223.00,1.03
9222.00,1.03
9221.00,1.04
9220.00,1.04
9219.00,1.04
9218.00,1.04
9217.00,1.04
9216.00,1.04
9215.00,1.04
9214.00,1.04
9213.00,1.04
9212.00,1.04
9211.00,1.04
9210.00,1.04
9209.00,1.04
9208.00,1.03
9207.00,1.03
9206.00,1.03
9205.00,1.03
9204.00,1.03
9203.00,1.03
9202.00,1.03
9201.00,1.03
9200.00,1.03
9199.00,1.03
9198.00,1.03
9197.00,1.03
9196.00,1.03
9195.00,1.03
9194.00,1.03
9193.00,1.03
9192.00,1.03
9191.00,1.02
9190.00,1.02
9189.00,1.02
9188.00,1.02
9187.00,1.02
9186.00,1.02
9185.00,1.02
9184.00,1.02
9183.00,1.02
9182.00,1.02
9181.00,1.02
9180.00,1.02
9179.00,1.02
9178.00,1.02
9177.00,1.02
9176.00,1.02
9175.00,1.02
9174.00,1.02
9173.00,1.02
9172.00,1.02
9171.00,1.03
9170.00,1.03
9169.00,1.03
9168.00,1.03
9167.00,1.03
9166.00,1.03
9165.00,1.03
9164.00,1.03
9163.00,1.02
9162.00,1.02
9161.00,1.02
9160.00,1.02
9159.00,1.02
9158.00,1.02
9157.00,1.02
9156.00,1.02
9155.00,1.01
9154.00,1.01
9153.00,1.01
9152.00,1.01
9151.00,1.01
9150.00,1.01
9149.00,1.00
9148.00,1.00
9147.00,1.00
9146.00,1.00
9145.00,1.00
9144.00,1.00
9143.00,1.00
9142.00,1.00
9141.00,1.00
9140.00,1.00
9139.00,1.00
9138.00,1.01
9137.00,1.01
9136.00,1.01
9135.00,1.01
9134.00,1.01
9133.00,1.01
9132.00,1.02
9131.00,1.02
9130.00,1.02
9129.00,1.02
9128.00,1.02
9127.00,1.02
9126.00,1.03
9125.00,1.03
9124.00,1.03
9123.00,1.03
9122.00,1.03
9121.00,1.03
9120.00,1.03
9119.00,1.03
9118.00,1.02
9117.00,1.02
9116.00,1.02
9115.00,1.02
9114.00,1.02
9113.00,1.02
9112.00,1.02
9111.00,1.01
9110.00,1.01
9109.00,1.01
9108.00,1.01
9107.00,1.01
9106.00,1.01
9105.00,1.01
9104.00,1.01
9103.00,1.01
9102.00,1.01
9101.00,1.01
9100.00,1.01
9099.00,1.01
9098.00,1.01
9097.00,1.01
9096.00,1.01
9095.00,1.01
9094.00,1.02
9093.00,1.02
9092.00,1.02
9091.00,1.02
9090.00,1.02
9089.00,1.02
9088.00,1.02
9087.00,1.02
9086.00,1.02
9085.00,1.02
9084.00,1.02
9083.00,1.02
9082.00,1.02
9081.00,1.03
9080.00,1.03
9079.00,1.03
9078.00,1.03
9077.00,1.03
9076.00,1.03
9075.00,1.03
9074.00,1.03
9073.00,1.03
9072.00,1.03
9071.00,1.03
9070.00,1.03
9069.00,1.03
9068.00,1.03
9067.00,1.03
9066.00,1.03
9065.00,1.03
9064.00,1.02
9063.00,1.02
9062.00,1.02
9061.00,1.02
9060.00,1.02
9059.00,1.02
9058.00,1.02
9057.00,1.02
9056.00,1.02
9055.00,1.02
9054.00,1.02
9053.00,1.02
9052.00,1.02
9051.00,1.02
9050.00,1.02
9049.00,1.02
9048.00,1.02
9047.00,1.02
9046.00,1.02
9045.00,1.02
9044.00,1.02
9043.00,1.02
9042.00,1.02
9041.00,1.02
9040.00,1.02
9039.00,1.02
9038.00,1.02
9037.00,1.02
9036.00,1.02
9035.00,1.02
9034.00,1.02
9033.00,1.02
9032.00,1.02
9031.00,1.01
9030.00,1.01
9029.00,1.01
9028.00,1.01
9027.00,1.01
9026.00,1.01
9025.00,1.01
9024.00,1.01
9023.00,1.01
9022.00,1.01
9021.00,1.01
9020.00,1.01
9019.00,1.01
9018.00,1.02
9017.00,1.02
9016.00,1.02
9015.00,1.02
9014.00,1.02
9013.00,1.02
9012.00,1.02
9011.00,1.02
9010.00,1.02
9009.00,1.02
9008.00,1.02
9007.00,1.02
9006.00,1.02
9005.00,1.02
9004.00,1.02
9003.00,1.02
9002.00,1.02
9001.00,1.02
9000.00,1.02
8999.00,1.02
8998.00,1.02
8997.00,1.02
8996.00,1.02
8995.00,1.02
8994.00,1.02
8993.00,1.02
8992.00,1.03
8991.00,1.03
8990.00,1.03
8989.00,1.03
8988.00,1.03
8987.00,1.03
8986.00,1.03
8985.00,1.03
8984.00,1.03
8983.00,1.03
8982.00,1.03
8981.00,1.03
8980.00,1.03
8979.00,1.03
8978.00,1.03
8977.00,1.03
8976.00,1.03
8975.00,1.03
8974.00,1.03
8973.00,1.03
8972.00,1.03
8971.00,1.03
8970.00,1.03
8969.00,1.03
8968.00,1.03
8967.00,1.03
8966.00,1.03
8965.00,1.03
8964.00,1.03
8963.00,1.03
8962.00,1.03
8961.00,1.03
8960.00,1.03
8959.00,1.03
8958.00,1.03
8957.00,1.03
8956.00,1.03
8955.00,1.03
8954.00,1.02
8953.00,1.02
8952.00,1.02
8951.00,1.02
8950.00,1.02
8949.00,1.02
8948.00,1.02
8947.00,1.02
8946.00,1.02
8945.00,1.03
8944.00,1.03
8943.00,1.03
8942.00,1.03
8941.00,1.03
8940.00,1.03
8939.00,1.03
8938.00,1.03
8937.00,1.03
8936.00,1.03
8935.00,1.03
8934.00,1.03
8933.00,1.03
8932.00,1.03
8931.00,1.03
8930.00,1.03
8929.00,1.03
8928.00,1.03
8927.00,1.03
8926.00,1.03
8925.00,1.03
8924.00,1.03
8923.00,1.03
8922.00,1.02
8921.00,1.02
8920.00,1.02
8919.00,1.02
8918.00,1.02
8917.00,1.02
8916.00,1.02
8915.00,1.02
8914.00,1.02
8913.00,1.02
8912.00,1.02
8911.00,1.02
8910.00,1.02
8909.00,1.02
8908.00,1.03
8907.00,1.03
8906.00,1.03
8905.00,1.03
8904.00,1.03
8903.00,1.03
8902.00,1.04
8901.00,1.04
8900.00,1.04
8899.00,1.04
8898.00,1.04
8897.00,1.04
8896.00,1.04
8895.00,1.04
8894.00,1.04
8893.00,1.04
8892.00,1.04
8891.00,1.04
8890.00,1.04
8889.00,1.04
8888.00,1.03
8887.00,1.03
8886.00,1.03
8885.00,1.03
8884.00,1.03
8883.00,1.03
8882.00,1.03
8881.00,1.02
8880.00,1.02
8879.00,1.02
8878.00,1.02
8877.00,1.02
8876.00,1.02
8875.00,1.01
8874.00,1.01
8873.00,1.01
8872.00,1.01
8871.00,1.01
8870.00,1.01
8869.00,1.01
8868.00,1.01
8867.00,1.01
8866.00,1.01
8865.00,1.01
8864.00,1.02
8863.00,1.02
8862.00,1.02
8861.00,1.02
8860.00,1.02
8859.00,1.02
8858.00,1.02
8857.00,1.02
8856.00,1.02
8855.00,1.03
8854.00,1.03
8853.00,1.03
8852.00,1.03
8851.00,1.03
8850.00,1.03
8849.00,1.02
8848.00,1.02
8847.00,1.02
8846.00,1.02
8845.00,1.02
8844.00,1.02
8843.00,1.02
8842.00,1.02
8841.00,1.02
8840.00,1.02
8839.00,1.02
8838.00,1.02
8837.00,1.02
8836.00,1.02
8835.00,1.02
8834.00,1.02
8833.00,1.02
8832.00,1.02
8831.00,1.02
8830.00,1.02
8829.00,1.02
8828.00,1.02
8827.00,1.02
8826.00,1.02
8825.00,1.02
8824.00,1.02
8823.00,1.02
8822.00,1.02
8821.00,1.01
8820.00,1.01
8819.00,1.01
8818.00,1.01
8817.00,1.01
8816.00,1.01
8815.00,1.01
8814.00,1.00
8813.00,1.00
8812.00,1.00
8811.00,1.00
8810.00,1.00
8809.00,0.99
8808.00,0.99
8807.00,0.99
8806.00,0.99
8805.00,0.99
8804.00,0.99
8803.00,0.99
8802.00,0.99
8801.00,0.99
8800.00,0.99
8799.00,0.99
8798.00,0.99
8797.00,0.99
8796.00,0.99
8795.00,0.99
8794.00,0.99
8793.00,1.00
8792.00,1.00
8791.00,1.00
8790.00,1.00
8789.00,1.00
8788.00,1.00
8787.00,1.00
8786.00,1.00
8785.00,1.00
8784.00,1.00
8783.00,1.00
8782.00,1.00
8781.00,1.00
8780.00,1.00
8779.00,1.00
8778.00,1.00
8777.00,1.00
8776.00,1.00
8775.00,1.00
8774.00,1.00
8773.00,1.00
8772.00,1.00
8771.00,1.00
8770.00,0.99
8769.00,0.99
8768.00,0.99
8767.00,0.99
8766.00,0.99
8765.00,0.99
8764.00,0.99
8763.00,0.98
8762.00,0.98
8761.00,0.98
8760.00,0.98
8759.00,0.98
8758.00,0.98
8757.00,0.99
8756.00,0.99
8755.00,0.99
8754.00,0.99
8753.00,0.99
8752.00,0.99
8751.00,0.99
8750.00,0.99
8749.00,1.00
8748.00,1.00
8747.00,1.00
8746.00,1.00
8745.00,1.00
8744.00,1.00
8743.00,1.00
8742.00,1.00
8741.00,0.99
8740.00,0.99
8739.00,0.99
8738.00,0.99
8737.00,0.99
8736.00,0.99
8735.00,0.99
8734.00,0.99
8733.00,0.99
8732.00,0.99
8731.00,0.99
8730.00,0.99
8729.00,0.99
8728.00,0.99
8727.00,0.99
8726.00,0.99
8725.00,0.99
8724.00,0.99
8723.00,0.99
8722.00,0.99
8721.00,0.99
8720.00,0.99
8719.00,0.99
8718.00,0.99
8717.00,0.99
8716.00,0.99
8715.00,0.99
8714.00,0.99
8713.00,0.99
8712.00,0.99
8711.00,0.98
8710.00,0.98
8709.00,0.98
8708.00,0.98
8707.00,0.98
8706.00,0.98
8705.00,0.98
8704.00,0.98
8703.00,0.97
8702.00,0.97
8701.00,0.97
8700.00,0.97
8699.00,0.97
8698.00,0.97
8697.00,0.97
8696.00,0.96
8695.00,0.96
8694.00,0.96
8693.00,0.96
8692.00,0.96
8691.00,0.96
8690.00,0.96
8689.00,0.96
8688.00,0.96
8687.00,0.96
8686.00,0.96
8685.00,0.97
8684.00,0.97
8683.00,0.97
8682.00,0.97
8681.00,0.97
8680.00,0.97
8679.00,0.97
8678.00,0.97
8677.00,0.97
8676.00,0.97
8675.00,0.97
8674.00,0.97
8673.00,0.97
8672.00,0.97
8671.00,0.97
8670.00,0.97
8669.00,0.97
8668.00,0.97
8667.00,0.97
8666.00,0.97
8665.00,0.97
8664.00,0.97
8663.00,0.97
8662.00,0.97
8661.00,0.97
8660.00,0.97
8659.00,0.97
8658.00,0.97
8657.00,0.97
8656.00,0.97
8655.00,0.98
8654.00,0.98
8653.00,0.98
8652.00,0.98
8651.00,0.98
8650.00,0.98
8649.00,0.98
8648.00,0.98
8647.00,0.98
8646.00,0.98
8645.00,0.97
8644.00,0.97
8643.00,0.97
8642.00,0.97
8641.00,0.97
8640.00,0.97
8639.00,0.97
8638.00,0.97
8637.00,0.97
8636.00,0.97
8635.00,0.97
8634.00,0.97
8633.00,0.97
8632.00,0.97
8631.00,0.97
8630.00,0.97
8629.00,0.97
8628.00,0.97
8627.00,0.97
8626.00,0.97
8625.00,0.96
8624.00,0.96
8623.00,0.96
8622.00,0.96
8621.00,0.96
8620.00,0.96
8619.00,0.96
8618.00,0.96
8617.00,0.95
8616.00,0.95
8615.00,0.95
8614.00,0.95
8613.00,0.95
8612.00,0.94
8611.00,0.94
8610.00,0.94
8609.00,0.94
8608.00,0.94
8607.00,0.94
8606.00,0.93
8605.00,0.93
8604.00,0.93
8603.00,0.93
8602.00,0.93
8601.00,0.93
8600.00,0.93
8599.00,0.93
8598.00,0.93
8597.00,0.93
8596.00,0.94
8595.00,0.94
8594.00,0.94
8593.00,0.94
8592.00,0.94
8591.00,0.94
8590.00,0.94
8589.00,0.94
8588.00,0.94
8587.00,0.94
8586.00,0.94
8585.00,0.94
8584.00,0.94
8583.00,0.94
8582.00,0.94
8581.00,0.94
8580.00,0.94
8579.00,0.94
8578.00,0.94
8577.00,0.94
8576.00,0.94
8575.00,0.94
8574.00,0.94
8573.00,0.94
8572.00,0.94
8571.00,0.94
8570.00,0.94
8569.00,0.94
8568.00,0.94
8567.00,0.94
8566.00,0.94
8565.00,0.94
8564.00,0.94
8563.00,0.94
8562.00,0.94
8561.00,0.94
8560.00,0.94
8559.00,0.94
8558.00,0.94
8557.00,0.94
8556.00,0.94
8555.00,0.93
8554.00,0.93
8553.00,0.93
8552.00,0.93
8551.00,0.93
8550.00,0.93
8549.00,0.93
8548.00,0.93
8547.00,0.93
8546.00,0.93
8545.00,0.93
8544.00,0.93
8543.00,0.93
8542.00,0.93
8541.00,0.93
8540.00,0.93
8539.00,0.93
8538.00,0.93
8537.00,0.93
8536.00,0.93
8535.00,0.93
8534.00,0.93
8533.00,0.93
8532.00,0.93
8531.00,0.93
8530.00,0.93
8529.00,0.93
8528.00,0.93
8527.00,0.93
8526.00,0.93
8525.00,0.93
8524.00,0.93
8523.00,0.93
8522.00,0.93
8521.00,0.93
8520.00,0.93
8519.00,0.93
8518.00,0.93
8517.00,0.93
8516.00,0.93
8515.00,0.93
8514.00,0.93
8513.00,0.93
8512.00,0.93
8511.00,0.93
8510.00,0.93
8509.00,0.93
8508.00,0.93
8507.00,0.93
8506.00,0.93
8505.00,0.93
8504.00,0.93
8503.00,0.93
8502.00,0.93
8501.00,0.93
8500.00,0.93
8499.00,0.93
8498.00,0.93
8497.00,0.93
8496.00,0.92
8495.00,0.92
8494.00,0.92
8493.00,0.92
8492.00,0.92
8491.00,0.92
8490.00,0.91
8489.00,0.91
8488.00,0.91
8487.00,0.91
8486.00,0.91
8485.00,0.91
8484.00,0.90
8483.00,0.90
8482.00,0.90
8481.00,0.90
8480.00,0.90
8479.00,0.89
8478.00,0.89
8477.00,0.89
8476.00,0.89
8475.00,0.89
8474.00,0.89
8473.00,0.89
8472.00,0.89
8471.00,0.89
8470.00,0.89
8469.00,0.89
8468.00,0.89
8467.00,0.89
8466.00,0.89
8465.00,0.89
8464.00,0.89
8463.00,0.89
8462.00,0.89
8461.00,0.89
8460.00,0.89
8459.00,0.89
8458.00,0.89
8457.00,0.89
8456.00,0.89
8455.00,0.89
8454.00,0.89
8453.00,0.89
8452.00,0.89
8451.00,0.89
8450.00,0.89
8449.00,0.89
8448.00,0.89
8447.00,0.89
8446.00,0.88
8445.00,0.88
8444.00,0.89
8443.00,0.89
8442.00,0.89
8441.00,0.89
8440.00,0.89
8439.00,0.89
8438.00,0.89
8437.00,0.89
8436.00,0.89
8435.00,0.89
8434.00,0.89
8433.00,0.89
8432.00,0.89
8431.00,0.89
8430.00,0.89
8429.00,0.89
8428.00,0.89
8427.00,0.89
8426.00,0.89
8425.00,0.89
8424.00,0.89
8423.00,0.89
8422.00,0.89
8421.00,0.89
8420.00,0.89
8419.00,0.89
8418.00,0.89
8417.00,0.89
8416.00,0.89
8415.00,0.89
8414.00,0.89
8413.00,0.89
8412.00,0.90
8411.00,0.90
8410.00,0.90
8409.00,0.90
8408.00,0.90
8407.00,0.90
8406.00,0.90
8405.00,0.91
8404.00,0.91
8403.00,0.91
8402.00,0.91
8401.00,0.91
8400.00,0.91
8399.00,0.91
8398.00,0.91
8397.00,0.91
8396.00,0.91
8395.00,0.91
8394.00,0.91
8393.00,0.91
8392.00,0.91
8391.00,0.91
8390.00,0.91
8389.00,0.91
8388.00,0.92
8387.00,0.92
8386.00,0.92
8385.00,0.92
8384.00,0.92
8383.00,0.92
8382.00,0.92
8381.00,0.92
8380.00,0.92
8379.00,0.92
8378.00,0.92
8377.00,0.92
8376.00,0.92
8375.00,0.92
8374.00,0.92
8373.00,0.91
8372.00,0.91
8371.00,0.91
8370.00,0.91
8369.00,0.91
8368.00,0.91
8367.00,0.91
8366.00,0.91
8365.00,0.91
8364.00,0.91
8363.00,0.91
8362.00,0.91
8361.00,0.91
8360.00,0.91
8359.00,0.91
8358.00,0.91
8357.00,0.91
8356.00,0.91
8355.00,0.91
8354.00,0.92
8353.00,0.92
8352.00,0.92
8351.00,0.92
8350.00,0.92
8349.00,0.92
8348.00,0.92
8347.00,0.92
8346.00,0.92
8345.00,0.92
8344.00,0.93
8343.00,0.93
8342.00,0.93
8341.00,0.93
8340.00,0.93
8339.00,0.93
8338.00,0.93
8337.00,0.93
8336.00,0.93
8335.00,0.93
8334.00,0.93
8333.00,0.93
8332.00,0.93
8331.00,0.93
8330.00,0.93
8329.00,0.93
8328.00,0.93
8327.00,0.93
8326.00,0.93
8325.00,0.93
8324.00,0.93
8323.00,0.93
8322.00,0.93
8321.00,0.93
8320.00,0.93
8319.00,0.93
8318.00,0.93
8317.00,0.93
8316.00,0.92
8315.00,0.92
8314.00,0.92
8313.00,0.92
8312.00,0.92
8311.00,0.92
8310.00,0.92
8309.00,0.92
8308.00,0.92
8307.00,0.92
8306.00,0.91
8305.00,0.91
8304.00,0.91
8303.00,0.91
8302.00,0.91
8301.00,0.91
8300.00,0.91
8299.00,0.91
8298.00,0.92
8297.00,0.92
8296.00,0.92
8295.00,0.92
8294.00,0.92
8293.00,0.92
8292.00,0.92
8291.00,0.92
8290.00,0.92
8289.00,0.92
8288.00,0.92
8287.00,0.92
8286.00,0.92
8285.00,0.92
8284.00,0.92
8283.00,0.92
8282.00,0.92
8281.00,0.92
8280.00,0.93
8279.00,0.93
8278.00,0.93
8277.00,0.93
8276.00,0.93
8275.00,0.93
8274.00,0.93
8273.00,0.93
8272.00,0.94
8271.00,0.94
8270.00,0.94
8269.00,0.94
8268.00,0.94
8267.00,0.94
8266.00,0.94
8265.00,0.94
8264.00,0.94
8263.00,0.94
8262.00,0.94
8261.00,0.94
8260.00,0.94
8259.00,0.94
8258.00,0.94
8257.00,0.94
8256.00,0.94
8255.00,0.94
8254.00,0.94
8253.00,0.94
8252.00,0.94
8251.00,0.94
8250.00,0.94
8249.00,0.94
8248.00,0.94
8247.00,0.94
8246.00,0.94
8245.00,0.94
8244.00,0.94
8243.00,0.94
8242.00,0.94
8241.00,0.94
8240.00,0.94
8239.00,0.94
8238.00,0.94
8237.00,0.94
8236.00,0.94
8235.00,0.94
8234.00,0.94
8233.00,0.94
8232.00,0.94
8231.00,0.94
8230.00,0.94
8229.00,0.94
8228.00,0.94
8227.00,0.94
8226.00,0.94
8225.00,0.94
8224.00,0.94
8223.00,0.94
8222.00,0.94
8221.00,0.94
8220.00,0.94
8219.00,0.94
8218.00,0.94
8217.00,0.94
8216.00,0.94
8215.00,0.94
8214.00,0.94
8213.00,0.95
8212.00,0.95
8211.00,0.95
8210.00,0.95
8209.00,0.95
8208.00,0.95
8207.00,0.95
8206.00,0.95
8205.00,0.95
8204.00,0.95
8203.00,0.95
8202.00,0.95
8201.00,0.95
8200.00,0.95
8199.00,0.95
8198.00,0.95
8197.00,0.95
8196.00,0.95
8195.00,0.95
8194.00,0.95
8193.00,0.95
8192.00,0.95
8191.00,0.95
8190.00,0.95
8189.00,0.95
8188.00,0.95
8187.00,0.95
8186.00,0.96
8185.00,0.96
8184.00,0.96
8183.00,0.96
8182.00,0.96
8181.00,0.96
8180.00,0.96
8179.00,0.96
8178.00,0.96
8177.00,0.96
8176.00,0.96
8175.00,0.96
8174.00,0.96
8173.00,0.96
8172.00,0.96
8171.00,0.96
8170.00,0.96
8169.00,0.96
8168.00,0.96
8167.00,0.96
8166.00,0.96
8165.00,0.96
8164.00,0.96
8163.00,0.95
8162.00,0.95
8161.00,0.95
8160.00,0.95
8159.00,0.95
8158.00,0.96
8157.00,0.96
8156.00,0.96
8155.00,0.96
8154.00,0.96
8153.00,0.96
8152.00,0.96
8151.00,0.96
8150.00,0.97
8149.00,0.97
8148.00,0.97
8147.00,0.97
8146.00,0.97
8145.00,0.97
8144.00,0.97
8143.00,0.97
8142.00,0.98
8141.00,0.98
8140.00,0.98
8139.00,0.98
8138.00,0.98
8137.00,0.98
8136.00,0.97
8135.00,0.97
8134.00,0.97
8133.00,0.97
8132.00,0.97
8131.00,0.97
8130.00,0.97
8129.00,0.97
8128.00,0.96
8127.00,0.96
8126.00,0.96
8125.00,0.96
8124.00,0.96
8123.00,0.96
8122.00,0.96
8121.00,0.96
8120.00,0.96
8119.00,0.96
8118.00,0.96
8117.00,0.96
8116.00,0.96
8115.00,0.96
8114.00,0.96
8113.00,0.96
8112.00,0.96
8111.00,0.97
8110.00,0.97
8109.00,0.97
8108.00,0.97
8107.00,0.97
8106.00,0.97
8105.00,0.97
8104.00,0.97
8103.00,0.98
8102.00,0.98
8101.00,0.98
8100.00,0.98
8099.00,0.98
8098.00,0.98
8097.00,0.98
8096.00,0.98
8095.00,0.98
8094.00,0.98
8093.00,0.98
8092.00,0.98
8091.00,0.98
8090.00,0.98
8089.00,0.98
8088.00,0.98
8087.00,0.98
8086.00,0.98
8085.00,0.98
8084.00,0.98
8083.00,0.98
8082.00,0.98
8081.00,0.98
8080.00,0.98
8079.00,0.98
8078.00,0.98
8077.00,0.98
8076.00,0.98
8075.00,0.98
8074.00,0.98
8073.00,0.98
8072.00,0.98
8071.00,0.98
8070.00,0.98
8069.00,0.98
8068.00,0.98
8067.00,0.98
8066.00,0.98
8065.00,0.98
8064.00,0.98
8063.00,0.98
8062.00,0.98
8061.00,0.98
8060.00,0.98
8059.00,0.98
8058.00,0.98
8057.00,0.98
8056.00,0.98
8055.00,0.98
8054.00,0.98
8053.00,0.99
8052.00,0.99
8051.00,0.99
8050.00,0.99
8049.00,0.99
8048.00,0.99
8047.00,0.99
8046.00,0.99
8045.00,0.99
8044.00,0.99
8043.00,0.99
8042.00,1.00
8041.00,1.00
8040.00,1.00
8039.00,1.00
8038.00,1.00
8037.00,1.00
8036.00,1.00
8035.00,1.00
8034.00,1.00
8033.00,1.01
8032.00,1.01
8031.00,1.01
8030.00,1.01
8029.00,1.01
8028.00,1.01
8027.00,1.01
8026.00,1.01
8025.00,1.01
8024.00,1.01
8023.00,1.01
8022.00,1.01
8021.00,1.01
8020.00,1.01
8019.00,1.01
8018.00,1.01
8017.00,1.01
8016.00,1.01
8015.00,1.01
8014.00,1.01
8013.00,1.01
8012.00,1.01
8011.00,1.01
8010.00,1.01
8009.00,1.01
8008.00,1.01
8007.00,1.01
8006.00,1.01
8005.00,1.01
8004.00,1.01
8003.00,1.01
8002.00,1.01
8001.00,1.01
8000.00,1.01
7999.00,1.01
7998.00,1.01
7997.00,1.01
7996.00,1.01
7995.00,1.01
7994.00,1.00
7993.00,1.00
7992.00,1.00
7991.00,1.00
7990.00,1.00
7989.00,1.00
7988.00,1.00
7987.00,1.00
7986.00,1.00
7985.00,1.00
7984.00,1.00
7983.00,1.00
7982.00,1.00
7981.00,1.00
7980.00,1.00
7979.00,1.00
7978.00,1.00
7977.00,1.00
7976.00,1.00
7975.00,1.00
7974.00,1.00
7973.00,1.00
7972.00,1.00
7971.00,1.00
7970.00,1.00
7969.00,1.00
7968.00,1.00
7967.00,1.00
7966.00,1.00
7965.00,1.00
7964.00,1.00
7963.00,1.00
7962.00,1.00
7961.00,1.00
7960.00,1.00
7959.00,1.00
7958.00,1.00
7957.00,1.00
7956.00,1.00
7955.00,1.00
7954.00,1.00
7953.00,1.00
7952.00,1.00
7951.00,1.00
7950.00,1.00
7949.00,1.00
7948.00,1.00
7947.00,1.00
7946.00,1.00
7945.00,1.00
7944.00,1.00
7943.00,1.00
7942.00,1.00
7941.00,1.00
7940.00,1.00
7939.00,1.00
7938.00,1.00
7937.00,1.00
7936.00,1.00
7935.00,1.00
7934.00,1.00
7933.00,1.00
7932.00,1.00
7931.00,1.00
7930.00,1.00
7929.00,1.00
7928.00,1.00
7927.00,1.00
7926.00,1.00
7925.00,1.00
7924.00,1.00
7923.00,1.00
7922.00,1.00
7921.00,1.00
7920.00,1.00
7919.00,1.01
7918.00,1.01
7917.00,1.01
7916.00,1.01
7915.00,1.01
7914.00,1.01
7913.00,1.01
7912.00,1.01
7911.00,1.01
7910.00,1.01
7909.00,1.01
7908.00,1.01
7907.00,1.02
7906.00,1.02
7905.00,1.02
7904.00,1.02
7903.00,1.02
7902.00,1.02
7901.00,1.02
7900.00,1.02
7899.00,1.02
7898.00,1.02
7897.00,1.02
7896.00,1.02
7895.00,1.02
7894.00,1.02
7893.00,1.02
7892.00,1.02
7891.00,1.02
7890.00,1.03
7889.00,1.03
7888.00,1.03
7887.00,1.03
7886.00,1.03
7885.00,1.03
7884.00,1.03
7883.00,1.03
7882.00,1.03
7881.00,1.03
7880.00,1.03
7879.00,1.03
7878.00,1.03
7877.00,1.03
7876.00,1.02
7875.00,1.02
7874.00,1.02
7873.00,1.02
7872.00,1.02
7871.00,1.02
7870.00,1.02
7869.00,1.02
7868.00,1.02
7867.00,1.02
7866.00,1.02
7865.00,1.02
7864.00,1.02
7863.00,1.01
7862.00,1.01
7861.00,1.01
7860.00,1.01
7859.00,1.01
7858.00,1.01
7857.00,1.01
7856.00,1.01
7855.00,1.01
7854.00,1.01
7853.00,1.01
7852.00,1.01
7851.00,1.01
7850.00,1.01
7849.00,1.01
7848.00,1.01
7847.00,1.01
7846.00,1.02
7845.00,1.02
7844.00,1.02
7843.00,1.02
7842.00,1.02
7841.00,1.02
7840.00,1.02
7839.00,1.02
7838.00,1.02
7837.00,1.02
7836.00,1.02
7835.00,1.02
7834.00,1.02
7833.00,1.02
7832.00,1.02
7831.00,1.02
7830.00,1.02
7829.00,1.02
7828.00,1.02
7827.00,1.02
7826.00,1.02
7825.00,1.02
7824.00,1.02
7823.00,1.02
7822.00,1.02
7821.00,1.02
7820.00,1.02
7819.00,1.02
7818.00,1.02
7817.00,1.02
7816.00,1.03
7815.00,1.03
7814.00,1.03
7813.00,1.03
7812.00,1.03
7811.00,1.03
7810.00,1.03
7809.00,1.03
7808.00,1.03
7807.00,1.03
7806.00,1.04
7805.00,1.04
7804.00,1.04
7803.00,1.04
7802.00,1.04
7801.00,1.04
7800.00,1.03
7799.00,1.03
7798.00,1.03
7797.00,1.03
7796.00,1.03
7795.00,1.03
7794.00,1.03
7793.00,1.03
7792.00,1.03
7791.00,1.03
7790.00,1.03
7789.00,1.03
7788.00,1.03
7787.00,1.03
7786.00,1.03
7785.00,1.03
7784.00,1.03
7783.00,1.03
7782.00,1.03
7781.00,1.03
7780.00,1.03
7779.00,1.03
7778.00,1.03
7777.00,1.03
7776.00,1.03
7775.00,1.03
7774.00,1.03
7773.00,1.03
7772.00,1.03
7771.00,1.03
7770.00,1.03
7769.00,1.03
7768.00,1.03
7767.00,1.03
7766.00,1.03
7765.00,1.03
7764.00,1.03
7763.00,1.03
7762.00,1.03
7761.00,1.03
7760.00,1.03
7759.00,1.03
7758.00,1.03
7757.00,1.03
7756.00,1.03
7755.00,1.03
7754.00,1.03
7753.00,1.03
7752.00,1.03
7751.00,1.04
7750.00,1.04
7749.00,1.04
7748.00,1.04
7747.00,1.04
7746.00,1.04
7745.00,1.04
7744.00,1.04
7743.00,1.04
7742.00,1.04
7741.00,1.04
7740.00,1.04
7739.00,1.04
7738.00,1.04
7737.00,1.04
7736.00,1.04
7735.00,1.04
7734.00,1.04
7733.00,1.04
7732.00,1.04
7731.00,1.04
7730.00,1.04
7729.00,1.04
7728.00,1.04
7727.00,1.04
7726.00,1.04
7725.00,1.04
7724.00,1.04
7723.00,1.04
7722.00,1.04
7721.00,1.04
7720.00,1.04
7719.00,1.04
7718.00,1.04
7717.00,1.04
7716.00,1.04
7715.00,1.04
7714.00,1.04
7713.00,1.04
7712.00,1.04
7711.00,1.04
7710.00,1.04
7709.00,1.04
7708.00,1.04
7707.00,1.04
7706.00,1.04
7705.00,1.04
7704.00,1.04
7703.00,1.04
7702.00,1.04
7701.00,1.04
7700.00,1.04
7699.00,1.04
7698.00,1.04
7697.00,1.04
7696.00,1.04
7695.00,1.04
7694.00,1.04
7693.00,1.04
7692.00,1.04
7691.00,1.04
7690.00,1.04
7689.00,1.04
7688.00,1.04
7687.00,1.04
7686.00,1.04
7685.00,1.04
7684.00,1.04
7683.00,1.04
7682.00,1.04
7681.00,1.04
7680.00,1.04
7679.00,1.03
7678.00,1.03
7677.00,1.03
7676.00,1.03
7675.00,1.03
7674.00,1.03
7673.00,1.03
7672.00,1.03
7671.00,1.03
7670.00,1.04
7669.00,1.04
7668.00,1.04
7667.00,1.04
7666.00,1.04
7665.00,1.04
7664.00,1.04
7663.00,1.04
7662.00,1.04
7661.00,1.04
7660.00,1.04
7659.00,1.04
7658.00,1.04
7657.00,1.04
7656.00,1.04
7655.00,1.04
7654.00,1.04
7653.00,1.04
7652.00,1.03
7651.00,1.03
7650.00,1.03
7649.00,1.03
7648.00,1.03
7647.00,1.03
7646.00,1.03
7645.00,1.03
7644.00,1.03
7643.00,1.03
7642.00,1.03
7641.00,1.03
7640.00,1.03
7639.00,1.03
7638.00,1.03
7637.00,1.03
7636.00,1.03
7635.00,1.03
7634.00,1.03
7633.00,1.03
7632.00,1.03
7631.00,1.03
7630.00,1.03
7629.00,1.03
7628.00,1.03
7627.00,1.04
7626.00,1.04
7625.00,1.04
7624.00,1.04
7623.00,1.04
7622.00,1.04
7621.00,1.04
7620.00,1.04
7619.00,1.04
7618.00,1.04
7617.00,1.04
7616.00,1.04
7615.00,1.04
7614.00,1.04
7613.00,1.04
7612.00,1.04
7611.00,1.04
7610.00,1.04
7609.00,1.04
7608.00,1.04
7607.00,1.04
7606.00,1.04
7605.00,1.04
7604.00,1.04
7603.00,1.04
7602.00,1.03
7601.00,1.03
7600.00,1.03
7599.00,1.03
7598.00,1.03
7597.00,1.03
7596.00,1.03
7595.00,1.03
7594.00,1.03
7593.00,1.03
7592.00,1.03
7591.00,1.03
7590.00,1.03
7589.00,1.03
7588.00,1.03
7587.00,1.03
7586.00,1.03
7585.00,1.03
7584.00,1.03
7583.00,1.03
7582.00,1.03
7581.00,1.04
7580.00,1.04
7579.00,1.04
7578.00,1.04
7577.00,1.04
7576.00,1.04
7575.00,1.04
7574.00,1.04
7573.00,1.04
7572.00,1.04
7571.00,1.04
7570.00,1.04
7569.00,1.04
7568.00,1.04
7567.00,1.04
7566.00,1.04
7565.00,1.04
7564.00,1.04
7563.00,1.04
7562.00,1.04
7561.00,1.03
7560.00,1.03
7559.00,1.03
7558.00,1.03
7557.00,1.03
7556.00,1.03
7555.00,1.03
7554.00,1.03
7553.00,1.03
7552.00,1.03
7551.00,1.03
7550.00,1.03
7549.00,1.03
7548.00,1.03
7547.00,1.03
7546.00,1.03
7545.00,1.03
7544.00,1.03
7543.00,1.03
7542.00,1.03
7541.00,1.03
7540.00,1.03
7539.00,1.03
7538.00,1.03
7537.00,1.03
7536.00,1.03
7535.00,1.03
7534.00,1.03
7533.00,1.03
7532.00,1.03
7531.00,1.02
7530.00,1.02
7529.00,1.02
7528.00,1.02
7527.00,1.02
7526.00,1.02
7525.00,1.02
7524.00,1.02
7523.00,1.02
7522.00,1.02
7521.00,1.02
7520.00,1.02
7519.00,1.02
7518.00,1.02
7517.00,1.02
7516.00,1.01
7515.00,1.01
7514.00,1.01
7513.00,1.01
7512.00,1.01
7511.00,1.01
7510.00,1.01
7509.00,1.01
7508.00,1.01
7507.00,1.01
7506.00,1.01
7505.00,1.01
7504.00,1.01
7503.00,1.01
7502.00,1.01
7501.00,1.01
7500.00,1.01
7499.00,1.01
7498.00,1.01
7497.00,1.01
7496.00,1.01
7495.00,1.01
7494.00,1.01
7493.00,1.01
7492.00,1.01
7491.00,1.01
7490.00,1.01
7489.00,1.01
7488.00,1.01
7487.00,1.01
7486.00,1.01
7485.00,1.01
7484.00,1.01
7483.00,1.01
7482.00,1.01
7481.00,1.01
7480.00,1.01
7479.00,1.01
7478.00,1.01
7477.00,1.01
7476.00,1.01
7475.00,1.01
7474.00,1.00
7473.00,1.00
7472.00,1.00
7471.00,1.00
7470.00,1.00
7469.00,1.00
7468.00,1.00
7467.00,1.00
7466.00,1.00
7465.00,1.00
7464.00,1.00
7463.00,1.00
7462.00,1.00
7461.00,1.00
7460.00,1.00
7459.00,1.00
7458.00,1.00
7457.00,1.00
7456.00,1.00
7455.00,1.00
7454.00,1.00
7453.00,1.00
7452.00,1.00
7451.00,1.00
7450.00,1.00
7449.00,1.00
7448.00,1.00
7447.00,1.00
7446.00,1.00
7445.00,1.00
7444.00,0.99
7443.00,0.99
7442.00,0.99
7441.00,0.99
7440.00,0.99
7439.00,0.99
7438.00,0.99
7437.00,0.99
7436.00,0.99
7435.00,0.99
7434.00,0.98
7433.00,0.98
7432.00,0.98
7431.00,0.98
7430.00,0.98
7429.00,0.98
7428.00,0.98
7427.00,0.98
7426.00,0.98
7425.00,0.98
7424.00,0.98
7423.00,0.98
7422.00,0.98
7421.00,0.98
7420.00,0.98
7419.00,0.98
7418.00,0.98
7417.00,0.98
7416.00,0.98
7415.00,0.98
7414.00,0.98
7413.00,0.98
7412.00,0.98
7411.00,0.97
7410.00,0.97
7409.00,0.97
7408.00,0.97
7407.00,0.97
7406.00,0.97
7405.00,0.97
7404.00,0.96
7403.00,0.96
7402.00,0.96
7401.00,0.96
7400.00,0.96
7399.00,0.96
7398.00,0.95
7397.00,0.95
7396.00,0.95
7395.00,0.95
7394.00,0.95
7393.00,0.95
7392.00,0.95
7391.00,0.94
7390.00,0.94
7389.00,0.94
7388.00,0.94
7387.00,0.94
7386.00,0.94
7385.00,0.94
7384.00,0.94
7383.00,0.94
7382.00,0.94
7381.00,0.94
7380.00,0.94
7379.00,0.94
7378.00,0.93
7377.00,0.93
7376.00,0.93
7375.00,0.93
7374.00,0.93
7373.00,0.94
7372.00,0.94
7371.00,0.94
7370.00,0.94
7369.00,0.94
7368.00,0.94
7367.00,0.94
7366.00,0.94
7365.00,0.94
7364.00,0.94
7363.00,0.94
7362.00,0.94
7361.00,0.94
7360.00,0.94
7359.00,0.94
7358.00,0.94
7357.00,0.94
7356.00,0.94
7355.00,0.94
7354.00,0.94
7353.00,0.94
7352.00,0.94
7351.00,0.94
7350.00,0.94
7349.00,0.94
7348.00,0.94
7347.00,0.94
7346.00,0.94
7345.00,0.94
7344.00,0.94
7343.00,0.93
7342.00,0.93
7341.00,0.93
7340.00,0.93
7339.00,0.93
7338.00,0.93
7337.00,0.93
7336.00,0.93
7335.00,0.93
7334.00,0.93
7333.00,0.93
7332.00,0.93
7331.00,0.93
7330.00,0.93
7329.00,0.92
7328.00,0.92
7327.00,0.92
7326.00,0.92
7325.00,0.92
7324.00,0.92
7323.00,0.92
7322.00,0.92
7321.00,0.92
7320.00,0.92
7319.00,0.92
7318.00,0.92
7317.00,0.92
7316.00,0.92
7315.00,0.92
7314.00,0.91
7313.00,0.91
7312.00,0.91
7311.00,0.91
7310.00,0.91
7309.00,0.91
7308.00,0.91
7307.00,0.91
7306.00,0.91
7305.00,0.91
7304.00,0.91
7303.00,0.91
7302.00,0.91
7301.00,0.91
7300.00,0.91
7299.00,0.91
7298.00,0.91
7297.00,0.91
7296.00,0.91
7295.00,0.91
7294.00,0.91
7293.00,0.90
7292.00,0.90
7291.00,0.90
7290.00,0.90
7289.00,0.90
7288.00,0.90
7287.00,0.90
7286.00,0.90
7285.00,0.90
7284.00,0.90
7283.00,0.90
7282.00,0.90
7281.00,0.90
7280.00,0.90
7279.00,0.90
7278.00,0.90
7277.00,0.89
7276.00,0.89
7275.00,0.89
7274.00,0.89
7273.00,0.89
7272.00,0.89
7271.00,0.88
7270.00,0.88
7269.00,0.88
7268.00,0.88
7267.00,0.88
7266.00,0.87
7265.00,0.87
7264.00,0.87
7263.00,0.87
7262.00,0.87
7261.00,0.87
7260.00,0.87
7259.00,0.87
7258.00,0.86
7257.00,0.86
7256.00,0.86
7255.00,0.86
7254.00,0.86
7253.00,0.86
7252.00,0.86
7251.00,0.85
7250.00,0.85
7249.00,0.85
7248.00,0.85
7247.00,0.85
7246.00,0.85
7245.00,0.84
7244.00,0.84
7243.00,0.84
7242.00,0.84
7241.00,0.84
7240.00,0.84
7239.00,0.84
7238.00,0.83
7237.00,0.83
7236.00,0.83
7235.00,0.83
7234.00,0.83
7233.00,0.82
7232.00,0.82
7231.00,0.82
7230.00,0.82
7229.00,0.81
7228.00,0.81
7227.00,0.81
7226.00,0.81
7225.00,0.80
7224.00,0.80
7223.00,0.79
7222.00,0.79
7221.00,0.79
7220.00,0.78
7219.00,0.78
7218.00,0.78
7217.00,0.77
7216.00,0.77
7215.00,0.77
7214.00,0.76
7213.00,0.76
7212.00,0.76
7211.00,0.76
7210.00,0.75
7209.00,0.75
7208.00,0.75
7207.00,0.75
7206.00,0.75
7205.00,0.74
7204.00,0.74
7203.00,0.74
7202.00,0.73
7201.00,0.73
7200.00,0.73
7199.00,0.73
7198.00,0.72
7197.00,0.72
7196.00,0.72
7195.00,0.71
7194.00,0.71
7193.00,0.71
7192.00,0.70
7191.00,0.70
7190.00,0.70
7189.00,0.70
7188.00,0.69
7187.00,0.69
7186.00,0.69
7185.00,0.69
7184.00,0.68
7183.00,0.68
7182.00,0.68
7181.00,0.68
7180.00,0.68
7179.00,0.68
7178.00,0.67
7177.00,0.67
7176.00,0.67
7175.00,0.67
7174.00,0.67
7173.00,0.67
7172.00,0.66
7171.00,0.66
7170.00,0.66
7169.00,0.66
7168.00,0.65
7167.00,0.65
7166.00,0.65
7165.00,0.65
7164.00,0.65
7163.00,0.64
7162.00,0.64
7161.00,0.64
7160.00,0.64
7159.00,0.63
7158.00,0.63
7157.00,0.63
7156.00,0.63
7155.00,0.63
7154.00,0.62
7153.00,0.62
7152.00,0.62
7151.00,0.62
7150.00,0.61
7149.00,0.61
7148.00,0.61
7147.00,0.61
7146.00,0.61
7145.00,0.60
7144.00,0.60
7143.00,0.60
7142.00,0.60
7141.00,0.60
7140.00,0.59
7139.00,0.59
7138.00,0.59
7137.00,0.59
7136.00,0.59
7135.00,0.59
7134.00,0.59
7133.00,0.58
7132.00,0.58
7131.00,0.58
7130.00,0.58
7129.00,0.58
7128.00,0.58
7127.00,0.58
7126.00,0.58
7125.00,0.57
7124.00,0.57
7123.00,0.57
7122.00,0.57
7121.00,0.57
7120.00,0.57
7119.00,0.56
7118.00,0.56
7117.00,0.56
7116.00,0.56
7115.00,0.55
7114.00,0.55
7113.00,0.55
7112.00,0.54
7111.00,0.54
7110.00,0.54
7109.00,0.54
7108.00,0.54
7107.00,0.53
7106.00,0.53
7105.00,0.53
7104.00,0.53
7103.00,0.53
7102.00,0.52
7101.00,0.52
7100.00,0.52
7099.00,0.52
7098.00,0.52
7097.00,0.52
7096.00,0.52
7095.00,0.52
7094.00,0.51
7093.00,0.51
7092.00,0.51
7091.00,0.51
7090.00,0.51
7089.00,0.51
7088.00,0.51
7087.00,0.51
7086.00,0.51
7085.00,0.51
7084.00,0.51
7083.00,0.51
7082.00,0.51
7081.00,0.51
7080.00,0.50
7079.00,0.50
7078.00,0.50
7077.00,0.50
7076.00,0.50
7075.00,0.50
7074.00,0.50
7073.00,0.50
7072.00,0.50
7071.00,0.49
7070.00,0.49
7069.00,0.49
7068.00,0.49
7067.00,0.49
7066.00,0.49
7065.00,0.49
7064.00,0.49
7063.00,0.49
7062.00,0.48
7061.00,0.48
7060.00,0.48
7059.00,0.48
7058.00,0.48
7057.00,0.48
7056.00,0.48
7055.00,0.48
7054.00,0.47
7053.00,0.47
7052.00,0.47
7051.00,0.47
7050.00,0.47
7049.00,0.47
7048.00,0.47
7047.00,0.47
7046.00,0.47
7045.00,0.47
7044.00,0.47
7043.00,0.47
7042.00,0.47
7041.00,0.47
7040.00,0.47
7039.00,0.47
7038.00,0.47
7037.00,0.47
7036.00,0.47
7035.00,0.47
7034.00,0.47
7033.00,0.46
7032.00,0.46
7031.00,0.46
7030.00,0.46
7029.00,0.46
7028.00,0.46
7027.00,0.46
7026.00,0.46
7025.00,0.46
7024.00,0.46
7023.00,0.46
7022.00,0.46
7021.00,0.46
7020.00,0.46
7019.00,0.45
7018.00,0.45
7017.00,0.45
7016.00,0.45
7015.00,0.45
7014.00,0.45
7013.00,0.45
7012.00,0.45
7011.00,0.45
7010.00,0.45
7009.00,0.45
7008.00,0.45
7007.00,0.45
7006.00,0.45
7005.00,0.45
7004.00,0.45
7003.00,0.45
7002.00,0.45
7001.00,0.45
7000.00,0.45
6999.00,0.45
6998.00,0.44
6997.00,0.44
6996.00,0.44
6995.00,0.44
6994.00,0.44
6993.00,0.44
6992.00,0.44
6991.00,0.44
6990.00,0.44
6989.00,0.44
6988.00,0.44
6987.00,0.44
6986.00,0.44
6985.00,0.44
6984.00,0.44
6983.00,0.44
6982.00,0.44
6981.00,0.44
6980.00,0.44
6979.00,0.44
6978.00,0.44
6977.00,0.44
6976.00,0.45
6975.00,0.45
6974.00,0.45
6973.00,0.45
6972.00,0.45
6971.00,0.45
6970.00,0.45
6969.00,0.45
6968.00,0.45
6967.00,0.45
6966.00,0.45
6965.00,0.45
6964.00,0.45
6963.00,0.45
6962.00,0.45
6961.00,0.45
6960.00,0.45
6959.00,0.45
6958.00,0.45
6957.00,0.45
6956.00,0.45
6955.00,0.44
6954.00,0.44
6953.00,0.44
6952.00,0.44
6951.00,0.44
6950.00,0.44
6949.00,0.44
6948.00,0.44
6947.00,0.44
6946.00,0.44
6945.00,0.44
6944.00,0.44
6943.00,0.44
6942.00,0.43
6941.00,0.43
6940.00,0.43
6939.00,0.43
6938.00,0.44
6937.00,0.44
6936.00,0.44
6935.00,0.44
6934.00,0.44
6933.00,0.44
6932.00,0.44
6931.00,0.44
6930.00,0.44
6929.00,0.44
6928.00,0.44
6927.00,0.44
6926.00,0.44
6925.00,0.44
6924.00,0.44
6923.00,0.44
6922.00,0.43
6921.00,0.43
6920.00,0.43
6919.00,0.43
6918.00,0.43
6917.00,0.43
6916.00,0.43
6915.00,0.43
6914.00,0.43
6913.00,0.43
6912.00,0.43
6911.00,0.43
6910.00,0.43
6909.00,0.43
6908.00,0.43
6907.00,0.43
6906.00,0.43
6905.00,0.42
6904.00,0.42
6903.00,0.42
6902.00,0.42
6901.00,0.42
6900.00,0.42
6899.00,0.42
6898.00,0.42
6897.00,0.42
6896.00,0.42
6895.00,0.42
6894.00,0.42
6893.00,0.42
6892.00,0.42
6891.00,0.42
6890.00,0.42
6889.00,0.42
6888.00,0.42
6887.00,0.42
6886.00,0.42
6885.00,0.42
6884.00,0.42
6883.00,0.42
6882.00,0.42
6881.00,0.42
6880.00,0.42
6879.00,0.42
6878.00,0.42
6877.00,0.42
6876.00,0.42
6875.00,0.42
6874.00,0.42
6873.00,0.42
6872.00,0.42
6871.00,0.42
6870.00,0.42
6869.00,0.42
6868.00,0.42
6867.00,0.42
6866.00,0.42
6865.00,0.42
6864.00,0.42
6863.00,0.43
6862.00,0.43
6861.00,0.43
6860.00,0.43
6859.00,0.43
6858.00,0.43
6857.00,0.43
6856.00,0.43
6855.00,0.43
6854.00,0.43
6853.00,0.43
6852.00,0.43
6851.00,0.43
6850.00,0.43
6849.00,0.43
6848.00,0.43
6847.00,0.43
6846.00,0.43
6845.00,0.43
6844.00,0.43
6843.00,0.43
6842.00,0.43
6841.00,0.43
6840.00,0.43
6839.00,0.44
6838.00,0.44
6837.00,0.44
6836.00,0.44
6835.00,0.44
6834.00,0.44
6833.00,0.44
6832.00,0.44
6831.00,0.44
6830.00,0.44
6829.00,0.44
6828.00,0.44
6827.00,0.44
6826.00,0.45
6825.00,0.45
6824.00,0.45
6823.00,0.45
6822.00,0.44
6821.00,0.44
6820.00,0.44
6819.00,0.44
6818.00,0.44
6817.00,0.44
6816.00,0.44
6815.00,0.44
6814.00,0.44
6813.00,0.44
6812.00,0.44
6811.00,0.44
6810.00,0.44
6809.00,0.44
6808.00,0.44
6807.00,0.44
6806.00,0.44
6805.00,0.44
6804.00,0.44
6803.00,0.44
6802.00,0.44
6801.00,0.44
6800.00,0.44
6799.00,0.44
6798.00,0.44
6797.00,0.44
6796.00,0.44
6795.00,0.44
6794.00,0.44
6793.00,0.44
6792.00,0.44
6791.00,0.44
6790.00,0.44
6789.00,0.44
6788.00,0.44
6787.00,0.44
6786.00,0.44
6785.00,0.44
6784.00,0.44
6783.00,0.44
6782.00,0.44
6781.00,0.45
6780.00,0.45
6779.00,0.45
6778.00,0.45
6777.00,0.45
6776.00,0.45
6775.00,0.45
6774.00,0.45
6773.00,0.45
6772.00,0.45
6771.00,0.45
6770.00,0.45
6769.00,0.45
6768.00,0.45
6767.00,0.45
6766.00,0.45
6765.00,0.45
6764.00,0.45
6763.00,0.45
6762.00,0.45
6761.00,0.45
6760.00,0.45
6759.00,0.45
6758.00,0.45
6757.00,0.45
6756.00,0.45
6755.00,0.45
6754.00,0.45
6753.00,0.45
6752.00,0.46
6751.00,0.46
6750.00,0.46
6749.00,0.46
6748.00,0.46
6747.00,0.46
6746.00,0.46
6745.00,0.46
6744.00,0.46
6743.00,0.46
6742.00,0.47
6741.00,0.47
6740.00,0.47
6739.00,0.47
6738.00,0.47
6737.00,0.47
6736.00,0.47
6735.00,0.47
6734.00,0.47
6733.00,0.47
6732.00,0.47
6731.00,0.47
6730.00,0.47
6729.00,0.47
6728.00,0.47
6727.00,0.47
6726.00,0.47
6725.00,0.47
6724.00,0.47
6723.00,0.47
6722.00,0.47
6721.00,0.47
6720.00,0.47
6719.00,0.47
6718.00,0.47
6717.00,0.47
6716.00,0.47
6715.00,0.47
6714.00,0.47
6713.00,0.47
6712.00,0.47
6711.00,0.47
6710.00,0.47
6709.00,0.47
6708.00,0.48
6707.00,0.48
6706.00,0.48
6705.00,0.48
6704.00,0.48
6703.00,0.48
6702.00,0.48
6701.00,0.48
6700.00,0.48
6699.00,0.48
6698.00,0.48
6697.00,0.48
6696.00,0.48
6695.00,0.48
6694.00,0.49
6693.00,0.49
6692.00,0.49
6691.00,0.49
6690.00,0.49
6689.00,0.49
6688.00,0.49
6687.00,0.49
6686.00,0.49
6685.00,0.49
6684.00,0.49
6683.00,0.49
6682.00,0.49
6681.00,0.49
6680.00,0.49
6679.00,0.49
6678.00,0.49
6677.00,0.49
6676.00,0.49
6675.00,0.49
6674.00,0.50
6673.00,0.50
6672.00,0.50
6671.00,0.50
6670.00,0.50
6669.00,0.50
6668.00,0.50
6667.00,0.50
6666.00,0.50
6665.00,0.51
6664.00,0.51
6663.00,0.51
6662.00,0.51
6661.00,0.51
6660.00,0.51
6659.00,0.51
6658.00,0.51
6657.00,0.51
6656.00,0.52
6655.00,0.52
6654.00,0.52
6653.00,0.52
6652.00,0.52
6651.00,0.52
6650.00,0.52
6649.00,0.52
6648.00,0.52
6647.00,0.52
6646.00,0.52
6645.00,0.52
6644.00,0.52
6643.00,0.52
6642.00,0.52
6641.00,0.52
6640.00,0.52
6639.00,0.52
6638.00,0.52
6637.00,0.52
6636.00,0.52
6635.00,0.52
6634.00,0.52
6633.00,0.52
6632.00,0.52
6631.00,0.52
6630.00,0.52
6629.00,0.53
6628.00,0.53
6627.00,0.53
6626.00,0.53
6625.00,0.53
6624.00,0.53
6623.00,0.53
6622.00,0.53
6621.00,0.53
6620.00,0.53
6619.00,0.53
6618.00,0.53
6617.00,0.53
6616.00,0.53
6615.00,0.53
6614.00,0.54
6613.00,0.54
6612.00,0.54
6611.00,0.54
6610.00,0.54
6609.00,0.54
6608.00,0.54
6607.00,0.54
6606.00,0.54
6605.00,0.54
6604.00,0.54
6603.00,0.54
6602.00,0.55
6601.00,0.55
6600.00,0.55
6599.00,0.55
6598.00,0.55
6597.00,0.55
6596.00,0.55
6595.00,0.55
6594.00,0.55
6593.00,0.55
6592.00,0.55
6591.00,0.55
6590.00,0.55
6589.00,0.55
6588.00,0.55
6587.00,0.55
6586.00,0.55
6585.00,0.55
6584.00,0.56
6583.00,0.56
6582.00,0.56
6581.00,0.56
6580.00,0.56
6579.00,0.56
6578.00,0.56
6577.00,0.56
6576.00,0.56
6575.00,0.56
6574.00,0.56
6573.00,0.56
6572.00,0.56
6571.00,0.56
6570.00,0.57
6569.00,0.57
6568.00,0.57
6567.00,0.57
6566.00,0.57
6565.00,0.57
6564.00,0.57
6563.00,0.57
6562.00,0.57
6561.00,0.57
6560.00,0.57
6559.00,0.57
6558.00,0.57
6557.00,0.57
6556.00,0.57
6555.00,0.57
6554.00,0.57
6553.00,0.57
6552.00,0.58
6551.00,0.58
6550.00,0.58
6549.00,0.58
6548.00,0.58
6547.00,0.58
6546.00,0.58
6545.00,0.58
6544.00,0.58
6543.00,0.58
6542.00,0.58
6541.00,0.58
6540.00,0.58
6539.00,0.58
6538.00,0.58
6537.00,0.58
6536.00,0.58
6535.00,0.58
6534.00,0.58
6533.00,0.58
6532.00,0.59
6531.00,0.59
6530.00,0.59
6529.00,0.59
6528.00,0.59
6527.00,0.59
6526.00,0.59
6525.00,0.59
6524.00,0.59
6523.00,0.59
6522.00,0.59
6521.00,0.59
6520.00,0.59
6519.00,0.59
6518.00,0.60
6517.00,0.60
6516.00,0.60
6515.00,0.60
6514.00,0.60
6513.00,0.60
6512.00,0.60
6511.00,0.60
6510.00,0.60
6509.00,0.60
6508.00,0.60
6507.00,0.60
6506.00,0.60
6505.00,0.60
6504.00,0.60
6503.00,0.60
6502.00,0.61
6501.00,0.61
6500.00,0.61
6499.00,0.61
6498.00,0.61
6497.00,0.61
6496.00,0.61
6495.00,0.61
6494.00,0.61
6493.00,0.61
6492.00,0.61
6491.00,0.61
6490.00,0.61
6489.00,0.61
6488.00,0.61
6487.00,0.62
6486.00,0.62
6485.00,0.62
6484.00,0.62
6483.00,0.62
6482.00,0.62
6481.00,0.62
6480.00,0.62
6479.00,0.62
6478.00,0.62
6477.00,0.63
6476.00,0.63
6475.00,0.63
6474.00,0.63
6473.00,0.63
6472.00,0.63
6471.00,0.63
6470.00,0.63
6469.00,0.63
6468.00,0.63
6467.00,0.63
6466.00,0.63
6465.00,0.63
6464.00,0.63
6463.00,0.63
6462.00,0.63
6461.00,0.63
6460.00,0.63
6459.00,0.63
6458.00,0.63
6457.00,0.63
6456.00,0.63
6455.00,0.63
6454.00,0.63
6453.00,0.63
6452.00,0.63
6451.00,0.63
6450.00,0.63
6449.00,0.63
6448.00,0.63
6447.00,0.63
6446.00,0.63
6445.00,0.63
6444.00,0.63
6443.00,0.64
6442.00,0.64
6441.00,0.64
6440.00,0.64
6439.00,0.64
6438.00,0.64
6437.00,0.64
6436.00,0.64
6435.00,0.64
6434.00,0.64
6433.00,0.64
6432.00,0.64
6431.00,0.64
6430.00,0.64
6429.00,0.64
6428.00,0.64
6427.00,0.64
6426.00,0.64
6425.00,0.64
6424.00,0.64
6423.00,0.64
6422.00,0.64
6421.00,0.64
6420.00,0.64
6419.00,0.64
6418.00,0.64
6417.00,0.64
6416.00,0.64
6415.00,0.64
6414.00,0.64
6413.00,0.64
6412.00,0.64
6411.00,0.64
6410.00,0.64
6409.00,0.64
6408.00,0.65
6407.00,0.65
6406.00,0.65
6405.00,0.65
6404.00,0.65
6403.00,0.65
6402.00,0.65
6401.00,0.65
6400.00,0.65
6399.00,0.65
6398.00,0.65
6397.00,0.65
6396.00,0.65
6395.00,0.65
6394.00,0.65
6393.00,0.65
6392.00,0.65
6391.00,0.65
6390.00,0.65
6389.00,0.65
6388.00,0.65
6387.00,0.65
6386.00,0.66
6385.00,0.66
6384.00,0.66
6383.00,0.66
6382.00,0.66
6381.00,0.66
6380.00,0.66
6379.00,0.66
6378.00,0.66
6377.00,0.66
6376.00,0.66
6375.00,0.66
6374.00,0.66
6373.00,0.66
6372.00,0.66
6371.00,0.66
6370.00,0.66
6369.00,0.67
6368.00,0.67
6367.00,0.67
6366.00,0.67
6365.00,0.67
6364.00,0.67
6363.00,0.67
6362.00,0.67
6361.00,0.67
6360.00,0.67
6359.00,0.67
6358.00,0.67
6357.00,0.67
6356.00,0.67
6355.00,0.67
6354.00,0.67
6353.00,0.67
6352.00,0.68
6351.00,0.68
6350.00,0.68
6349.00,0.68
6348.00,0.68
6347.00,0.68
6346.00,0.68
6345.00,0.68
6344.00,0.68
6343.00,0.68
6342.00,0.68
6341.00,0.68
6340.00,0.68
6339.00,0.68
6338.00,0.68
6337.00,0.68
6336.00,0.68
6335.00,0.68
6334.00,0.68
6333.00,0.69
6332.00,0.69
6331.00,0.69
6330.00,0.69
6329.00,0.69
6328.00,0.69
6327.00,0.69
6326.00,0.69
6325.00,0.69
6324.00,0.69
6323.00,0.69
6322.00,0.69
6321.00,0.69
6320.00,0.70
6319.00,0.70
6318.00,0.70
6317.00,0.70
6316.00,0.70
6315.00,0.70
6314.00,0.70
6313.00,0.70
6312.00,0.70
6311.00,0.70
6310.00,0.71
6309.00,0.71
6308.00,0.71
6307.00,0.71
6306.00,0.71
6305.00,0.71
6304.00,0.71
6303.00,0.71
6302.00,0.71
6301.00,0.71
6300.00,0.71
6299.00,0.71
6298.00,0.71
6297.00,0.71
6296.00,0.72
6295.00,0.72
6294.00,0.72
6293.00,0.72
6292.00,0.72
6291.00,0.72
6290.00,0.72
6289.00,0.72
6288.00,0.72
6287.00,0.72
6286.00,0.72
6285.00,0.73
6284.00,0.73
6283.00,0.73
6282.00,0.73
6281.00,0.73
6280.00,0.73
6279.00,0.73
6278.00,0.73
6277.00,0.73
6276.00,0.73
6275.00,0.74
6274.00,0.74
6273.00,0.74
6272.00,0.74
6271.00,0.74
6270.00,0.74
6269.00,0.74
6268.00,0.74
6267.00,0.74
6266.00,0.74
6265.00,0.74
6264.00,0.75
6263.00,0.75
6262.00,0.75
6261.00,0.75
6260.00,0.75
6259.00,0.75
6258.00,0.75
6257.00,0.75
6256.00,0.75
6255.00,0.76
6254.00,0.76
6253.00,0.76
6252.00,0.76
6251.00,0.76
6250.00,0.76
6249.00,0.76
6248.00,0.76
6247.00,0.76
6246.00,0.76
6245.00,0.76
6244.00,0.76
6243.00,0.77
6242.00,0.77
6241.00,0.77
6240.00,0.77
6239.00,0.77
6238.00,0.77
6237.00,0.77
6236.00,0.77
6235.00,0.77
6234.00,0.77
6233.00,0.77
6232.00,0.77
6231.00,0.78
6230.00,0.78
6229.00,0.78
6228.00,0.78
6227.00,0.78
6226.00,0.78
6225.00,0.78
6224.00,0.78
6223.00,0.78
6222.00,0.78
6221.00,0.78
6220.00,0.79
6219.00,0.79
6218.00,0.79
6217.00,0.79
6216.00,0.79
6215.00,0.79
6214.00,0.79
6213.00,0.79
6212.00,0.79
6211.00,0.79
6210.00,0.79
6209.00,0.80
6208.00,0.80
6207.00,0.80
6206.00,0.80
6205.00,0.80
6204.00,0.80
6203.00,0.80
6202.00,0.80
6201.00,0.81
6200.00,0.81
6199.00,0.81
6198.00,0.81
6197.00,0.81
6196.00,0.81
6195.00,0.81
6194.00,0.81
6193.00,0.81
6192.00,0.81
6191.00,0.81
6190.00,0.81
6189.00,0.82
6188.00,0.82
6187.00,0.82
6186.00,0.82
6185.00,0.82
6184.00,0.82
6183.00,0.82
6182.00,0.82
6181.00,0.82
6180.00,0.82
6179.00,0.82
6178.00,0.83
6177.00,0.83
6176.00,0.83
6175.00,0.83
6174.00,0.83
6173.00,0.83
6172.00,0.83
6171.00,0.83
6170.00,0.83
6169.00,0.83
6168.00,0.84
6167.00,0.84
6166.00,0.84
6165.00,0.84
6164.00,0.84
6163.00,0.84
6162.00,0.84
6161.00,0.84
6160.00,0.84
6159.00,0.84
6158.00,0.85
6157.00,0.85
6156.00,0.85
6155.00,0.85
6154.00,0.85
6153.00,0.85
6152.00,0.85
6151.00,0.85
6150.00,0.85
6149.00,0.86
6148.00,0.86
6147.00,0.86
6146.00,0.86
6145.00,0.86
6144.00,0.86
6143.00,0.86
6142.00,0.86
6141.00,0.87
6140.00,0.87
6139.00,0.87
6138.00,0.87
6137.00,0.87
6136.00,0.87
6135.00,0.87
6134.00,0.88
6133.00,0.88
6132.00,0.88
6131.00,0.88
6130.00,0.88
6129.00,0.88
6128.00,0.88
6127.00,0.88
6126.00,0.89
6125.00,0.89
6124.00,0.89
6123.00,0.89
6122.00,0.89
6121.00,0.89
6120.00,0.89
6119.00,0.89
6118.00,0.89
6117.00,0.89
6116.00,0.89
6115.00,0.89
6114.00,0.90
6113.00,0.90
6112.00,0.90
6111.00,0.90
6110.00,0.90
6109.00,0.90
6108.00,0.90
6107.00,0.90
6106.00,0.90
6105.00,0.91
6104.00,0.91
6103.00,0.91
6102.00,0.91
6101.00,0.91
6100.00,0.91
6099.00,0.91
6098.00,0.91
6097.00,0.92
6096.00,0.92
6095.00,0.92
6094.00,0.92
6093.00,0.92
6092.00,0.92
6091.00,0.92
6090.00,0.92
6089.00,0.93
6088.00,0.93
6087.00,0.93
6086.00,0.93
6085.00,0.93
6084.00,0.93
6083.00,0.93
6082.00,0.93
6081.00,0.94
6080.00,0.94
6079.00,0.94
6078.00,0.94
6077.00,0.94
6076.00,0.94
6075.00,0.94
6074.00,0.94
6073.00,0.94
6072.00,0.94
6071.00,0.94
6070.00,0.94
6069.00,0.94
6068.00,0.94
6067.00,0.94
6066.00,0.94
6065.00,0.95
6064.00,0.95
6063.00,0.95
6062.00,0.95
6061.00,0.95
6060.00,0.95
6059.00,0.95
6058.00,0.95
6057.00,0.95
6056.00,0.95
6055.00,0.95
6054.00,0.95
6053.00,0.95
6052.00,0.95
6051.00,0.95
6050.00,0.96
6049.00,0.96
6048.00,0.96
6047.00,0.96
6046.00,0.96
6045.00,0.96
6044.00,0.96
6043.00,0.96
6042.00,0.96
6041.00,0.96
6040.00,0.96
6039.00,0.96
6038.00,0.96
6037.00,0.96
6036.00,0.96
6035.00,0.96
6034.00,0.96
6033.00,0.96
6032.00,0.96
6031.00,0.96
6030.00,0.96
6029.00,0.97
6028.00,0.97
6027.00,0.97
6026.00,0.97
6025.00,0.97
6024.00,0.97
6023.00,0.97
6022.00,0.97
6021.00,0.97
6020.00,0.97
6019.00,0.97
6018.00,0.97
6017.00,0.97
6016.00,0.97
6015.00,0.97
6014.00,0.97
6013.00,0.97
6012.00,0.97
6011.00,0.97
6010.00,0.97
6009.00,0.97
6008.00,0.97
6007.00,0.97
6006.00,0.97
6005.00,0.97
6004.00,0.97
6003.00,0.97
6002.00,0.97
6001.00,0.97
6000.00,0.97
5999.00,0.97
5998.00,0.97
5997.00,0.97
5996.00,0.97
5995.00,0.97
5994.00,0.97
5993.00,0.97
5992.00,0.96
5991.00,0.96
5990.00,0.96
5989.00,0.96
5988.00,0.96
5987.00,0.96
5986.00,0.96
5985.00,0.95
5984.00,0.95
5983.00,0.95
5982.00,0.95
5981.00,0.95
5980.00,0.94
5979.00,0.94
5978.00,0.94
5977.00,0.94
5976.00,0.93
5975.00,0.93
5974.00,0.93
5973.00,0.92
5972.00,0.92
5971.00,0.91
5970.00,0.91
5969.00,0.90
5968.00,0.90
5967.00,0.89
5966.00,0.89
5965.00,0.88
5964.00,0.88
5963.00,0.87
5962.00,0.87
5961.00,0.86
5960.00,0.85
5959.00,0.85
5958.00,0.84
5957.00,0.84
5956.00,0.83
5955.00,0.83
5954.00,0.82
5953.00,0.82
5952.00,0.81
5951.00,0.81
5950.00,0.80
5949.00,0.80
5948.00,0.80
5947.00,0.79
5946.00,0.79
5945.00,0.79
5944.00,0.78
5943.00,0.78
5942.00,0.78
5941.00,0.78
5940.00,0.78
5939.00,0.77
5938.00,0.77
5937.00,0.77
5936.00,0.77
5935.00,0.77
5934.00,0.77
5933.00,0.77
5932.00,0.77
5931.00,0.77
5930.00,0.77
5929.00,0.76
5928.00,0.76
5927.00,0.76
5926.00,0.76
5925.00,0.76
5924.00,0.76
5923.00,0.76
5922.00,0.76
5921.00,0.76
5920.00,0.75
5919.00,0.75
5918.00,0.75
5917.00,0.75
5916.00,0.75
5915.00,0.75
5914.00,0.74
5913.00,0.74
5912.00,0.74
5911.00,0.74
5910.00,0.74
5909.00,0.74
5908.00,0.73
5907.00,0.73
5906.00,0.73
5905.00,0.73
5904.00,0.73
5903.00,0.73
5902.00,0.73
5901.00,0.73
5900.00,0.73
5899.00,0.73
5898.00,0.73
5897.00,0.73
5896.00,0.73
5895.00,0.73
5894.00,0.73
5893.00,0.73
5892.00,0.74
5891.00,0.74
5890.00,0.74
5889.00,0.74
5888.00,0.75
5887.00,0.75
5886.00,0.75
5885.00,0.75
5884.00,0.76
5883.00,0.76
5882.00,0.76
5881.00,0.77
5880.00,0.77
5879.00,0.77
5878.00,0.77
5877.00,0.77
5876.00,0.78
5875.00,0.78
5874.00,0.78
5873.00,0.78
5872.00,0.78
5871.00,0.78
5870.00,0.78
5869.00,0.79
5868.00,0.79
5867.00,0.79
5866.00,0.79
5865.00,0.79
5864.00,0.79
5863.00,0.79
5862.00,0.79
5861.00,0.79
5860.00,0.79
5859.00,0.80
5858.00,0.80
5857.00,0.80
5856.00,0.80
5855.00,0.80
5854.00,0.80
5853.00,0.80
5852.00,0.80
5851.00,0.80
5850.00,0.81
5849.00,0.81
5848.00,0.81
5847.00,0.81
5846.00,0.81
5845.00,0.81
5844.00,0.81
5843.00,0.81
5842.00,0.81
5841.00,0.81
5840.00,0.81
5839.00,0.81
5838.00,0.81
5837.00,0.80
5836.00,0.80
5835.00,0.80
5834.00,0.80
5833.00,0.80
5832.00,0.80
5831.00,0.80
5830.00,0.80
5829.00,0.80
5828.00,0.80
5827.00,0.80
5826.00,0.81
5825.00,0.81
5824.00,0.81
5823.00,0.81
5822.00,0.81
5821.00,0.81
5820.00,0.81
5819.00,0.81
5818.00,0.81
5817.00,0.81
5816.00,0.81
5815.00,0.81
5814.00,0.81
5813.00,0.81
5812.00,0.81
5811.00,0.81
5810.00,0.81
5809.00,0.81
5808.00,0.81
5807.00,0.81
5806.00,0.81
5805.00,0.81
5804.00,0.81
5803.00,0.81
5802.00,0.81
5801.00,0.81
5800.00,0.81
5799.00,0.81
5798.00,0.80
5797.00,0.80
5796.00,0.80
5795.00,0.80
5794.00,0.80
5793.00,0.80
5792.00,0.80
5791.00,0.80
5790.00,0.79
5789.00,0.79
5788.00,0.79
5787.00,0.79
5786.00,0.79
5785.00,0.79
5784.00,0.78
5783.00,0.78
5782.00,0.78
5781.00,0.78
5780.00,0.78
5779.00,0.78
5778.00,0.78
5777.00,0.78
5776.00,0.78
5775.00,0.78
5774.00,0.77
5773.00,0.77
5772.00,0.77
5771.00,0.78
5770.00,0.78
5769.00,0.78
5768.00,0.78
5767.00,0.78
5766.00,0.78
5765.00,0.78
5764.00,0.78
5763.00,0.78
5762.00,0.78
5761.00,0.78
5760.00,0.79
5759.00,0.79
5758.00,0.79
5757.00,0.79
5756.00,0.79
5755.00,0.80
5754.00,0.80
5753.00,0.80
5752.00,0.80
5751.00,0.80
5750.00,0.81
5749.00,0.81
5748.00,0.81
5747.00,0.81
5746.00,0.82
5745.00,0.82
5744.00,0.82
5743.00,0.82
5742.00,0.82
5741.00,0.83
5740.00,0.83
5739.00,0.83
5738.00,0.83
5737.00,0.83
5736.00,0.84
5735.00,0.84
5734.00,0.84
5733.00,0.84
5732.00,0.84
5731.00,0.84
5730.00,0.84
5729.00,0.85
5728.00,0.85
5727.00,0.85
5726.00,0.85
5725.00,0.85
5724.00,0.85
5723.00,0.85
5722.00,0.85
5721.00,0.85
5720.00,0.85
5719.00,0.85
5718.00,0.85
5717.00,0.85
5716.00,0.85
5715.00,0.85
5714.00,0.85
5713.00,0.85
5712.00,0.85
5711.00,0.85
5710.00,0.85
5709.00,0.85
5708.00,0.85
5707.00,0.85
5706.00,0.85
5705.00,0.85
5704.00,0.85
5703.00,0.85
5702.00,0.85
5701.00,0.84
5700.00,0.84
5699.00,0.84
5698.00,0.84
5697.00,0.84
5696.00,0.84
5695.00,0.84
5694.00,0.84
5693.00,0.84
5692.00,0.84
5691.00,0.83
5690.00,0.83
5689.00,0.83
5688.00,0.83
5687.00,0.83
5686.00,0.83
5685.00,0.83
5684.00,0.83
5683.00,0.83
5682.00,0.83
5681.00,0.83
5680.00,0.83
5679.00,0.83
5678.00,0.83
5677.00,0.83
5676.00,0.83
5675.00,0.83
5674.00,0.83
5673.00,0.83
5672.00,0.83
5671.00,0.83
5670.00,0.83
5669.00,0.83
5668.00,0.83
5667.00,0.83
5666.00,0.83
5665.00,0.83
5664.00,0.83
5663.00,0.83
5662.00,0.83
5661.00,0.84
5660.00,0.84
5659.00,0.84
5658.00,0.84
5657.00,0.84
5656.00,0.84
5655.00,0.84
5654.00,0.84
5653.00,0.84
5652.00,0.84
5651.00,0.85
5650.00,0.85
5649.00,0.85
5648.00,0.85
5647.00,0.85
5646.00,0.85
5645.00,0.85
5644.00,0.85
5643.00,0.86
5642.00,0.86
5641.00,0.86
5640.00,0.86
5639.00,0.86
5638.00,0.86
5637.00,0.86
5636.00,0.87
5635.00,0.87
5634.00,0.87
5633.00,0.87
5632.00,0.87
5631.00,0.87
5630.00,0.88
5629.00,0.88
5628.00,0.88
5627.00,0.88
5626.00,0.88
5625.00,0.88
5624.00,0.88
5623.00,0.88
5622.00,0.89
5621.00,0.89
5620.00,0.89
5619.00,0.89
5618.00,0.89
5617.00,0.89
5616.00,0.89
5615.00,0.89
5614.00,0.89
5613.00,0.89
5612.00,0.90
5611.00,0.90
5610.00,0.90
5609.00,0.90
5608.00,0.90
5607.00,0.90
5606.00,0.90
5605.00,0.90
5604.00,0.91
5603.00,0.91
5602.00,0.91
5601.00,0.91
5600.00,0.91
5599.00,0.91
5598.00,0.91
5597.00,0.92
5596.00,0.92
5595.00,0.92
5594.00,0.92
5593.00,0.92
5592.00,0.92
5591.00,0.92
5590.00,0.92
5589.00,0.92
5588.00,0.93
5587.00,0.93
5586.00,0.93
5585.00,0.93
5584.00,0.93
5583.00,0.93
5582.00,0.93
5581.00,0.93
5580.00,0.93
5579.00,0.94
5578.00,0.94
5577.00,0.94
5576.00,0.94
5575.00,0.94
5574.00,0.94
5573.00,0.94
5572.00,0.94
5571.00,0.94
5570.00,0.95
5569.00,0.95
5568.00,0.95
5567.00,0.95
5566.00,0.95
5565.00,0.95
5564.00,0.95
5563.00,0.95
5562.00,0.95
5561.00,0.95
5560.00,0.95
5559.00,0.96
5558.00,0.96
5557.00,0.96
5556.00,0.96
5555.00,0.96
5554.00,0.96
5553.00,0.96
5552.00,0.96
5551.00,0.96
5550.00,0.97
5549.00,0.97
5548.00,0.97
5547.00,0.97
5546.00,0.97
5545.00,0.97
5544.00,0.97
5543.00,0.97
5542.00,0.97
5541.00,0.97
5540.00,0.97
5539.00,0.98
5538.00,0.98
5537.00,0.98
5536.00,0.98
5535.00,0.98
5534.00,0.98
5533.00,0.98
5532.00,0.98
5531.00,0.98
5530.00,0.98
5529.00,0.98
5528.00,0.98
5527.00,0.98
5526.00,0.98
5525.00,0.98
5524.00,0.98
5523.00,0.99
5522.00,0.99
5521.00,0.99
5520.00,0.99
5519.00,0.99
5518.00,0.99
5517.00,0.99
5516.00,0.99
5515.00,0.99
5514.00,0.99
5513.00,0.99
5512.00,0.99
5511.00,0.99
5510.00,0.99
5509.00,0.99
5508.00,0.99
5507.00,0.99
5506.00,0.99
5505.00,0.99
5504.00,0.99
5503.00,0.99
5502.00,0.99
5501.00,0.99
5500.00,0.99
5499.00,0.99
5498.00,1.00
5497.00,1.00
5496.00,1.00
5495.00,1.00
5494.00,1.00
5493.00,1.00
5492.00,1.00
5491.00,1.00
5490.00,1.00
5489.00,1.00
5488.00,1.01
5487.00,1.01
5486.00,1.01
5485.00,1.01
5484.00,1.01
5483.00,1.01
5482.00,1.01
5481.00,1.02
5480.00,1.02
5479.00,1.02
5478.00,1.02
5477.00,1.02
5476.00,1.02
5475.00,1.02
5474.00,1.02
5473.00,1.02
5472.00,1.02
5471.00,1.02
5470.00,1.03
5469.00,1.03
5468.00,1.03
5467.00,1.03
5466.00,1.03
5465.00,1.03
5464.00,1.03
5463.00,1.03
5462.00,1.03
5461.00,1.03
5460.00,1.03
5459.00,1.03
5458.00,1.03
5457.00,1.03
5456.00,1.03
5455.00,1.03
5454.00,1.04
5453.00,1.04
5452.00,1.04
5451.00,1.04
5450.00,1.04
5449.00,1.04
5448.00,1.04
5447.00,1.04
5446.00,1.04
5445.00,1.04
5444.00,1.04
5443.00,1.04
5442.00,1.04
5441.00,1.04
5440.00,1.04
5439.00,1.04
5438.00,1.04
5437.00,1.04
5436.00,1.04
5435.00,1.04
5434.00,1.04
5433.00,1.04
5432.00,1.04
5431.00,1.04
5430.00,1.04
5429.00,1.04
5428.00,1.04
5427.00,1.04
5426.00,1.04
5425.00,1.04
5424.00,1.04
5423.00,1.04
5422.00,1.04
5421.00,1.04
5420.00,1.04
5419.00,1.04
5418.00,1.04
5417.00,1.04
5416.00,1.04
5415.00,1.04
5414.00,1.04
5413.00,1.04
5412.00,1.04
5411.00,1.04
5410.00,1.04
5409.00,1.04
5408.00,1.04
5407.00,1.04
5406.00,1.04
5405.00,1.04
5404.00,1.04
5403.00,1.04
5402.00,1.03
5401.00,1.03
5400.00,1.03
5399.00,1.03
5398.00,1.03
5397.00,1.03
5396.00,1.03
5395.00,1.03
5394.00,1.03
5393.00,1.03
5392.00,1.03
5391.00,1.02
5390.00,1.02
5389.00,1.02
5388.00,1.02
5387.00,1.02
5386.00,1.02
5385.00,1.01
5384.00,1.01
5383.00,1.01
5382.00,1.01
5381.00,1.00
5380.00,1.00
5379.00,1.00
5378.00,1.00
5377.00,0.99
5376.00,0.99
5375.00,0.99
5374.00,0.98
5373.00,0.98
5372.00,0.98
5371.00,0.97
5370.00,0.97
5369.00,0.97
5368.00,0.96
5367.00,0.96
5366.00,0.95
5365.00,0.95
5364.00,0.94
5363.00,0.94
5362.00,0.94
5361.00,0.93
5360.00,0.93
5359.00,0.92
5358.00,0.92
5357.00,0.91
5356.00,0.90
5355.00,0.90
5354.00,0.89
5353.00,0.89
5352.00,0.88
5351.00,0.87
5350.00,0.87
5349.00,0.86
5348.00,0.85
5347.00,0.85
5346.00,0.84
5345.00,0.83
5344.00,0.83
5343.00,0.82
5342.00,0.81
5341.00,0.81
5340.00,0.80
5339.00,0.79
5338.00,0.78
5337.00,0.78
5336.00,0.77
5335.00,0.76
5334.00,0.76
5333.00,0.75
5332.00,0.74
5331.00,0.73
5330.00,0.73
5329.00,0.72
5328.00,0.71
5327.00,0.71
5326.00,0.70
5325.00,0.69
5324.00,0.68
5323.00,0.68
5322.00,0.67
5321.00,0.67
5320.00,0.66
5319.00,0.65
5318.00,0.65
5317.00,0.64
5316.00,0.64
5315.00,0.63
5314.00,0.63
5313.00,0.62
5312.00,0.62
5311.00,0.61
5310.00,0.61
5309.00,0.60
5308.00,0.60
5307.00,0.59
5306.00,0.59
5305.00,0.59
5304.00,0.58
5303.00,0.58
5302.00,0.58
5301.00,0.57
5300.00,0.57
5299.00,0.57
5298.00,0.56
5297.00,0.56
5296.00,0.56
5295.00,0.56
5294.00,0.55
5293.00,0.55
5292.00,0.55
5291.00,0.55
5290.00,0.55
5289.00,0.55
5288.00,0.54
5287.00,0.54
5286.00,0.54
5285.00,0.54
5284.00,0.54
5283.00,0.54
5282.00,0.54
5281.00,0.54
5280.00,0.54
5279.00,0.54
5278.00,0.54
5277.00,0.54
5276.00,0.54
5275.00,0.54
5274.00,0.54
5273.00,0.54
5272.00,0.54
5271.00,0.54
5270.00,0.54
5269.00,0.54
5268.00,0.54
5267.00,0.54
5266.00,0.54
5265.00,0.54
5264.00,0.54
5263.00,0.54
5262.00,0.54
5261.00,0.54
5260.00,0.54
5259.00,0.54
5258.00,0.54
5257.00,0.54
5256.00,0.54
5255.00,0.54
5254.00,0.54
5253.00,0.54
5252.00,0.54
5251.00,0.54
5250.00,0.54
5249.00,0.54
5248.00,0.54
5247.00,0.54
5246.00,0.54
5245.00,0.54
5244.00,0.54
5243.00,0.54
5242.00,0.54
5241.00,0.54
5240.00,0.54
5239.00,0.54
5238.00,0.54
5237.00,0.54
5236.00,0.54
5235.00,0.54
5234.00,0.54
5233.00,0.54
5232.00,0.54
5231.00,0.54
5230.00,0.54
5229.00,0.54
5228.00,0.54
5227.00,0.54
5226.00,0.54
5225.00,0.54
5224.00,0.54
5223.00,0.54
5222.00,0.54
5221.00,0.54
5220.00,0.54
5219.00,0.54
5218.00,0.54
5217.00,0.54
5216.00,0.54
5215.00,0.54
5214.00,0.55
5213.00,0.55
5212.00,0.55
5211.00,0.55
5210.00,0.55
5209.00,0.55
5208.00,0.55
5207.00,0.55
5206.00,0.55
5205.00,0.55
5204.00,0.55
5203.00,0.55
5202.00,0.55
5201.00,0.55
5200.00,0.55
5199.00,0.55
5198.00,0.55
5197.00,0.55
5196.00,0.55
5195.00,0.55
5194.00,0.55
5193.00,0.55
5192.00,0.55
5191.00,0.55
5190.00,0.55
5189.00,0.55
5188.00,0.55
5187.00,0.55
5186.00,0.55
5185.00,0.55
5184.00,0.55
5183.00,0.55
5182.00,0.56
5181.00,0.56
5180.00,0.56
5179.00,0.56
5178.00,0.56
5177.00,0.56
5176.00,0.56
5175.00,0.56
5174.00,0.56
5173.00,0.56
5172.00,0.56
5171.00,0.56
5170.00,0.56
5169.00,0.56
5168.00,0.56
5167.00,0.56
5166.00,0.56
5165.00,0.56
5164.00,0.56
5163.00,0.56
5162.00,0.56
5161.00,0.56
5160.00,0.56
5159.00,0.56
5158.00,0.56
5157.00,0.56
5156.00,0.56
5155.00,0.56
5154.00,0.56
5153.00,0.56
5152.00,0.56
5151.00,0.56
5150.00,0.56
5149.00,0.56
5148.00,0.56
5147.00,0.56
5146.00,0.56
5145.00,0.56
5144.00,0.57
5143.00,0.57
5142.00,0.57
5141.00,0.57
5140.00,0.57
5139.00,0.57
5138.00,0.57
5137.00,0.57
5136.00,0.57
5135.00,0.57
5134.00,0.57
5133.00,0.57
5132.00,0.57
5131.00,0.57
5130.00,0.57
5129.00,0.57
5128.00,0.57
5127.00,0.57
5126.00,0.57
5125.00,0.57
5124.00,0.57
5123.00,0.57
5122.00,0.57
5121.00,0.57
5120.00,0.57
5119.00,0.57
5118.00,0.57
5117.00,0.58
5116.00,0.58
5115.00,0.58
5114.00,0.58
5113.00,0.58
5112.00,0.58
5111.00,0.58
5110.00,0.58
5109.00,0.58
5108.00,0.58
5107.00,0.58
5106.00,0.58
5105.00,0.58
5104.00,0.58
5103.00,0.58
5102.00,0.58
5101.00,0.58
5100.00,0.58
5099.00,0.58
5098.00,0.58
5097.00,0.58
5096.00,0.58
5095.00,0.58
5094.00,0.58
5093.00,0.58
5092.00,0.58
5091.00,0.58
5090.00,0.58
5089.00,0.58
5088.00,0.59
5087.00,0.59
5086.00,0.59
5085.00,0.59
5084.00,0.59
5083.00,0.59
5082.00,0.59
5081.00,0.59
5080.00,0.59
5079.00,0.59
5078.00,0.59
5077.00,0.59
5076.00,0.59
5075.00,0.59
5074.00,0.59
5073.00,0.59
5072.00,0.59
5071.00,0.59
5070.00,0.59
5069.00,0.59
5068.00,0.59
5067.00,0.59
5066.00,0.59
5065.00,0.59
5064.00,0.59
5063.00,0.59
5062.00,0.59
5061.00,0.59
5060.00,0.59
5059.00,0.59
5058.00,0.59
5057.00,0.59
5056.00,0.59
5055.00,0.60
5054.00,0.60
5053.00,0.60
5052.00,0.60
5051.00,0.60
5050.00,0.60
5049.00,0.60
5048.00,0.60
5047.00,0.60
5046.00,0.60
5045.00,0.60
5044.00,0.60
5043.00,0.60
5042.00,0.60
5041.00,0.60
5040.00,0.61
5039.00,0.61
5038.00,0.61
5037.00,0.61
5036.00,0.61
5035.00,0.61
5034.00,0.61
5033.00,0.61
5032.00,0.61
5031.00,0.61
5030.00,0.61
5029.00,0.61
5028.00,0.61
5027.00,0.61
5026.00,0.61
5025.00,0.61
5024.00,0.61
5023.00,0.61
5022.00,0.61
5021.00,0.61
5020.00,0.61
5019.00,0.61
5018.00,0.61
5017.00,0.61
5016.00,0.61
5015.00,0.61
5014.00,0.61
5013.00,0.61
5012.00,0.62
5011.00,0.62
5010.00,0.62
5009.00,0.62
5008.00,0.62
5007.00,0.62
5006.00,0.62
5005.00,0.62
5004.00,0.62
5003.00,0.62
5002.00,0.62
5001.00,0.62
5000.00,0.62
4999.00,0.62
4998.00,0.62
4997.00,0.62
4996.00,0.62
4995.00,0.62
4994.00,0.62
4993.00,0.62
4992.00,0.62
4991.00,0.62
4990.00,0.62
4989.00,0.62
4988.00,0.62
4987.00,0.62
4986.00,0.62
4985.00,0.62
4984.00,0.63
4983.00,0.63
4982.00,0.63
4981.00,0.63
4980.00,0.63
4979.00,0.63
4978.00,0.63
4977.00,0.63
4976.00,0.63
4975.00,0.63
4974.00,0.63
4973.00,0.63
4972.00,0.64
4971.00,0.64
4970.00,0.64
4969.00,0.64
4968.00,0.64
4967.00,0.64
4966.00,0.64
4965.00,0.64
4964.00,0.64
4963.00,0.64
4962.00,0.64
4961.00,0.64
4960.00,0.64
4959.00,0.65
4958.00,0.65
4957.00,0.65
4956.00,0.65
4955.00,0.65
4954.00,0.65
4953.00,0.65
4952.00,0.65
4951.00,0.65
4950.00,0.65
4949.00,0.65
4948.00,0.66
4947.00,0.66
4946.00,0.66
4945.00,0.66
4944.00,0.66
4943.00,0.66
4942.00,0.66
4941.00,0.66
4940.00,0.66
4939.00,0.66
4938.00,0.66
4937.00,0.66
4936.00,0.66
4935.00,0.66
4934.00,0.66
4933.00,0.66
4932.00,0.66
4931.00,0.66
4930.00,0.66
4929.00,0.66
4928.00,0.67
4927.00,0.67
4926.00,0.67
4925.00,0.67
4924.00,0.67
4923.00,0.67
4922.00,0.67
4921.00,0.67
4920.00,0.67
4919.00,0.66
4918.00,0.66
4917.00,0.66
4916.00,0.66
4915.00,0.66
4914.00,0.66
4913.00,0.66
4912.00,0.66
4911.00,0.66
4910.00,0.66
4909.00,0.66
4908.00,0.66
4907.00,0.66
4906.00,0.66
4905.00,0.67
4904.00,0.67
4903.00,0.67
4902.00,0.67
4901.00,0.67
4900.00,0.67
4899.00,0.67
4898.00,0.67
4897.00,0.67
4896.00,0.67
4895.00,0.67
4894.00,0.67
4893.00,0.67
4892.00,0.67
4891.00,0.67
4890.00,0.67
4889.00,0.67
4888.00,0.67
4887.00,0.67
4886.00,0.67
4885.00,0.67
4884.00,0.67
4883.00,0.67
4882.00,0.68
4881.00,0.68
4880.00,0.68
4879.00,0.68
4878.00,0.68
4877.00,0.68
4876.00,0.68
4875.00,0.68
4874.00,0.68
4873.00,0.68
4872.00,0.68
4871.00,0.68
4870.00,0.68
4869.00,0.68
4868.00,0.68
4867.00,0.68
4866.00,0.68
4865.00,0.68
4864.00,0.68
4863.00,0.68
4862.00,0.69
4861.00,0.69
4860.00,0.69
4859.00,0.69
4858.00,0.69
4857.00,0.69
4856.00,0.69
4855.00,0.69
4854.00,0.69
4853.00,0.69
4852.00,0.69
4851.00,0.69
4850.00,0.69
4849.00,0.69
4848.00,0.69
4847.00,0.69
4846.00,0.69
4845.00,0.69
4844.00,0.69
4843.00,0.69
4842.00,0.69
4841.00,0.69
4840.00,0.69
4839.00,0.69
4838.00,0.70
4837.00,0.70
4836.00,0.70
4835.00,0.70
4834.00,0.70
4833.00,0.70
4832.00,0.70
4831.00,0.70
4830.00,0.70
4829.00,0.70
4828.00,0.70
4827.00,0.70
4826.00,0.70
4825.00,0.70
4824.00,0.70
4823.00,0.70
4822.00,0.71
4821.00,0.71
4820.00,0.71
4819.00,0.71
4818.00,0.71
4817.00,0.71
4816.00,0.71
4815.00,0.71
4814.00,0.71
4813.00,0.71
4812.00,0.71
4811.00,0.71
4810.00,0.72
4809.00,0.72
4808.00,0.72
4807.00,0.72
4806.00,0.72
4805.00,0.72
4804.00,0.72
4803.00,0.72
4802.00,0.72
4801.00,0.72
4800.00,0.72
4799.00,0.72
4798.00,0.72
4797.00,0.72
4796.00,0.72
4795.00,0.72
4794.00,0.72
4793.00,0.72
4792.00,0.72
4791.00,0.72
4790.00,0.72
4789.00,0.73
4788.00,0.73
4787.00,0.73
4786.00,0.73
4785.00,0.73
4784.00,0.73
4783.00,0.73
4782.00,0.73
4781.00,0.73
4780.00,0.73
4779.00,0.73
4778.00,0.73
4777.00,0.73
4776.00,0.73
4775.00,0.73
4774.00,0.73
4773.00,0.73
4772.00,0.74
4771.00,0.74
4770.00,0.74
4769.00,0.74
4768.00,0.74
4767.00,0.74
4766.00,0.74
4765.00,0.74
4764.00,0.75
4763.00,0.75
4762.00,0.75
4761.00,0.75
4760.00,0.75
4759.00,0.75
4758.00,0.75
4757.00,0.75
4756.00,0.75
4755.00,0.75
4754.00,0.75
4753.00,0.75
4752.00,0.75
4751.00,0.75
4750.00,0.75
4749.00,0.75
4748.00,0.75
4747.00,0.75
4746.00,0.76
4745.00,0.76
4744.00,0.76
4743.00,0.76
4742.00,0.76
4741.00,0.76
4740.00,0.76
4739.00,0.76
4738.00,0.76
4737.00,0.76
4736.00,0.77
4735.00,0.77
4734.00,0.77
4733.00,0.77
4732.00,0.77
4731.00,0.77
4730.00,0.77
4729.00,0.77
4728.00,0.77
4727.00,0.77
4726.00,0.77
4725.00,0.78
4724.00,0.78
4723.00,0.78
4722.00,0.78
4721.00,0.78
4720.00,0.78
4719.00,0.78
4718.00,0.78
4717.00,0.78
4716.00,0.78
4715.00,0.78
4714.00,0.79
4713.00,0.79
4712.00,0.79
4711.00,0.79
4710.00,0.79
4709.00,0.79
4708.00,0.79
4707.00,0.79
4706.00,0.79
4705.00,0.79
4704.00,0.80
4703.00,0.80
4702.00,0.80
4701.00,0.80
4700.00,0.80
4699.00,0.80
4698.00,0.80
4697.00,0.80
4696.00,0.80
4695.00,0.80
4694.00,0.80
4693.00,0.81
4692.00,0.81
4691.00,0.81
4690.00,0.81
4689.00,0.81
4688.00,0.81
4687.00,0.81
4686.00,0.81
4685.00,0.81
4684.00,0.81
4683.00,0.82
4682.00,0.82
4681.00,0.82
4680.00,0.82
4679.00,0.82
4678.00,0.82
4677.00,0.82
4676.00,0.82
4675.00,0.82
4674.00,0.82
4673.00,0.82
4672.00,0.82
4671.00,0.82
4670.00,0.82
4669.00,0.83
4668.00,0.83
4667.00,0.83
4666.00,0.83
4665.00,0.83
4664.00,0.83
4663.00,0.83
4662.00,0.83
4661.00,0.83
4660.00,0.83
4659.00,0.83
4658.00,0.83
4657.00,0.84
4656.00,0.84
4655.00,0.84
4654.00,0.84
4653.00,0.84
4652.00,0.84
4651.00,0.84
4650.00,0.84
4649.00,0.84
4648.00,0.84
4647.00,0.84
4646.00,0.84
4645.00,0.84
4644.00,0.84
4643.00,0.84
4642.00,0.85
4641.00,0.85
4640.00,0.85
4639.00,0.85
4638.00,0.85
4637.00,0.85
4636.00,0.85
4635.00,0.85
4634.00,0.85
4633.00,0.85
4632.00,0.85
4631.00,0.85
4630.00,0.85
4629.00,0.85
4628.00,0.86
4627.00,0.86
4626.00,0.86
4625.00,0.86
4624.00,0.86
4623.00,0.86
4622.00,0.86
4621.00,0.86
4620.00,0.86
4619.00,0.86
4618.00,0.87
4617.00,0.87
4616.00,0.87
4615.00,0.87
4614.00,0.87
4613.00,0.87
4612.00,0.87
4611.00,0.87
4610.00,0.87
4609.00,0.87
4608.00,0.87
4607.00,0.87
4606.00,0.87
4605.00,0.87
4604.00,0.87
4603.00,0.87
4602.00,0.87
4601.00,0.87
4600.00,0.87
4599.00,0.87
4598.00,0.87
4597.00,0.87
4596.00,0.87
4595.00,0.87
4594.00,0.87
4593.00,0.87
4592.00,0.87
4591.00,0.87
4590.00,0.87
4589.00,0.87
4588.00,0.87
4587.00,0.87
4586.00,0.87
4585.00,0.87
4584.00,0.87
4583.00,0.87
4582.00,0.87
4581.00,0.88
4580.00,0.88
4579.00,0.88
4578.00,0.88
4577.00,0.88
4576.00,0.88
4575.00,0.88
4574.00,0.88
4573.00,0.88
4572.00,0.89
4571.00,0.89
4570.00,0.89
4569.00,0.89
4568.00,0.89
4567.00,0.89
4566.00,0.89
4565.00,0.89
4564.00,0.89
4563.00,0.89
4562.00,0.89
4561.00,0.89
4560.00,0.90
4559.00,0.90
4558.00,0.90
4557.00,0.90
4556.00,0.90
4555.00,0.90
4554.00,0.90
4553.00,0.90
4552.00,0.90
4551.00,0.90
4550.00,0.90
4549.00,0.90
4548.00,0.90
4547.00,0.90
4546.00,0.90
4545.00,0.90
4544.00,0.90
4543.00,0.90
4542.00,0.90
4541.00,0.90
4540.00,0.90
4539.00,0.90
4538.00,0.90
4537.00,0.90
4536.00,0.90
4535.00,0.90
4534.00,0.90
4533.00,0.90
4532.00,0.90
4531.00,0.90
4530.00,0.90
4529.00,0.90
4528.00,0.90
4527.00,0.90
4526.00,0.90
4525.00,0.90
4524.00,0.90
4523.00,0.90
4522.00,0.90
4521.00,0.90
4520.00,0.90
4519.00,0.90
4518.00,0.90
4517.00,0.90
4516.00,0.91
4515.00,0.91
4514.00,0.91
4513.00,0.91
4512.00,0.91
4511.00,0.91
4510.00,0.91
4509.00,0.91
4508.00,0.91
4507.00,0.91
4506.00,0.91
4505.00,0.91
4504.00,0.91
4503.00,0.91
4502.00,0.91
4501.00,0.91
4500.00,0.91
4499.00,0.91
4498.00,0.91
4497.00,0.91
4496.00,0.91
4495.00,0.91
4494.00,0.91
4493.00,0.91
4492.00,0.91
4491.00,0.91
4490.00,0.91
4489.00,0.91
4488.00,0.91
4487.00,0.91
4486.00,0.90
4485.00,0.90
4484.00,0.90
4483.00,0.90
4482.00,0.90
4481.00,0.90
4480.00,0.90
4479.00,0.90
4478.00,0.90
4477.00,0.90
4476.00,0.90
4475.00,0.89
4474.00,0.89
4473.00,0.89
4472.00,0.89
4471.00,0.89
4470.00,0.89
4469.00,0.89
4468.00,0.89
4467.00,0.89
4466.00,0.89
4465.00,0.88
4464.00,0.88
4463.00,0.88
4462.00,0.88
4461.00,0.88
4460.00,0.88
4459.00,0.88
4458.00,0.88
4457.00,0.88
4456.00,0.88
4455.00,0.87
4454.00,0.87
4453.00,0.87
4452.00,0.87
4451.00,0.87
4450.00,0.87
4449.00,0.86
4448.00,0.86
4447.00,0.86
4446.00,0.86
4445.00,0.86
4444.00,0.86
4443.00,0.85
4442.00,0.85
4441.00,0.85
4440.00,0.85
4439.00,0.85
4438.00,0.84
4437.00,0.84
4436.00,0.84
4435.00,0.84
4434.00,0.84
4433.00,0.84
4432.00,0.83
4431.00,0.83
4430.00,0.83
4429.00,0.83
4428.00,0.83
4427.00,0.83
4426.00,0.83
4425.00,0.83
4424.00,0.82
4423.00,0.82
4422.00,0.82
4421.00,0.82
4420.00,0.82
4419.00,0.82
4418.00,0.82
4417.00,0.82
4416.00,0.82
4415.00,0.82
4414.00,0.82
4413.00,0.82
4412.00,0.82
4411.00,0.82
4410.00,0.82
4409.00,0.82
4408.00,0.82
4407.00,0.82
4406.00,0.82
4405.00,0.83
4404.00,0.83
4403.00,0.83
4402.00,0.83
4401.00,0.83
4400.00,0.83
4399.00,0.83
4398.00,0.83
4397.00,0.83
4396.00,0.83
4395.00,0.83
4394.00,0.84
4393.00,0.84
4392.00,0.84
4391.00,0.84
4390.00,0.84
4389.00,0.84
4388.00,0.84
4387.00,0.84
4386.00,0.84
4385.00,0.84
4384.00,0.85
4383.00,0.85
4382.00,0.85
4381.00,0.85
4380.00,0.85
4379.00,0.85
4378.00,0.85
4377.00,0.85
4376.00,0.85
4375.00,0.85
4374.00,0.86
4373.00,0.86
4372.00,0.86
4371.00,0.86
4370.00,0.86
4369.00,0.86
4368.00,0.86
4367.00,0.86
4366.00,0.86
4365.00,0.86
4364.00,0.86
4363.00,0.86
4362.00,0.86
4361.00,0.86
4360.00,0.86
4359.00,0.86
4358.00,0.86
4357.00,0.86
4356.00,0.86
4355.00,0.85
4354.00,0.85
4353.00,0.85
4352.00,0.85
4351.00,0.85
4350.00,0.85
4349.00,0.85
4348.00,0.85
4347.00,0.85
4346.00,0.86
4345.00,0.86
4344.00,0.86
4343.00,0.86
4342.00,0.86
4341.00,0.86
4340.00,0.86
4339.00,0.86
4338.00,0.86
4337.00,0.87
4336.00,0.87
4335.00,0.87
4334.00,0.87
4333.00,0.87
4332.00,0.87
4331.00,0.87
4330.00,0.87
4329.00,0.87
4328.00,0.87
4327.00,0.87
4326.00,0.87
4325.00,0.87
4324.00,0.87
4323.00,0.87
4322.00,0.87
4321.00,0.87
4320.00,0.87
4319.00,0.87
4318.00,0.88
4317.00,0.88
4316.00,0.88
4315.00,0.88
4314.00,0.88
4313.00,0.88
4312.00,0.88
4311.00,0.89
4310.00,0.89
4309.00,0.89
4308.00,0.89
4307.00,0.89
4306.00,0.89
4305.00,0.89
4304.00,0.89
4303.00,0.89
4302.00,0.89
4301.00,0.90
4300.00,0.90
4299.00,0.90
4298.00,0.90
4297.00,0.90
4296.00,0.90
4295.00,0.90
4294.00,0.90
4293.00,0.90
4292.00,0.90
4291.00,0.90
4290.00,0.90
4289.00,0.90
4288.00,0.90
4287.00,0.90
4286.00,0.90
4285.00,0.90
4284.00,0.90
4283.00,0.90
4282.00,0.90
4281.00,0.90
4280.00,0.90
4279.00,0.90
4278.00,0.90
4277.00,0.90
4276.00,0.90
4275.00,0.90
4274.00,0.90
4273.00,0.90
4272.00,0.90
4271.00,0.90
4270.00,0.90
4269.00,0.90
4268.00,0.90
4267.00,0.90
4266.00,0.90
4265.00,0.90
4264.00,0.90
4263.00,0.90
4262.00,0.90
4261.00,0.90
4260.00,0.90
4259.00,0.89
4258.00,0.89
4257.00,0.89
4256.00,0.89
4255.00,0.89
4254.00,0.89
4253.00,0.89
4252.00,0.89
4251.00,0.89
4250.00,0.89
4249.00,0.89
4248.00,0.89
4247.00,0.89
4246.00,0.89
4245.00,0.90
4244.00,0.90
4243.00,0.90
4242.00,0.90
4241.00,0.90
4240.00,0.90
4239.00,0.90
4238.00,0.91
4237.00,0.91
4236.00,0.91
4235.00,0.91
4234.00,0.91
4233.00,0.91
4232.00,0.91
4231.00,0.91
4230.00,0.91
4229.00,0.92
4228.00,0.92
4227.00,0.92
4226.00,0.92
4225.00,0.92
4224.00,0.92
4223.00,0.92
4222.00,0.92
4221.00,0.92
4220.00,0.92
4219.00,0.92
4218.00,0.92
4217.00,0.92
4216.00,0.92
4215.00,0.92
4214.00,0.92
4213.00,0.92
4212.00,0.93
4211.00,0.93
4210.00,0.93
4209.00,0.93
4208.00,0.93
4207.00,0.93
4206.00,0.93
4205.00,0.93
4204.00,0.93
4203.00,0.93
4202.00,0.93
4201.00,0.93
4200.00,0.93
4199.00,0.93
4198.00,0.93
4197.00,0.93
4196.00,0.93
4195.00,0.93
4194.00,0.93
4193.00,0.93
4192.00,0.93
4191.00,0.93
4190.00,0.94
4189.00,0.94
4188.00,0.94
4187.00,0.94
4186.00,0.94
4185.00,0.94
4184.00,0.94
4183.00,0.94
4182.00,0.94
4181.00,0.94
4180.00,0.94
4179.00,0.94
4178.00,0.94
4177.00,0.94
4176.00,0.94
4175.00,0.94
4174.00,0.94
4173.00,0.94
4172.00,0.94
4171.00,0.94
4170.00,0.94
4169.00,0.94
4168.00,0.94
4167.00,0.94
4166.00,0.94
4165.00,0.94
4164.00,0.94
4163.00,0.94
4162.00,0.94
4161.00,0.95
4160.00,0.95
4159.00,0.95
4158.00,0.95
4157.00,0.95
4156.00,0.95
4155.00,0.95
4154.00,0.95
4153.00,0.95
4152.00,0.95
4151.00,0.95
4150.00,0.96
4149.00,0.96
4148.00,0.96
4147.00,0.96
4146.00,0.96
4145.00,0.96
4144.00,0.96
4143.00,0.96
4142.00,0.96
4141.00,0.96
4140.00,0.96
4139.00,0.96
4138.00,0.96
4137.00,0.96
4136.00,0.96
4135.00,0.96
4134.00,0.96
4133.00,0.96
4132.00,0.96
4131.00,0.96
4130.00,0.96
4129.00,0.96
4128.00,0.96
4127.00,0.96
4126.00,0.96
4125.00,0.96
4124.00,0.96
4123.00,0.96
4122.00,0.96
4121.00,0.96
4120.00,0.96
4119.00,0.96
4118.00,0.96
4117.00,0.96
4116.00,0.96
4115.00,0.96
4114.00,0.96
4113.00,0.96
4112.00,0.96
4111.00,0.96
4110.00,0.96
4109.00,0.97
4108.00,0.97
4107.00,0.97
4106.00,0.97
4105.00,0.97
4104.00,0.97
4103.00,0.97
4102.00,0.97
4101.00,0.97
4100.00,0.97
4099.00,0.97
4098.00,0.97
4097.00,0.97
4096.00,0.97
4095.00,0.97
4094.00,0.97
4093.00,0.97
4092.00,0.97
4091.00,0.97
4090.00,0.97
4089.00,0.98
4088.00,0.98
4087.00,0.98
4086.00,0.98
4085.00,0.98
4084.00,0.98
4083.00,0.98
4082.00,0.98
4081.00,0.98
4080.00,0.98
4079.00,0.98
4078.00,0.98
4077.00,0.98
4076.00,0.98
4075.00,0.98
4074.00,0.99
4073.00,0.99
4072.00,0.99
4071.00,0.99
4070.00,0.99
4069.00,0.99
4068.00,0.99
4067.00,0.99
4066.00,0.99
4065.00,1.00
4064.00,1.00
4063.00,1.00
4062.00,1.00
4061.00,1.00
4060.00,1.00
4059.00,1.00
4058.00,1.00
4057.00,1.00
4056.00,1.00
4055.00,1.00
4054.00,1.00
4053.00,1.00
4052.00,1.00
4051.00,1.00
4050.00,1.00
4049.00,1.00
4048.00,1.00
4047.00,1.00
4046.00,1.00
4045.00,1.00
4044.00,1.00
4043.00,1.00
4042.00,1.00
4041.00,1.00
4040.00,1.00
4039.00,1.00
4038.00,1.00
4037.00,1.01
4036.00,1.01
4035.00,1.01
4034.00,1.01
4033.00,1.01
4032.00,1.01
4031.00,1.01
4030.00,1.01
4029.00,1.01
4028.00,1.01
4027.00,1.01
4026.00,1.01
4025.00,1.01
4024.00,1.01
4023.00,1.01
4022.00,1.01
4021.00,1.01
4020.00,1.01
4019.00,1.02
4018.00,1.02
4017.00,1.02
4016.00,1.02
4015.00,1.03
4014.00,1.03
4013.00,1.03
4012.00,1.03
4011.00,1.03
4010.00,1.04
4009.00,1.04
4008.00,1.04
4007.00,1.04
4006.00,1.04
4005.00,1.04
4004.00,1.04
4003.00,1.04
4002.00,1.04
4001.00,1.04
4000.00,1.04
