创建为新数据集,样品 264 用户 Administrator 日期 星期日, 七月 22 2018
cm-1,%T
10000.00,1.11
9999.00,1.12
9998.00,1.12
9997.00,1.12
9996.00,1.13
9995.00,1.13
9994.00,1.13
9993.00,1.14
9992.00,1.14
9991.00,1.14
9990.00,1.14
9989.00,1.14
9988.00,1.14
9987.00,1.14
9986.00,1.14
9985.00,1.13
9984.00,1.13
9983.00,1.13
9982.00,1.13
9981.00,1.13
9980.00,1.13
9979.00,1.13
9978.00,1.13
9977.00,1.13
9976.00,1.13
9975.00,1.13
9974.00,1.13
9973.00,1.13
9972.00,1.13
9971.00,1.13
9970.00,1.13
9969.00,1.13
9968.00,1.14
9967.00,1.14
9966.00,1.14
9965.00,1.14
9964.00,1.14
9963.00,1.14
9962.00,1.14
9961.00,1.14
9960.00,1.14
9959.00,1.14
9958.00,1.14
9957.00,1.14
9956.00,1.14
9955.00,1.14
9954.00,1.14
9953.00,1.13
9952.00,1.13
9951.00,1.13
9950.00,1.13
9949.00,1.13
9948.00,1.12
9947.00,1.12
9946.00,1.12
9945.00,1.11
9944.00,1.11
9943.00,1.11
9942.00,1.11
9941.00,1.10
9940.00,1.10
9939.00,1.10
9938.00,1.10
9937.00,1.10
9936.00,1.10
9935.00,1.09
9934.00,1.09
9933.00,1.09
9932.00,1.09
9931.00,1.09
9930.00,1.09
9929.00,1.09
9928.00,1.09
9927.00,1.09
9926.00,1.09
9925.00,1.09
9924.00,1.10
9923.00,1.10
9922.00,1.10
9921.00,1.10
9920.00,1.10
9919.00,1.10
9918.00,1.11
9917.00,1.11
9916.00,1.11
9915.00,1.12
9914.00,1.12
9913.00,1.12
9912.00,1.12
9911.00,1.12
9910.00,1.12
9909.00,1.13
9908.00,1.13
9907.00,1.13
9906.00,1.13
9905.00,1.13
9904.00,1.12
9903.00,1.12
9902.00,1.12
9901.00,1.12
9900.00,1.12
9899.00,1.12
9898.00,1.12
9897.00,1.12
9896.00,1.11
9895.00,1.11
9894.00,1.11
9893.00,1.11
9892.00,1.11
9891.00,1.11
9890.00,1.11
9889.00,1.11
9888.00,1.11
9887.00,1.11
9886.00,1.11
9885.00,1.11
9884.00,1.11
9883.00,1.11
9882.00,1.11
9881.00,1.11
9880.00,1.11
9879.00,1.11
9878.00,1.10
9877.00,1.10
9876.00,1.10
9875.00,1.10
9874.00,1.09
9873.00,1.09
9872.00,1.09
9871.00,1.09
9870.00,1.09
9869.00,1.09
9868.00,1.08
9867.00,1.08
9866.00,1.08
9865.00,1.09
9864.00,1.09
9863.00,1.09
9862.00,1.09
9861.00,1.09
9860.00,1.09
9859.00,1.10
9858.00,1.10
9857.00,1.10
9856.00,1.10
9855.00,1.11
9854.00,1.11
9853.00,1.11
9852.00,1.11
9851.00,1.11
9850.00,1.12
9849.00,1.12
9848.00,1.12
9847.00,1.12
9846.00,1.12
9845.00,1.12
9844.00,1.12
9843.00,1.12
9842.00,1.12
9841.00,1.12
9840.00,1.12
9839.00,1.12
9838.00,1.12
9837.00,1.12
9836.00,1.12
9835.00,1.12
9834.00,1.12
9833.00,1.12
9832.00,1.12
9831.00,1.12
9830.00,1.12
9829.00,1.12
9828.00,1.12
9827.00,1.12
9826.00,1.12
9825.00,1.12
9824.00,1.13
9823.00,1.13
9822.00,1.13
9821.00,1.13
9820.00,1.13
9819.00,1.13
9818.00,1.13
9817.00,1.13
9816.00,1.13
9815.00,1.13
9814.00,1.12
9813.00,1.12
9812.00,1.12
9811.00,1.12
9810.00,1.12
9809.00,1.11
9808.00,1.11
9807.00,1.11
9806.00,1.11
9805.00,1.10
9804.00,1.10
9803.00,1.10
9802.00,1.09
9801.00,1.09
9800.00,1.09
9799.00,1.09
9798.00,1.09
9797.00,1.09
9796.00,1.09
9795.00,1.09
9794.00,1.09
9793.00,1.09
9792.00,1.09
9791.00,1.09
9790.00,1.10
9789.00,1.10
9788.00,1.10
9787.00,1.10
9786.00,1.11
9785.00,1.11
9784.00,1.11
9783.00,1.11
9782.00,1.11
9781.00,1.11
9780.00,1.11
9779.00,1.11
9778.00,1.11
9777.00,1.11
9776.00,1.11
9775.00,1.11
9774.00,1.11
9773.00,1.11
9772.00,1.11
9771.00,1.11
9770.00,1.11
9769.00,1.11
9768.00,1.11
9767.00,1.11
9766.00,1.12
9765.00,1.12
9764.00,1.12
9763.00,1.12
9762.00,1.12
9761.00,1.12
9760.00,1.12
9759.00,1.12
9758.00,1.12
9757.00,1.12
9756.00,1.12
9755.00,1.12
9754.00,1.12
9753.00,1.12
9752.00,1.12
9751.00,1.12
9750.00,1.12
9749.00,1.12
9748.00,1.12
9747.00,1.12
9746.00,1.12
9745.00,1.11
9744.00,1.11
9743.00,1.11
9742.00,1.11
9741.00,1.11
9740.00,1.11
9739.00,1.11
9738.00,1.11
9737.00,1.11
9736.00,1.11
9735.00,1.11
9734.00,1.11
9733.00,1.11
9732.00,1.11
9731.00,1.11
9730.00,1.11
9729.00,1.11
9728.00,1.11
9727.00,1.11
9726.00,1.11
9725.00,1.11
9724.00,1.11
9723.00,1.11
9722.00,1.11
9721.00,1.11
9720.00,1.11
9719.00,1.11
9718.00,1.11
9717.00,1.11
9716.00,1.11
9715.00,1.11
9714.00,1.11
9713.00,1.11
9712.00,1.12
9711.00,1.12
9710.00,1.12
9709.00,1.12
9708.00,1.12
9707.00,1.12
9706.00,1.12
9705.00,1.12
9704.00,1.12
9703.00,1.12
9702.00,1.12
9701.00,1.12
9700.00,1.12
9699.00,1.12
9698.00,1.12
9697.00,1.12
9696.00,1.11
9695.00,1.11
9694.00,1.11
9693.00,1.11
9692.00,1.11
9691.00,1.11
9690.00,1.11
9689.00,1.10
9688.00,1.10
9687.00,1.10
9686.00,1.10
9685.00,1.10
9684.00,1.10
9683.00,1.10
9682.00,1.10
9681.00,1.10
9680.00,1.10
9679.00,1.10
9678.00,1.10
9677.00,1.10
9676.00,1.10
9675.00,1.10
9674.00,1.10
9673.00,1.10
9672.00,1.11
9671.00,1.11
9670.00,1.11
9669.00,1.11
9668.00,1.11
9667.00,1.11
9666.00,1.11
9665.00,1.11
9664.00,1.11
9663.00,1.11
9662.00,1.11
9661.00,1.11
9660.00,1.11
9659.00,1.11
9658.00,1.11
9657.00,1.11
9656.00,1.10
9655.00,1.10
9654.00,1.10
9653.00,1.10
9652.00,1.10
9651.00,1.10
9650.00,1.09
9649.00,1.09
9648.00,1.09
9647.00,1.09
9646.00,1.09
9645.00,1.09
9644.00,1.09
9643.00,1.09
9642.00,1.09
9641.00,1.09
9640.00,1.09
9639.00,1.09
9638.00,1.09
9637.00,1.10
9636.00,1.10
9635.00,1.10
9634.00,1.10
9633.00,1.10
9632.00,1.10
9631.00,1.10
9630.00,1.11
9629.00,1.11
9628.00,1.11
9627.00,1.11
9626.00,1.11
9625.00,1.11
9624.00,1.11
9623.00,1.11
9622.00,1.11
9621.00,1.11
9620.00,1.12
9619.00,1.12
9618.00,1.12
9617.00,1.12
9616.00,1.12
9615.00,1.12
9614.00,1.12
9613.00,1.12
9612.00,1.12
9611.00,1.12
9610.00,1.12
9609.00,1.12
9608.00,1.12
9607.00,1.12
9606.00,1.12
9605.00,1.12
9604.00,1.12
9603.00,1.11
9602.00,1.11
9601.00,1.11
9600.00,1.11
9599.00,1.11
9598.00,1.11
9597.00,1.11
9596.00,1.11
9595.00,1.11
9594.00,1.11
9593.00,1.11
9592.00,1.11
9591.00,1.11
9590.00,1.11
9589.00,1.11
9588.00,1.11
9587.00,1.11
9586.00,1.11
9585.00,1.11
9584.00,1.11
9583.00,1.12
9582.00,1.12
9581.00,1.12
9580.00,1.12
9579.00,1.12
9578.00,1.12
9577.00,1.12
9576.00,1.12
9575.00,1.12
9574.00,1.12
9573.00,1.13
9572.00,1.13
9571.00,1.13
9570.00,1.13
9569.00,1.13
9568.00,1.12
9567.00,1.12
9566.00,1.12
9565.00,1.12
9564.00,1.12
9563.00,1.12
9562.00,1.12
9561.00,1.12
9560.00,1.12
9559.00,1.12
9558.00,1.12
9557.00,1.12
9556.00,1.12
9555.00,1.11
9554.00,1.11
9553.00,1.11
9552.00,1.11
9551.00,1.11
9550.00,1.11
9549.00,1.11
9548.00,1.11
9547.00,1.11
9546.00,1.11
9545.00,1.11
9544.00,1.11
9543.00,1.11
9542.00,1.11
9541.00,1.11
9540.00,1.12
9539.00,1.12
9538.00,1.12
9537.00,1.12
9536.00,1.12
9535.00,1.12
9534.00,1.12
9533.00,1.12
9532.00,1.12
9531.00,1.12
9530.00,1.12
9529.00,1.12
9528.00,1.12
9527.00,1.12
9526.00,1.11
9525.00,1.11
9524.00,1.11
9523.00,1.11
9522.00,1.11
9521.00,1.10
9520.00,1.10
9519.00,1.10
9518.00,1.10
9517.00,1.10
9516.00,1.10
9515.00,1.10
9514.00,1.10
9513.00,1.10
9512.00,1.10
9511.00,1.10
9510.00,1.10
9509.00,1.10
9508.00,1.10
9507.00,1.10
9506.00,1.10
9505.00,1.10
9504.00,1.10
9503.00,1.10
9502.00,1.10
9501.00,1.10
9500.00,1.10
9499.00,1.11
9498.00,1.11
9497.00,1.11
9496.00,1.11
9495.00,1.11
9494.00,1.11
9493.00,1.11
9492.00,1.11
9491.00,1.11
9490.00,1.11
9489.00,1.11
9488.00,1.11
9487.00,1.11
9486.00,1.11
9485.00,1.12
9484.00,1.12
9483.00,1.12
9482.00,1.12
9481.00,1.12
9480.00,1.12
9479.00,1.12
9478.00,1.12
9477.00,1.13
9476.00,1.13
9475.00,1.13
9474.00,1.13
9473.00,1.13
9472.00,1.13
9471.00,1.13
9470.00,1.14
9469.00,1.14
9468.00,1.14
9467.00,1.14
9466.00,1.14
9465.00,1.14
9464.00,1.14
9463.00,1.14
9462.00,1.14
9461.00,1.14
9460.00,1.13
9459.00,1.13
9458.00,1.13
9457.00,1.13
9456.00,1.13
9455.00,1.12
9454.00,1.12
9453.00,1.12
9452.00,1.12
9451.00,1.12
9450.00,1.11
9449.00,1.11
9448.00,1.11
9447.00,1.11
9446.00,1.11
9445.00,1.11
9444.00,1.11
9443.00,1.10
9442.00,1.10
9441.00,1.10
9440.00,1.10
9439.00,1.10
9438.00,1.10
9437.00,1.09
9436.00,1.09
9435.00,1.09
9434.00,1.09
9433.00,1.09
9432.00,1.09
9431.00,1.08
9430.00,1.08
9429.00,1.08
9428.00,1.08
9427.00,1.08
9426.00,1.08
9425.00,1.08
9424.00,1.08
9423.00,1.08
9422.00,1.09
9421.00,1.09
9420.00,1.09
9419.00,1.09
9418.00,1.09
9417.00,1.09
9416.00,1.09
9415.00,1.09
9414.00,1.09
9413.00,1.09
9412.00,1.09
9411.00,1.09
9410.00,1.09
9409.00,1.09
9408.00,1.09
9407.00,1.09
9406.00,1.09
9405.00,1.09
9404.00,1.09
9403.00,1.09
9402.00,1.10
9401.00,1.10
9400.00,1.10
9399.00,1.10
9398.00,1.11
9397.00,1.11
9396.00,1.11
9395.00,1.11
9394.00,1.11
9393.00,1.12
9392.00,1.12
9391.00,1.12
9390.00,1.12
9389.00,1.12
9388.00,1.12
9387.00,1.12
9386.00,1.12
9385.00,1.12
9384.00,1.12
9383.00,1.12
9382.00,1.11
9381.00,1.11
9380.00,1.11
9379.00,1.11
9378.00,1.11
9377.00,1.11
9376.00,1.11
9375.00,1.11
9374.00,1.11
9373.00,1.11
9372.00,1.11
9371.00,1.11
9370.00,1.11
9369.00,1.11
9368.00,1.11
9367.00,1.11
9366.00,1.11
9365.00,1.11
9364.00,1.11
9363.00,1.11
9362.00,1.11
9361.00,1.11
9360.00,1.11
9359.00,1.11
9358.00,1.11
9357.00,1.11
9356.00,1.11
9355.00,1.11
9354.00,1.11
9353.00,1.11
9352.00,1.11
9351.00,1.11
9350.00,1.10
9349.00,1.10
9348.00,1.10
9347.00,1.10
9346.00,1.10
9345.00,1.10
9344.00,1.10
9343.00,1.10
9342.00,1.10
9341.00,1.10
9340.00,1.10
9339.00,1.10
9338.00,1.10
9337.00,1.10
9336.00,1.10
9335.00,1.10
9334.00,1.10
9333.00,1.10
9332.00,1.10
9331.00,1.10
9330.00,1.10
9329.00,1.10
9328.00,1.10
9327.00,1.10
9326.00,1.10
9325.00,1.10
9324.00,1.10
9323.00,1.10
9322.00,1.10
9321.00,1.10
9320.00,1.10
9319.00,1.10
9318.00,1.10
9317.00,1.10
9316.00,1.10
9315.00,1.10
9314.00,1.10
9313.00,1.10
9312.00,1.10
9311.00,1.10
9310.00,1.10
9309.00,1.10
9308.00,1.10
9307.00,1.10
9306.00,1.10
9305.00,1.10
9304.00,1.10
9303.00,1.11
9302.00,1.11
9301.00,1.11
9300.00,1.11
9299.00,1.11
9298.00,1.11
9297.00,1.11
9296.00,1.11
9295.00,1.12
9294.00,1.12
9293.00,1.12
9292.00,1.12
9291.00,1.12
9290.00,1.12
9289.00,1.12
9288.00,1.12
9287.00,1.12
9286.00,1.12
9285.00,1.12
9284.00,1.12
9283.00,1.12
9282.00,1.12
9281.00,1.12
9280.00,1.12
9279.00,1.11
9278.00,1.11
9277.00,1.11
9276.00,1.11
9275.00,1.11
9274.00,1.11
9273.00,1.11
9272.00,1.11
9271.00,1.11
9270.00,1.11
9269.00,1.11
9268.00,1.11
9267.00,1.12
9266.00,1.12
9265.00,1.12
9264.00,1.12
9263.00,1.12
9262.00,1.12
9261.00,1.12
9260.00,1.12
9259.00,1.12
9258.00,1.12
9257.00,1.12
9256.00,1.12
9255.00,1.11
9254.00,1.11
9253.00,1.11
9252.00,1.11
9251.00,1.11
9250.00,1.11
9249.00,1.11
9248.00,1.11
9247.00,1.11
9246.00,1.11
9245.00,1.11
9244.00,1.11
9243.00,1.11
9242.00,1.11
9241.00,1.11
9240.00,1.11
9239.00,1.11
9238.00,1.11
9237.00,1.11
9236.00,1.11
9235.00,1.12
9234.00,1.12
9233.00,1.12
9232.00,1.12
9231.00,1.12
9230.00,1.12
9229.00,1.12
9228.00,1.12
9227.00,1.12
9226.00,1.12
9225.00,1.12
9224.00,1.12
9223.00,1.11
9222.00,1.11
9221.00,1.11
9220.00,1.11
9219.00,1.11
9218.00,1.11
9217.00,1.11
9216.00,1.11
9215.00,1.11
9214.00,1.11
9213.00,1.11
9212.00,1.11
9211.00,1.11
9210.00,1.11
9209.00,1.11
9208.00,1.11
9207.00,1.10
9206.00,1.10
9205.00,1.10
9204.00,1.10
9203.00,1.10
9202.00,1.10
9201.00,1.10
9200.00,1.10
9199.00,1.10
9198.00,1.10
9197.00,1.10
9196.00,1.09
9195.00,1.09
9194.00,1.09
9193.00,1.09
9192.00,1.09
9191.00,1.09
9190.00,1.09
9189.00,1.09
9188.00,1.09
9187.00,1.09
9186.00,1.09
9185.00,1.09
9184.00,1.10
9183.00,1.10
9182.00,1.10
9181.00,1.10
9180.00,1.10
9179.00,1.10
9178.00,1.10
9177.00,1.11
9176.00,1.11
9175.00,1.11
9174.00,1.11
9173.00,1.11
9172.00,1.11
9171.00,1.11
9170.00,1.11
9169.00,1.11
9168.00,1.11
9167.00,1.11
9166.00,1.11
9165.00,1.11
9164.00,1.11
9163.00,1.11
9162.00,1.11
9161.00,1.11
9160.00,1.11
9159.00,1.11
9158.00,1.11
9157.00,1.12
9156.00,1.12
9155.00,1.12
9154.00,1.12
9153.00,1.12
9152.00,1.12
9151.00,1.12
9150.00,1.12
9149.00,1.12
9148.00,1.12
9147.00,1.12
9146.00,1.12
9145.00,1.12
9144.00,1.12
9143.00,1.12
9142.00,1.12
9141.00,1.12
9140.00,1.12
9139.00,1.12
9138.00,1.12
9137.00,1.12
9136.00,1.12
9135.00,1.12
9134.00,1.12
9133.00,1.12
9132.00,1.12
9131.00,1.11
9130.00,1.11
9129.00,1.11
9128.00,1.11
9127.00,1.11
9126.00,1.11
9125.00,1.11
9124.00,1.11
9123.00,1.11
9122.00,1.11
9121.00,1.10
9120.00,1.10
9119.00,1.10
9118.00,1.10
9117.00,1.10
9116.00,1.10
9115.00,1.10
9114.00,1.10
9113.00,1.10
9112.00,1.10
9111.00,1.10
9110.00,1.10
9109.00,1.10
9108.00,1.11
9107.00,1.11
9106.00,1.11
9105.00,1.11
9104.00,1.11
9103.00,1.11
9102.00,1.11
9101.00,1.12
9100.00,1.12
9099.00,1.12
9098.00,1.12
9097.00,1.12
9096.00,1.12
9095.00,1.12
9094.00,1.12
9093.00,1.12
9092.00,1.12
9091.00,1.12
9090.00,1.12
9089.00,1.12
9088.00,1.12
9087.00,1.12
9086.00,1.12
9085.00,1.12
9084.00,1.12
9083.00,1.12
9082.00,1.12
9081.00,1.12
9080.00,1.12
9079.00,1.12
9078.00,1.12
9077.00,1.12
9076.00,1.12
9075.00,1.12
9074.00,1.12
9073.00,1.12
9072.00,1.12
9071.00,1.13
9070.00,1.13
9069.00,1.13
9068.00,1.13
9067.00,1.13
9066.00,1.13
9065.00,1.14
9064.00,1.14
9063.00,1.14
9062.00,1.14
9061.00,1.14
9060.00,1.14
9059.00,1.14
9058.00,1.14
9057.00,1.14
9056.00,1.14
9055.00,1.13
9054.00,1.13
9053.00,1.13
9052.00,1.13
9051.00,1.13
9050.00,1.12
9049.00,1.12
9048.00,1.12
9047.00,1.12
9046.00,1.11
9045.00,1.11
9044.00,1.11
9043.00,1.11
9042.00,1.10
9041.00,1.10
9040.00,1.10
9039.00,1.10
9038.00,1.10
9037.00,1.10
9036.00,1.10
9035.00,1.09
9034.00,1.09
9033.00,1.09
9032.00,1.09
9031.00,1.09
9030.00,1.09
9029.00,1.09
9028.00,1.09
9027.00,1.09
9026.00,1.09
9025.00,1.10
9024.00,1.10
9023.00,1.10
9022.00,1.10
9021.00,1.10
9020.00,1.10
9019.00,1.10
9018.00,1.10
9017.00,1.11
9016.00,1.11
9015.00,1.11
9014.00,1.11
9013.00,1.11
9012.00,1.12
9011.00,1.12
9010.00,1.12
9009.00,1.12
9008.00,1.12
9007.00,1.12
9006.00,1.12
9005.00,1.12
9004.00,1.12
9003.00,1.12
9002.00,1.12
9001.00,1.12
9000.00,1.12
8999.00,1.12
8998.00,1.12
8997.00,1.12
8996.00,1.12
8995.00,1.12
8994.00,1.12
8993.00,1.12
8992.00,1.12
8991.00,1.12
8990.00,1.12
8989.00,1.11
8988.00,1.11
8987.00,1.11
8986.00,1.11
8985.00,1.11
8984.00,1.11
8983.00,1.11
8982.00,1.10
8981.00,1.10
8980.00,1.10
8979.00,1.10
8978.00,1.10
8977.00,1.10
8976.00,1.10
8975.00,1.10
8974.00,1.10
8973.00,1.10
8972.00,1.11
8971.00,1.11
8970.00,1.11
8969.00,1.11
8968.00,1.11
8967.00,1.11
8966.00,1.11
8965.00,1.11
8964.00,1.11
8963.00,1.11
8962.00,1.11
8961.00,1.11
8960.00,1.11
8959.00,1.11
8958.00,1.11
8957.00,1.11
8956.00,1.11
8955.00,1.11
8954.00,1.10
8953.00,1.10
8952.00,1.10
8951.00,1.10
8950.00,1.10
8949.00,1.10
8948.00,1.10
8947.00,1.10
8946.00,1.10
8945.00,1.10
8944.00,1.10
8943.00,1.10
8942.00,1.10
8941.00,1.10
8940.00,1.11
8939.00,1.11
8938.00,1.11
8937.00,1.11
8936.00,1.11
8935.00,1.11
8934.00,1.12
8933.00,1.12
8932.00,1.12
8931.00,1.12
8930.00,1.12
8929.00,1.12
8928.00,1.12
8927.00,1.12
8926.00,1.13
8925.00,1.13
8924.00,1.13
8923.00,1.13
8922.00,1.13
8921.00,1.13
8920.00,1.13
8919.00,1.13
8918.00,1.13
8917.00,1.13
8916.00,1.13
8915.00,1.13
8914.00,1.13
8913.00,1.13
8912.00,1.13
8911.00,1.13
8910.00,1.12
8909.00,1.12
8908.00,1.12
8907.00,1.12
8906.00,1.12
8905.00,1.12
8904.00,1.12
8903.00,1.12
8902.00,1.12
8901.00,1.12
8900.00,1.12
8899.00,1.12
8898.00,1.13
8897.00,1.13
8896.00,1.13
8895.00,1.13
8894.00,1.13
8893.00,1.13
8892.00,1.13
8891.00,1.13
8890.00,1.13
8889.00,1.13
8888.00,1.13
8887.00,1.13
8886.00,1.13
8885.00,1.13
8884.00,1.13
8883.00,1.13
8882.00,1.13
8881.00,1.13
8880.00,1.13
8879.00,1.12
8878.00,1.12
8877.00,1.12
8876.00,1.12
8875.00,1.12
8874.00,1.11
8873.00,1.11
8872.00,1.11
8871.00,1.11
8870.00,1.10
8869.00,1.10
8868.00,1.10
8867.00,1.10
8866.00,1.10
8865.00,1.09
8864.00,1.09
8863.00,1.09
8862.00,1.09
8861.00,1.09
8860.00,1.09
8859.00,1.09
8858.00,1.09
8857.00,1.09
8856.00,1.09
8855.00,1.09
8854.00,1.09
8853.00,1.09
8852.00,1.09
8851.00,1.09
8850.00,1.09
8849.00,1.10
8848.00,1.10
8847.00,1.10
8846.00,1.10
8845.00,1.10
8844.00,1.10
8843.00,1.11
8842.00,1.11
8841.00,1.11
8840.00,1.11
8839.00,1.11
8838.00,1.11
8837.00,1.11
8836.00,1.11
8835.00,1.11
8834.00,1.12
8833.00,1.12
8832.00,1.11
8831.00,1.11
8830.00,1.11
8829.00,1.11
8828.00,1.11
8827.00,1.11
8826.00,1.11
8825.00,1.11
8824.00,1.11
8823.00,1.10
8822.00,1.10
8821.00,1.10
8820.00,1.10
8819.00,1.10
8818.00,1.10
8817.00,1.10
8816.00,1.09
8815.00,1.09
8814.00,1.09
8813.00,1.09
8812.00,1.09
8811.00,1.09
8810.00,1.09
8809.00,1.09
8808.00,1.09
8807.00,1.09
8806.00,1.09
8805.00,1.09
8804.00,1.09
8803.00,1.09
8802.00,1.09
8801.00,1.09
8800.00,1.09
8799.00,1.09
8798.00,1.09
8797.00,1.09
8796.00,1.08
8795.00,1.08
8794.00,1.08
8793.00,1.08
8792.00,1.08
8791.00,1.08
8790.00,1.08
8789.00,1.08
8788.00,1.08
8787.00,1.08
8786.00,1.08
8785.00,1.08
8784.00,1.08
8783.00,1.08
8782.00,1.08
8781.00,1.08
8780.00,1.08
8779.00,1.08
8778.00,1.08
8777.00,1.08
8776.00,1.08
8775.00,1.08
8774.00,1.09
8773.00,1.09
8772.00,1.09
8771.00,1.09
8770.00,1.09
8769.00,1.09
8768.00,1.08
8767.00,1.08
8766.00,1.08
8765.00,1.08
8764.00,1.08
8763.00,1.08
8762.00,1.08
8761.00,1.08
8760.00,1.07
8759.00,1.07
8758.00,1.07
8757.00,1.07
8756.00,1.07
8755.00,1.07
8754.00,1.07
8753.00,1.07
8752.00,1.07
8751.00,1.07
8750.00,1.07
8749.00,1.07
8748.00,1.07
8747.00,1.07
8746.00,1.07
8745.00,1.07
8744.00,1.07
8743.00,1.07
8742.00,1.07
8741.00,1.07
8740.00,1.07
8739.00,1.07
8738.00,1.07
8737.00,1.07
8736.00,1.06
8735.00,1.06
8734.00,1.06
8733.00,1.06
8732.00,1.06
8731.00,1.06
8730.00,1.06
8729.00,1.06
8728.00,1.06
8727.00,1.06
8726.00,1.06
8725.00,1.06
8724.00,1.05
8723.00,1.05
8722.00,1.05
8721.00,1.05
8720.00,1.05
8719.00,1.05
8718.00,1.05
8717.00,1.05
8716.00,1.05
8715.00,1.05
8714.00,1.05
8713.00,1.05
8712.00,1.05
8711.00,1.05
8710.00,1.05
8709.00,1.05
8708.00,1.05
8707.00,1.05
8706.00,1.05
8705.00,1.05
8704.00,1.05
8703.00,1.05
8702.00,1.05
8701.00,1.05
8700.00,1.05
8699.00,1.05
8698.00,1.05
8697.00,1.05
8696.00,1.05
8695.00,1.05
8694.00,1.05
8693.00,1.06
8692.00,1.06
8691.00,1.06
8690.00,1.06
8689.00,1.06
8688.00,1.06
8687.00,1.06
8686.00,1.06
8685.00,1.06
8684.00,1.06
8683.00,1.06
8682.00,1.06
8681.00,1.06
8680.00,1.06
8679.00,1.06
8678.00,1.06
8677.00,1.06
8676.00,1.06
8675.00,1.06
8674.00,1.06
8673.00,1.06
8672.00,1.06
8671.00,1.06
8670.00,1.06
8669.00,1.06
8668.00,1.06
8667.00,1.06
8666.00,1.06
8665.00,1.06
8664.00,1.06
8663.00,1.06
8662.00,1.06
8661.00,1.06
8660.00,1.06
8659.00,1.06
8658.00,1.06
8657.00,1.06
8656.00,1.06
8655.00,1.06
8654.00,1.06
8653.00,1.06
8652.00,1.06
8651.00,1.06
8650.00,1.06
8649.00,1.06
8648.00,1.06
8647.00,1.06
8646.00,1.06
8645.00,1.06
8644.00,1.06
8643.00,1.06
8642.00,1.05
8641.00,1.05
8640.00,1.05
8639.00,1.05
8638.00,1.05
8637.00,1.05
8636.00,1.04
8635.00,1.04
8634.00,1.04
8633.00,1.04
8632.00,1.04
8631.00,1.04
8630.00,1.04
8629.00,1.04
8628.00,1.04
8627.00,1.04
8626.00,1.04
8625.00,1.04
8624.00,1.04
8623.00,1.04
8622.00,1.04
8621.00,1.04
8620.00,1.04
8619.00,1.04
8618.00,1.04
8617.00,1.04
8616.00,1.04
8615.00,1.04
8614.00,1.04
8613.00,1.04
8612.00,1.04
8611.00,1.04
8610.00,1.04
8609.00,1.04
8608.00,1.04
8607.00,1.04
8606.00,1.03
8605.00,1.03
8604.00,1.03
8603.00,1.03
8602.00,1.03
8601.00,1.03
8600.00,1.03
8599.00,1.03
8598.00,1.03
8597.00,1.03
8596.00,1.03
8595.00,1.02
8594.00,1.02
8593.00,1.02
8592.00,1.02
8591.00,1.02
8590.00,1.02
8589.00,1.02
8588.00,1.01
8587.00,1.01
8586.00,1.01
8585.00,1.01
8584.00,1.01
8583.00,1.01
8582.00,1.01
8581.00,1.01
8580.00,1.01
8579.00,1.01
8578.00,1.01
8577.00,1.01
8576.00,1.01
8575.00,1.01
8574.00,1.02
8573.00,1.02
8572.00,1.02
8571.00,1.02
8570.00,1.02
8569.00,1.02
8568.00,1.02
8567.00,1.03
8566.00,1.03
8565.00,1.03
8564.00,1.03
8563.00,1.03
8562.00,1.03
8561.00,1.03
8560.00,1.03
8559.00,1.03
8558.00,1.03
8557.00,1.03
8556.00,1.03
8555.00,1.03
8554.00,1.03
8553.00,1.03
8552.00,1.03
8551.00,1.03
8550.00,1.03
8549.00,1.03
8548.00,1.02
8547.00,1.02
8546.00,1.02
8545.00,1.02
8544.00,1.02
8543.00,1.02
8542.00,1.02
8541.00,1.01
8540.00,1.01
8539.00,1.01
8538.00,1.01
8537.00,1.01
8536.00,1.01
8535.00,1.01
8534.00,1.01
8533.00,1.01
8532.00,1.01
8531.00,1.01
8530.00,1.01
8529.00,1.01
8528.00,1.01
8527.00,1.00
8526.00,1.00
8525.00,1.00
8524.00,1.00
8523.00,1.00
8522.00,1.00
8521.00,1.00
8520.00,1.00
8519.00,1.00
8518.00,1.00
8517.00,1.00
8516.00,0.99
8515.00,0.99
8514.00,0.99
8513.00,0.99
8512.00,0.99
8511.00,0.99
8510.00,0.99
8509.00,0.99
8508.00,0.99
8507.00,0.99
8506.00,0.99
8505.00,0.99
8504.00,0.99
8503.00,0.99
8502.00,0.99
8501.00,0.99
8500.00,0.99
8499.00,0.99
8498.00,0.99
8497.00,0.99
8496.00,0.99
8495.00,0.99
8494.00,0.99
8493.00,0.98
8492.00,0.98
8491.00,0.98
8490.00,0.98
8489.00,0.98
8488.00,0.98
8487.00,0.98
8486.00,0.98
8485.00,0.98
8484.00,0.98
8483.00,0.98
8482.00,0.98
8481.00,0.98
8480.00,0.98
8479.00,0.98
8478.00,0.97
8477.00,0.97
8476.00,0.97
8475.00,0.97
8474.00,0.97
8473.00,0.97
8472.00,0.97
8471.00,0.97
8470.00,0.97
8469.00,0.96
8468.00,0.96
8467.00,0.96
8466.00,0.96
8465.00,0.96
8464.00,0.96
8463.00,0.95
8462.00,0.95
8461.00,0.95
8460.00,0.95
8459.00,0.95
8458.00,0.94
8457.00,0.94
8456.00,0.94
8455.00,0.94
8454.00,0.94
8453.00,0.94
8452.00,0.94
8451.00,0.93
8450.00,0.93
8449.00,0.93
8448.00,0.93
8447.00,0.93
8446.00,0.93
8445.00,0.93
8444.00,0.93
8443.00,0.93
8442.00,0.93
8441.00,0.93
8440.00,0.93
8439.00,0.93
8438.00,0.93
8437.00,0.93
8436.00,0.93
8435.00,0.93
8434.00,0.93
8433.00,0.93
8432.00,0.93
8431.00,0.93
8430.00,0.93
8429.00,0.93
8428.00,0.94
8427.00,0.94
8426.00,0.94
8425.00,0.94
8424.00,0.94
8423.00,0.95
8422.00,0.95
8421.00,0.95
8420.00,0.95
8419.00,0.95
8418.00,0.95
8417.00,0.96
8416.00,0.96
8415.00,0.96
8414.00,0.96
8413.00,0.96
8412.00,0.96
8411.00,0.96
8410.00,0.96
8409.00,0.96
8408.00,0.96
8407.00,0.96
8406.00,0.96
8405.00,0.96
8404.00,0.96
8403.00,0.97
8402.00,0.97
8401.00,0.97
8400.00,0.97
8399.00,0.97
8398.00,0.97
8397.00,0.97
8396.00,0.97
8395.00,0.97
8394.00,0.97
8393.00,0.97
8392.00,0.97
8391.00,0.97
8390.00,0.97
8389.00,0.97
8388.00,0.98
8387.00,0.98
8386.00,0.98
8385.00,0.98
8384.00,0.98
8383.00,0.98
8382.00,0.98
8381.00,0.98
8380.00,0.98
8379.00,0.98
8378.00,0.98
8377.00,0.98
8376.00,0.98
8375.00,0.98
8374.00,0.98
8373.00,0.98
8372.00,0.98
8371.00,0.98
8370.00,0.98
8369.00,0.98
8368.00,0.98
8367.00,0.98
8366.00,0.98
8365.00,0.99
8364.00,0.99
8363.00,0.99
8362.00,0.99
8361.00,0.99
8360.00,0.99
8359.00,1.00
8358.00,1.00
8357.00,1.00
8356.00,1.00
8355.00,1.00
8354.00,1.00
8353.00,1.00
8352.00,1.01
8351.00,1.01
8350.00,1.01
8349.00,1.01
8348.00,1.01
8347.00,1.01
8346.00,1.01
8345.00,1.01
8344.00,1.01
8343.00,1.01
8342.00,1.00
8341.00,1.00
8340.00,1.00
8339.00,1.00
8338.00,1.00
8337.00,1.00
8336.00,1.00
8335.00,1.00
8334.00,1.00
8333.00,1.00
8332.00,1.00
8331.00,1.00
8330.00,1.00
8329.00,1.00
8328.00,1.00
8327.00,1.00
8326.00,1.00
8325.00,1.00
8324.00,1.00
8323.00,1.00
8322.00,1.00
8321.00,1.00
8320.00,1.00
8319.00,1.00
8318.00,1.00
8317.00,1.00
8316.00,1.00
8315.00,1.00
8314.00,1.00
8313.00,1.00
8312.00,1.00
8311.00,1.00
8310.00,1.00
8309.00,1.00
8308.00,1.01
8307.00,1.01
8306.00,1.01
8305.00,1.01
8304.00,1.01
8303.00,1.01
8302.00,1.01
8301.00,1.01
8300.00,1.01
8299.00,1.01
8298.00,1.00
8297.00,1.00
8296.00,1.00
8295.00,1.00
8294.00,1.00
8293.00,1.00
8292.00,1.00
8291.00,0.99
8290.00,0.99
8289.00,0.99
8288.00,0.99
8287.00,0.99
8286.00,0.99
8285.00,0.99
8284.00,0.99
8283.00,0.99
8282.00,0.99
8281.00,0.99
8280.00,1.00
8279.00,1.00
8278.00,1.00
8277.00,1.00
8276.00,1.00
8275.00,1.00
8274.00,1.00
8273.00,1.00
8272.00,1.00
8271.00,1.00
8270.00,1.00
8269.00,1.00
8268.00,1.01
8267.00,1.01
8266.00,1.01
8265.00,1.01
8264.00,1.01
8263.00,1.01
8262.00,1.01
8261.00,1.01
8260.00,1.01
8259.00,1.01
8258.00,1.01
8257.00,1.01
8256.00,1.01
8255.00,1.01
8254.00,1.01
8253.00,1.01
8252.00,1.01
8251.00,1.01
8250.00,1.01
8249.00,1.01
8248.00,1.01
8247.00,1.01
8246.00,1.01
8245.00,1.01
8244.00,1.01
8243.00,1.01
8242.00,1.01
8241.00,1.01
8240.00,1.01
8239.00,1.01
8238.00,1.01
8237.00,1.01
8236.00,1.01
8235.00,1.01
8234.00,1.01
8233.00,1.01
8232.00,1.01
8231.00,1.01
8230.00,1.01
8229.00,1.01
8228.00,1.01
8227.00,1.01
8226.00,1.01
8225.00,1.01
8224.00,1.02
8223.00,1.02
8222.00,1.02
8221.00,1.02
8220.00,1.02
8219.00,1.03
8218.00,1.03
8217.00,1.03
8216.00,1.03
8215.00,1.03
8214.00,1.04
8213.00,1.04
8212.00,1.04
8211.00,1.04
8210.00,1.04
8209.00,1.04
8208.00,1.04
8207.00,1.04
8206.00,1.04
8205.00,1.04
8204.00,1.04
8203.00,1.04
8202.00,1.04
8201.00,1.04
8200.00,1.04
8199.00,1.04
8198.00,1.04
8197.00,1.04
8196.00,1.04
8195.00,1.04
8194.00,1.04
8193.00,1.04
8192.00,1.04
8191.00,1.04
8190.00,1.04
8189.00,1.04
8188.00,1.04
8187.00,1.04
8186.00,1.04
8185.00,1.04
8184.00,1.04
8183.00,1.04
8182.00,1.04
8181.00,1.04
8180.00,1.04
8179.00,1.04
8178.00,1.04
8177.00,1.04
8176.00,1.04
8175.00,1.04
8174.00,1.05
8173.00,1.05
8172.00,1.05
8171.00,1.05
8170.00,1.05
8169.00,1.05
8168.00,1.05
8167.00,1.05
8166.00,1.05
8165.00,1.05
8164.00,1.05
8163.00,1.05
8162.00,1.05
8161.00,1.05
8160.00,1.05
8159.00,1.05
8158.00,1.05
8157.00,1.05
8156.00,1.05
8155.00,1.05
8154.00,1.05
8153.00,1.05
8152.00,1.05
8151.00,1.05
8150.00,1.05
8149.00,1.05
8148.00,1.05
8147.00,1.05
8146.00,1.05
8145.00,1.05
8144.00,1.05
8143.00,1.05
8142.00,1.05
8141.00,1.05
8140.00,1.05
8139.00,1.05
8138.00,1.05
8137.00,1.05
8136.00,1.06
8135.00,1.06
8134.00,1.06
8133.00,1.06
8132.00,1.06
8131.00,1.06
8130.00,1.06
8129.00,1.06
8128.00,1.06
8127.00,1.06
8126.00,1.06
8125.00,1.06
8124.00,1.07
8123.00,1.07
8122.00,1.07
8121.00,1.07
8120.00,1.07
8119.00,1.07
8118.00,1.07
8117.00,1.07
8116.00,1.07
8115.00,1.07
8114.00,1.07
8113.00,1.07
8112.00,1.07
8111.00,1.08
8110.00,1.08
8109.00,1.08
8108.00,1.08
8107.00,1.08
8106.00,1.08
8105.00,1.08
8104.00,1.08
8103.00,1.08
8102.00,1.08
8101.00,1.08
8100.00,1.08
8099.00,1.08
8098.00,1.08
8097.00,1.08
8096.00,1.08
8095.00,1.08
8094.00,1.08
8093.00,1.08
8092.00,1.08
8091.00,1.08
8090.00,1.08
8089.00,1.08
8088.00,1.08
8087.00,1.08
8086.00,1.08
8085.00,1.08
8084.00,1.08
8083.00,1.08
8082.00,1.08
8081.00,1.08
8080.00,1.08
8079.00,1.08
8078.00,1.08
8077.00,1.08
8076.00,1.08
8075.00,1.08
8074.00,1.08
8073.00,1.08
8072.00,1.08
8071.00,1.08
8070.00,1.08
8069.00,1.07
8068.00,1.07
8067.00,1.07
8066.00,1.07
8065.00,1.07
8064.00,1.07
8063.00,1.07
8062.00,1.07
8061.00,1.07
8060.00,1.07
8059.00,1.07
8058.00,1.07
8057.00,1.07
8056.00,1.07
8055.00,1.07
8054.00,1.07
8053.00,1.07
8052.00,1.07
8051.00,1.07
8050.00,1.07
8049.00,1.08
8048.00,1.08
8047.00,1.08
8046.00,1.08
8045.00,1.08
8044.00,1.08
8043.00,1.08
8042.00,1.08
8041.00,1.08
8040.00,1.08
8039.00,1.08
8038.00,1.08
8037.00,1.08
8036.00,1.08
8035.00,1.08
8034.00,1.08
8033.00,1.08
8032.00,1.08
8031.00,1.08
8030.00,1.08
8029.00,1.08
8028.00,1.08
8027.00,1.08
8026.00,1.08
8025.00,1.08
8024.00,1.08
8023.00,1.08
8022.00,1.09
8021.00,1.09
8020.00,1.09
8019.00,1.09
8018.00,1.09
8017.00,1.09
8016.00,1.09
8015.00,1.09
8014.00,1.09
8013.00,1.10
8012.00,1.10
8011.00,1.10
8010.00,1.10
8009.00,1.09
8008.00,1.09
8007.00,1.09
8006.00,1.09
8005.00,1.09
8004.00,1.09
8003.00,1.09
8002.00,1.09
8001.00,1.09
8000.00,1.08
7999.00,1.08
7998.00,1.08
7997.00,1.08
7996.00,1.08
7995.00,1.08
7994.00,1.08
7993.00,1.08
7992.00,1.08
7991.00,1.08
7990.00,1.08
7989.00,1.09
7988.00,1.09
7987.00,1.09
7986.00,1.09
7985.00,1.09
7984.00,1.09
7983.00,1.09
7982.00,1.09
7981.00,1.09
7980.00,1.08
7979.00,1.08
7978.00,1.08
7977.00,1.08
7976.00,1.08
7975.00,1.08
7974.00,1.08
7973.00,1.08
7972.00,1.08
7971.00,1.09
7970.00,1.09
7969.00,1.09
7968.00,1.09
7967.00,1.09
7966.00,1.09
7965.00,1.09
7964.00,1.09
7963.00,1.10
7962.00,1.10
7961.00,1.10
7960.00,1.10
7959.00,1.10
7958.00,1.10
7957.00,1.10
7956.00,1.11
7955.00,1.11
7954.00,1.11
7953.00,1.11
7952.00,1.11
7951.00,1.11
7950.00,1.11
7949.00,1.11
7948.00,1.11
7947.00,1.11
7946.00,1.11
7945.00,1.11
7944.00,1.11
7943.00,1.10
7942.00,1.10
7941.00,1.10
7940.00,1.10
7939.00,1.10
7938.00,1.10
7937.00,1.10
7936.00,1.10
7935.00,1.10
7934.00,1.10
7933.00,1.10
7932.00,1.10
7931.00,1.10
7930.00,1.10
7929.00,1.10
7928.00,1.10
7927.00,1.10
7926.00,1.10
7925.00,1.10
7924.00,1.10
7923.00,1.10
7922.00,1.10
7921.00,1.10
7920.00,1.10
7919.00,1.10
7918.00,1.10
7917.00,1.10
7916.00,1.11
7915.00,1.11
7914.00,1.11
7913.00,1.11
7912.00,1.11
7911.00,1.11
7910.00,1.11
7909.00,1.11
7908.00,1.11
7907.00,1.11
7906.00,1.11
7905.00,1.11
7904.00,1.11
7903.00,1.11
7902.00,1.11
7901.00,1.11
7900.00,1.11
7899.00,1.11
7898.00,1.12
7897.00,1.12
7896.00,1.12
7895.00,1.12
7894.00,1.12
7893.00,1.12
7892.00,1.12
7891.00,1.12
7890.00,1.12
7889.00,1.12
7888.00,1.12
7887.00,1.12
7886.00,1.12
7885.00,1.11
7884.00,1.11
7883.00,1.11
7882.00,1.11
7881.00,1.11
7880.00,1.11
7879.00,1.11
7878.00,1.11
7877.00,1.11
7876.00,1.11
7875.00,1.11
7874.00,1.11
7873.00,1.11
7872.00,1.11
7871.00,1.11
7870.00,1.11
7869.00,1.11
7868.00,1.11
7867.00,1.11
7866.00,1.11
7865.00,1.11
7864.00,1.11
7863.00,1.11
7862.00,1.11
7861.00,1.11
7860.00,1.11
7859.00,1.11
7858.00,1.11
7857.00,1.11
7856.00,1.11
7855.00,1.12
7854.00,1.12
7853.00,1.12
7852.00,1.12
7851.00,1.12
7850.00,1.12
7849.00,1.12
7848.00,1.12
7847.00,1.12
7846.00,1.12
7845.00,1.12
7844.00,1.12
7843.00,1.12
7842.00,1.12
7841.00,1.12
7840.00,1.12
7839.00,1.12
7838.00,1.12
7837.00,1.12
7836.00,1.12
7835.00,1.12
7834.00,1.12
7833.00,1.12
7832.00,1.12
7831.00,1.12
7830.00,1.12
7829.00,1.12
7828.00,1.12
7827.00,1.12
7826.00,1.12
7825.00,1.12
7824.00,1.12
7823.00,1.12
7822.00,1.12
7821.00,1.12
7820.00,1.12
7819.00,1.12
7818.00,1.12
7817.00,1.12
7816.00,1.12
7815.00,1.12
7814.00,1.12
7813.00,1.12
7812.00,1.12
7811.00,1.12
7810.00,1.12
7809.00,1.12
7808.00,1.12
7807.00,1.12
7806.00,1.12
7805.00,1.12
7804.00,1.12
7803.00,1.12
7802.00,1.12
7801.00,1.12
7800.00,1.12
7799.00,1.12
7798.00,1.12
7797.00,1.12
7796.00,1.12
7795.00,1.12
7794.00,1.12
7793.00,1.12
7792.00,1.12
7791.00,1.12
7790.00,1.12
7789.00,1.12
7788.00,1.12
7787.00,1.12
7786.00,1.12
7785.00,1.12
7784.00,1.12
7783.00,1.12
7782.00,1.12
7781.00,1.12
7780.00,1.12
7779.00,1.12
7778.00,1.12
7777.00,1.12
7776.00,1.12
7775.00,1.12
7774.00,1.12
7773.00,1.12
7772.00,1.12
7771.00,1.12
7770.00,1.12
7769.00,1.13
7768.00,1.13
7767.00,1.13
7766.00,1.13
7765.00,1.13
7764.00,1.13
7763.00,1.13
7762.00,1.13
7761.00,1.13
7760.00,1.13
7759.00,1.13
7758.00,1.13
7757.00,1.13
7756.00,1.13
7755.00,1.13
7754.00,1.14
7753.00,1.14
7752.00,1.14
7751.00,1.14
7750.00,1.14
7749.00,1.14
7748.00,1.14
7747.00,1.14
7746.00,1.14
7745.00,1.14
7744.00,1.14
7743.00,1.14
7742.00,1.14
7741.00,1.14
7740.00,1.14
7739.00,1.14
7738.00,1.14
7737.00,1.14
7736.00,1.14
7735.00,1.14
7734.00,1.14
7733.00,1.14
7732.00,1.14
7731.00,1.14
7730.00,1.14
7729.00,1.14
7728.00,1.14
7727.00,1.14
7726.00,1.14
7725.00,1.13
7724.00,1.13
7723.00,1.13
7722.00,1.13
7721.00,1.13
7720.00,1.13
7719.00,1.13
7718.00,1.13
7717.00,1.13
7716.00,1.13
7715.00,1.13
7714.00,1.12
7713.00,1.12
7712.00,1.12
7711.00,1.12
7710.00,1.12
7709.00,1.12
7708.00,1.12
7707.00,1.12
7706.00,1.12
7705.00,1.13
7704.00,1.13
7703.00,1.13
7702.00,1.13
7701.00,1.13
7700.00,1.13
7699.00,1.13
7698.00,1.13
7697.00,1.13
7696.00,1.13
7695.00,1.13
7694.00,1.13
7693.00,1.13
7692.00,1.13
7691.00,1.13
7690.00,1.13
7689.00,1.13
7688.00,1.13
7687.00,1.13
7686.00,1.13
7685.00,1.13
7684.00,1.13
7683.00,1.13
7682.00,1.13
7681.00,1.13
7680.00,1.13
7679.00,1.13
7678.00,1.13
7677.00,1.13
7676.00,1.13
7675.00,1.13
7674.00,1.13
7673.00,1.13
7672.00,1.13
7671.00,1.13
7670.00,1.13
7669.00,1.13
7668.00,1.13
7667.00,1.13
7666.00,1.13
7665.00,1.13
7664.00,1.13
7663.00,1.14
7662.00,1.14
7661.00,1.14
7660.00,1.14
7659.00,1.14
7658.00,1.14
7657.00,1.14
7656.00,1.14
7655.00,1.14
7654.00,1.14
7653.00,1.14
7652.00,1.14
7651.00,1.14
7650.00,1.14
7649.00,1.14
7648.00,1.14
7647.00,1.14
7646.00,1.14
7645.00,1.14
7644.00,1.14
7643.00,1.13
7642.00,1.13
7641.00,1.13
7640.00,1.13
7639.00,1.13
7638.00,1.13
7637.00,1.13
7636.00,1.13
7635.00,1.13
7634.00,1.13
7633.00,1.13
7632.00,1.13
7631.00,1.13
7630.00,1.13
7629.00,1.13
7628.00,1.13
7627.00,1.13
7626.00,1.13
7625.00,1.13
7624.00,1.13
7623.00,1.13
7622.00,1.13
7621.00,1.13
7620.00,1.13
7619.00,1.13
7618.00,1.13
7617.00,1.13
7616.00,1.13
7615.00,1.13
7614.00,1.13
7613.00,1.13
7612.00,1.13
7611.00,1.13
7610.00,1.13
7609.00,1.13
7608.00,1.13
7607.00,1.13
7606.00,1.13
7605.00,1.13
7604.00,1.13
7603.00,1.13
7602.00,1.13
7601.00,1.13
7600.00,1.13
7599.00,1.13
7598.00,1.13
7597.00,1.13
7596.00,1.13
7595.00,1.13
7594.00,1.14
7593.00,1.14
7592.00,1.14
7591.00,1.14
7590.00,1.14
7589.00,1.14
7588.00,1.14
7587.00,1.14
7586.00,1.14
7585.00,1.14
7584.00,1.14
7583.00,1.14
7582.00,1.14
7581.00,1.14
7580.00,1.14
7579.00,1.14
7578.00,1.14
7577.00,1.14
7576.00,1.14
7575.00,1.14
7574.00,1.14
7573.00,1.13
7572.00,1.13
7571.00,1.13
7570.00,1.13
7569.00,1.13
7568.00,1.13
7567.00,1.13
7566.00,1.13
7565.00,1.13
7564.00,1.13
7563.00,1.13
7562.00,1.13
7561.00,1.13
7560.00,1.13
7559.00,1.13
7558.00,1.13
7557.00,1.13
7556.00,1.13
7555.00,1.13
7554.00,1.13
7553.00,1.13
7552.00,1.13
7551.00,1.13
7550.00,1.13
7549.00,1.13
7548.00,1.13
7547.00,1.13
7546.00,1.13
7545.00,1.13
7544.00,1.13
7543.00,1.12
7542.00,1.12
7541.00,1.12
7540.00,1.12
7539.00,1.12
7538.00,1.12
7537.00,1.12
7536.00,1.12
7535.00,1.12
7534.00,1.12
7533.00,1.11
7532.00,1.11
7531.00,1.11
7530.00,1.11
7529.00,1.11
7528.00,1.11
7527.00,1.11
7526.00,1.11
7525.00,1.11
7524.00,1.11
7523.00,1.11
7522.00,1.11
7521.00,1.11
7520.00,1.11
7519.00,1.11
7518.00,1.11
7517.00,1.11
7516.00,1.11
7515.00,1.11
7514.00,1.11
7513.00,1.11
7512.00,1.11
7511.00,1.11
7510.00,1.11
7509.00,1.11
7508.00,1.11
7507.00,1.11
7506.00,1.11
7505.00,1.11
7504.00,1.11
7503.00,1.11
7502.00,1.11
7501.00,1.11
7500.00,1.11
7499.00,1.11
7498.00,1.11
7497.00,1.11
7496.00,1.11
7495.00,1.11
7494.00,1.11
7493.00,1.11
7492.00,1.11
7491.00,1.11
7490.00,1.11
7489.00,1.11
7488.00,1.11
7487.00,1.11
7486.00,1.11
7485.00,1.11
7484.00,1.11
7483.00,1.11
7482.00,1.11
7481.00,1.11
7480.00,1.11
7479.00,1.11
7478.00,1.11
7477.00,1.11
7476.00,1.11
7475.00,1.11
7474.00,1.11
7473.00,1.11
7472.00,1.11
7471.00,1.11
7470.00,1.11
7469.00,1.11
7468.00,1.11
7467.00,1.11
7466.00,1.10
7465.00,1.10
7464.00,1.10
7463.00,1.10
7462.00,1.10
7461.00,1.10
7460.00,1.10
7459.00,1.10
7458.00,1.10
7457.00,1.10
7456.00,1.10
7455.00,1.10
7454.00,1.10
7453.00,1.09
7452.00,1.09
7451.00,1.09
7450.00,1.09
7449.00,1.09
7448.00,1.09
7447.00,1.09
7446.00,1.09
7445.00,1.09
7444.00,1.09
7443.00,1.09
7442.00,1.09
7441.00,1.09
7440.00,1.09
7439.00,1.09
7438.00,1.09
7437.00,1.09
7436.00,1.09
7435.00,1.09
7434.00,1.08
7433.00,1.08
7432.00,1.08
7431.00,1.08
7430.00,1.08
7429.00,1.08
7428.00,1.08
7427.00,1.08
7426.00,1.08
7425.00,1.08
7424.00,1.08
7423.00,1.07
7422.00,1.07
7421.00,1.07
7420.00,1.07
7419.00,1.07
7418.00,1.07
7417.00,1.07
7416.00,1.07
7415.00,1.07
7414.00,1.07
7413.00,1.07
7412.00,1.07
7411.00,1.06
7410.00,1.06
7409.00,1.06
7408.00,1.06
7407.00,1.06
7406.00,1.06
7405.00,1.06
7404.00,1.06
7403.00,1.06
7402.00,1.06
7401.00,1.06
7400.00,1.05
7399.00,1.05
7398.00,1.05
7397.00,1.05
7396.00,1.05
7395.00,1.05
7394.00,1.05
7393.00,1.05
7392.00,1.05
7391.00,1.05
7390.00,1.05
7389.00,1.04
7388.00,1.04
7387.00,1.04
7386.00,1.04
7385.00,1.04
7384.00,1.04
7383.00,1.04
7382.00,1.04
7381.00,1.04
7380.00,1.03
7379.00,1.03
7378.00,1.03
7377.00,1.03
7376.00,1.03
7375.00,1.03
7374.00,1.03
7373.00,1.03
7372.00,1.03
7371.00,1.03
7370.00,1.02
7369.00,1.02
7368.00,1.02
7367.00,1.02
7366.00,1.02
7365.00,1.02
7364.00,1.02
7363.00,1.03
7362.00,1.03
7361.00,1.03
7360.00,1.03
7359.00,1.03
7358.00,1.03
7357.00,1.03
7356.00,1.03
7355.00,1.03
7354.00,1.03
7353.00,1.03
7352.00,1.03
7351.00,1.03
7350.00,1.02
7349.00,1.02
7348.00,1.02
7347.00,1.02
7346.00,1.02
7345.00,1.02
7344.00,1.02
7343.00,1.02
7342.00,1.02
7341.00,1.02
7340.00,1.02
7339.00,1.02
7338.00,1.02
7337.00,1.02
7336.00,1.02
7335.00,1.02
7334.00,1.02
7333.00,1.02
7332.00,1.02
7331.00,1.02
7330.00,1.01
7329.00,1.01
7328.00,1.01
7327.00,1.01
7326.00,1.01
7325.00,1.01
7324.00,1.01
7323.00,1.01
7322.00,1.01
7321.00,1.01
7320.00,1.01
7319.00,1.01
7318.00,1.00
7317.00,1.00
7316.00,1.00
7315.00,1.00
7314.00,1.00
7313.00,1.00
7312.00,1.00
7311.00,1.00
7310.00,1.00
7309.00,1.00
7308.00,1.00
7307.00,0.99
7306.00,0.99
7305.00,0.99
7304.00,0.99
7303.00,0.99
7302.00,0.99
7301.00,0.99
7300.00,0.99
7299.00,0.99
7298.00,0.99
7297.00,0.99
7296.00,0.98
7295.00,0.98
7294.00,0.98
7293.00,0.98
7292.00,0.98
7291.00,0.98
7290.00,0.98
7289.00,0.98
7288.00,0.98
7287.00,0.98
7286.00,0.98
7285.00,0.98
7284.00,0.98
7283.00,0.97
7282.00,0.97
7281.00,0.97
7280.00,0.97
7279.00,0.97
7278.00,0.97
7277.00,0.97
7276.00,0.97
7275.00,0.96
7274.00,0.96
7273.00,0.96
7272.00,0.96
7271.00,0.96
7270.00,0.96
7269.00,0.96
7268.00,0.96
7267.00,0.96
7266.00,0.96
7265.00,0.96
7264.00,0.95
7263.00,0.95
7262.00,0.95
7261.00,0.95
7260.00,0.95
7259.00,0.95
7258.00,0.95
7257.00,0.95
7256.00,0.95
7255.00,0.95
7254.00,0.94
7253.00,0.94
7252.00,0.94
7251.00,0.94
7250.00,0.94
7249.00,0.94
7248.00,0.94
7247.00,0.94
7246.00,0.93
7245.00,0.93
7244.00,0.93
7243.00,0.93
7242.00,0.93
7241.00,0.92
7240.00,0.92
7239.00,0.92
7238.00,0.92
7237.00,0.92
7236.00,0.91
7235.00,0.91
7234.00,0.91
7233.00,0.91
7232.00,0.90
7231.00,0.90
7230.00,0.90
7229.00,0.90
7228.00,0.89
7227.00,0.89
7226.00,0.89
7225.00,0.89
7224.00,0.89
7223.00,0.88
7222.00,0.88
7221.00,0.88
7220.00,0.88
7219.00,0.87
7218.00,0.87
7217.00,0.87
7216.00,0.87
7215.00,0.86
7214.00,0.86
7213.00,0.86
7212.00,0.85
7211.00,0.85
7210.00,0.85
7209.00,0.84
7208.00,0.84
7207.00,0.84
7206.00,0.83
7205.00,0.83
7204.00,0.83
7203.00,0.83
7202.00,0.82
7201.00,0.82
7200.00,0.82
7199.00,0.82
7198.00,0.81
7197.00,0.81
7196.00,0.81
7195.00,0.81
7194.00,0.80
7193.00,0.80
7192.00,0.80
7191.00,0.80
7190.00,0.80
7189.00,0.80
7188.00,0.79
7187.00,0.79
7186.00,0.79
7185.00,0.79
7184.00,0.79
7183.00,0.79
7182.00,0.79
7181.00,0.78
7180.00,0.78
7179.00,0.78
7178.00,0.78
7177.00,0.78
7176.00,0.77
7175.00,0.77
7174.00,0.77
7173.00,0.77
7172.00,0.77
7171.00,0.77
7170.00,0.76
7169.00,0.76
7168.00,0.76
7167.00,0.76
7166.00,0.76
7165.00,0.75
7164.00,0.75
7163.00,0.75
7162.00,0.75
7161.00,0.75
7160.00,0.74
7159.00,0.74
7158.00,0.74
7157.00,0.74
7156.00,0.74
7155.00,0.74
7154.00,0.73
7153.00,0.73
7152.00,0.73
7151.00,0.73
7150.00,0.73
7149.00,0.72
7148.00,0.72
7147.00,0.72
7146.00,0.72
7145.00,0.72
7144.00,0.72
7143.00,0.72
7142.00,0.71
7141.00,0.71
7140.00,0.71
7139.00,0.71
7138.00,0.71
7137.00,0.71
7136.00,0.71
7135.00,0.70
7134.00,0.70
7133.00,0.70
7132.00,0.70
7131.00,0.70
7130.00,0.70
7129.00,0.69
7128.00,0.69
7127.00,0.69
7126.00,0.69
7125.00,0.69
7124.00,0.68
7123.00,0.68
7122.00,0.68
7121.00,0.68
7120.00,0.67
7119.00,0.67
7118.00,0.67
7117.00,0.67
7116.00,0.66
7115.00,0.66
7114.00,0.66
7113.00,0.66
7112.00,0.65
7111.00,0.65
7110.00,0.65
7109.00,0.65
7108.00,0.65
7107.00,0.65
7106.00,0.64
7105.00,0.64
7104.00,0.64
7103.00,0.64
7102.00,0.64
7101.00,0.64
7100.00,0.64
7099.00,0.63
7098.00,0.63
7097.00,0.63
7096.00,0.63
7095.00,0.63
7094.00,0.63
7093.00,0.62
7092.00,0.62
7091.00,0.62
7090.00,0.62
7089.00,0.62
7088.00,0.62
7087.00,0.62
7086.00,0.62
7085.00,0.62
7084.00,0.61
7083.00,0.61
7082.00,0.61
7081.00,0.61
7080.00,0.61
7079.00,0.61
7078.00,0.61
7077.00,0.61
7076.00,0.61
7075.00,0.61
7074.00,0.61
7073.00,0.61
7072.00,0.61
7071.00,0.61
7070.00,0.61
7069.00,0.60
7068.00,0.60
7067.00,0.60
7066.00,0.60
7065.00,0.60
7064.00,0.60
7063.00,0.60
7062.00,0.60
7061.00,0.60
7060.00,0.60
7059.00,0.60
7058.00,0.60
7057.00,0.60
7056.00,0.60
7055.00,0.60
7054.00,0.60
7053.00,0.60
7052.00,0.59
7051.00,0.59
7050.00,0.59
7049.00,0.59
7048.00,0.59
7047.00,0.59
7046.00,0.59
7045.00,0.59
7044.00,0.59
7043.00,0.59
7042.00,0.59
7041.00,0.58
7040.00,0.58
7039.00,0.58
7038.00,0.58
7037.00,0.58
7036.00,0.58
7035.00,0.58
7034.00,0.58
7033.00,0.57
7032.00,0.57
7031.00,0.57
7030.00,0.57
7029.00,0.57
7028.00,0.57
7027.00,0.57
7026.00,0.57
7025.00,0.57
7024.00,0.56
7023.00,0.56
7022.00,0.56
7021.00,0.56
7020.00,0.56
7019.00,0.56
7018.00,0.56
7017.00,0.56
7016.00,0.56
7015.00,0.56
7014.00,0.56
7013.00,0.56
7012.00,0.56
7011.00,0.56
7010.00,0.56
7009.00,0.56
7008.00,0.56
7007.00,0.56
7006.00,0.56
7005.00,0.56
7004.00,0.56
7003.00,0.56
7002.00,0.56
7001.00,0.56
7000.00,0.56
6999.00,0.55
6998.00,0.55
6997.00,0.55
6996.00,0.55
6995.00,0.55
6994.00,0.55
6993.00,0.55
6992.00,0.55
6991.00,0.55
6990.00,0.55
6989.00,0.55
6988.00,0.55
6987.00,0.55
6986.00,0.55
6985.00,0.55
6984.00,0.55
6983.00,0.55
6982.00,0.55
6981.00,0.55
6980.00,0.55
6979.00,0.55
6978.00,0.55
6977.00,0.55
6976.00,0.55
6975.00,0.55
6974.00,0.56
6973.00,0.56
6972.00,0.56
6971.00,0.56
6970.00,0.56
6969.00,0.56
6968.00,0.56
6967.00,0.56
6966.00,0.56
6965.00,0.56
6964.00,0.56
6963.00,0.56
6962.00,0.55
6961.00,0.55
6960.00,0.55
6959.00,0.55
6958.00,0.55
6957.00,0.55
6956.00,0.55
6955.00,0.55
6954.00,0.55
6953.00,0.55
6952.00,0.55
6951.00,0.55
6950.00,0.55
6949.00,0.55
6948.00,0.55
6947.00,0.55
6946.00,0.55
6945.00,0.55
6944.00,0.56
6943.00,0.56
6942.00,0.56
6941.00,0.55
6940.00,0.55
6939.00,0.55
6938.00,0.55
6937.00,0.55
6936.00,0.55
6935.00,0.55
6934.00,0.55
6933.00,0.55
6932.00,0.55
6931.00,0.55
6930.00,0.55
6929.00,0.55
6928.00,0.55
6927.00,0.55
6926.00,0.55
6925.00,0.55
6924.00,0.55
6923.00,0.55
6922.00,0.55
6921.00,0.55
6920.00,0.55
6919.00,0.55
6918.00,0.55
6917.00,0.55
6916.00,0.55
6915.00,0.55
6914.00,0.55
6913.00,0.55
6912.00,0.55
6911.00,0.54
6910.00,0.54
6909.00,0.54
6908.00,0.54
6907.00,0.54
6906.00,0.54
6905.00,0.54
6904.00,0.54
6903.00,0.54
6902.00,0.54
6901.00,0.54
6900.00,0.54
6899.00,0.53
6898.00,0.53
6897.00,0.53
6896.00,0.53
6895.00,0.53
6894.00,0.53
6893.00,0.53
6892.00,0.53
6891.00,0.53
6890.00,0.53
6889.00,0.53
6888.00,0.53
6887.00,0.53
6886.00,0.53
6885.00,0.53
6884.00,0.53
6883.00,0.53
6882.00,0.53
6881.00,0.53
6880.00,0.53
6879.00,0.53
6878.00,0.53
6877.00,0.53
6876.00,0.53
6875.00,0.53
6874.00,0.53
6873.00,0.53
6872.00,0.53
6871.00,0.53
6870.00,0.54
6869.00,0.54
6868.00,0.54
6867.00,0.54
6866.00,0.54
6865.00,0.54
6864.00,0.54
6863.00,0.54
6862.00,0.54
6861.00,0.54
6860.00,0.54
6859.00,0.54
6858.00,0.54
6857.00,0.54
6856.00,0.54
6855.00,0.54
6854.00,0.54
6853.00,0.54
6852.00,0.54
6851.00,0.54
6850.00,0.54
6849.00,0.54
6848.00,0.54
6847.00,0.54
6846.00,0.54
6845.00,0.54
6844.00,0.54
6843.00,0.54
6842.00,0.54
6841.00,0.54
6840.00,0.54
6839.00,0.54
6838.00,0.54
6837.00,0.54
6836.00,0.54
6835.00,0.54
6834.00,0.54
6833.00,0.54
6832.00,0.54
6831.00,0.54
6830.00,0.54
6829.00,0.54
6828.00,0.54
6827.00,0.54
6826.00,0.54
6825.00,0.54
6824.00,0.54
6823.00,0.54
6822.00,0.54
6821.00,0.54
6820.00,0.54
6819.00,0.54
6818.00,0.54
6817.00,0.54
6816.00,0.54
6815.00,0.54
6814.00,0.55
6813.00,0.55
6812.00,0.55
6811.00,0.55
6810.00,0.55
6809.00,0.55
6808.00,0.55
6807.00,0.55
6806.00,0.55
6805.00,0.55
6804.00,0.55
6803.00,0.55
6802.00,0.55
6801.00,0.55
6800.00,0.56
6799.00,0.56
6798.00,0.56
6797.00,0.56
6796.00,0.56
6795.00,0.56
6794.00,0.56
6793.00,0.56
6792.00,0.56
6791.00,0.56
6790.00,0.56
6789.00,0.56
6788.00,0.56
6787.00,0.56
6786.00,0.56
6785.00,0.56
6784.00,0.56
6783.00,0.56
6782.00,0.56
6781.00,0.56
6780.00,0.56
6779.00,0.56
6778.00,0.56
6777.00,0.56
6776.00,0.56
6775.00,0.56
6774.00,0.56
6773.00,0.56
6772.00,0.56
6771.00,0.56
6770.00,0.56
6769.00,0.56
6768.00,0.56
6767.00,0.56
6766.00,0.56
6765.00,0.56
6764.00,0.56
6763.00,0.56
6762.00,0.56
6761.00,0.56
6760.00,0.56
6759.00,0.56
6758.00,0.56
6757.00,0.57
6756.00,0.57
6755.00,0.57
6754.00,0.57
6753.00,0.57
6752.00,0.57
6751.00,0.57
6750.00,0.57
6749.00,0.57
6748.00,0.57
6747.00,0.57
6746.00,0.57
6745.00,0.57
6744.00,0.57
6743.00,0.57
6742.00,0.57
6741.00,0.57
6740.00,0.57
6739.00,0.57
6738.00,0.57
6737.00,0.57
6736.00,0.57
6735.00,0.58
6734.00,0.58
6733.00,0.58
6732.00,0.58
6731.00,0.58
6730.00,0.58
6729.00,0.58
6728.00,0.58
6727.00,0.58
6726.00,0.58
6725.00,0.58
6724.00,0.58
6723.00,0.58
6722.00,0.58
6721.00,0.58
6720.00,0.58
6719.00,0.58
6718.00,0.58
6717.00,0.58
6716.00,0.58
6715.00,0.58
6714.00,0.58
6713.00,0.58
6712.00,0.58
6711.00,0.58
6710.00,0.58
6709.00,0.58
6708.00,0.58
6707.00,0.58
6706.00,0.59
6705.00,0.59
6704.00,0.59
6703.00,0.59
6702.00,0.59
6701.00,0.59
6700.00,0.59
6699.00,0.59
6698.00,0.59
6697.00,0.59
6696.00,0.59
6695.00,0.59
6694.00,0.59
6693.00,0.59
6692.00,0.59
6691.00,0.59
6690.00,0.59
6689.00,0.59
6688.00,0.60
6687.00,0.60
6686.00,0.60
6685.00,0.60
6684.00,0.60
6683.00,0.60
6682.00,0.60
6681.00,0.60
6680.00,0.60
6679.00,0.60
6678.00,0.60
6677.00,0.60
6676.00,0.60
6675.00,0.60
6674.00,0.60
6673.00,0.60
6672.00,0.60
6671.00,0.60
6670.00,0.61
6669.00,0.61
6668.00,0.61
6667.00,0.61
6666.00,0.61
6665.00,0.61
6664.00,0.61
6663.00,0.61
6662.00,0.61
6661.00,0.61
6660.00,0.61
6659.00,0.61
6658.00,0.62
6657.00,0.62
6656.00,0.62
6655.00,0.62
6654.00,0.62
6653.00,0.62
6652.00,0.62
6651.00,0.62
6650.00,0.62
6649.00,0.62
6648.00,0.62
6647.00,0.62
6646.00,0.62
6645.00,0.62
6644.00,0.62
6643.00,0.62
6642.00,0.62
6641.00,0.63
6640.00,0.63
6639.00,0.63
6638.00,0.63
6637.00,0.63
6636.00,0.63
6635.00,0.63
6634.00,0.63
6633.00,0.63
6632.00,0.63
6631.00,0.64
6630.00,0.64
6629.00,0.64
6628.00,0.64
6627.00,0.64
6626.00,0.64
6625.00,0.64
6624.00,0.64
6623.00,0.64
6622.00,0.64
6621.00,0.64
6620.00,0.64
6619.00,0.64
6618.00,0.64
6617.00,0.64
6616.00,0.64
6615.00,0.64
6614.00,0.64
6613.00,0.64
6612.00,0.64
6611.00,0.64
6610.00,0.64
6609.00,0.64
6608.00,0.64
6607.00,0.64
6606.00,0.64
6605.00,0.64
6604.00,0.64
6603.00,0.65
6602.00,0.65
6601.00,0.65
6600.00,0.65
6599.00,0.65
6598.00,0.65
6597.00,0.65
6596.00,0.65
6595.00,0.65
6594.00,0.65
6593.00,0.65
6592.00,0.65
6591.00,0.65
6590.00,0.65
6589.00,0.65
6588.00,0.65
6587.00,0.65
6586.00,0.65
6585.00,0.65
6584.00,0.65
6583.00,0.65
6582.00,0.65
6581.00,0.65
6580.00,0.65
6579.00,0.65
6578.00,0.65
6577.00,0.65
6576.00,0.65
6575.00,0.65
6574.00,0.65
6573.00,0.65
6572.00,0.66
6571.00,0.66
6570.00,0.66
6569.00,0.66
6568.00,0.66
6567.00,0.66
6566.00,0.66
6565.00,0.66
6564.00,0.67
6563.00,0.67
6562.00,0.67
6561.00,0.67
6560.00,0.67
6559.00,0.67
6558.00,0.67
6557.00,0.67
6556.00,0.67
6555.00,0.67
6554.00,0.67
6553.00,0.67
6552.00,0.67
6551.00,0.67
6550.00,0.67
6549.00,0.67
6548.00,0.67
6547.00,0.67
6546.00,0.67
6545.00,0.67
6544.00,0.67
6543.00,0.67
6542.00,0.67
6541.00,0.67
6540.00,0.67
6539.00,0.67
6538.00,0.68
6537.00,0.68
6536.00,0.68
6535.00,0.68
6534.00,0.68
6533.00,0.68
6532.00,0.68
6531.00,0.68
6530.00,0.68
6529.00,0.68
6528.00,0.68
6527.00,0.68
6526.00,0.68
6525.00,0.68
6524.00,0.68
6523.00,0.68
6522.00,0.68
6521.00,0.69
6520.00,0.69
6519.00,0.69
6518.00,0.69
6517.00,0.69
6516.00,0.69
6515.00,0.69
6514.00,0.69
6513.00,0.69
6512.00,0.69
6511.00,0.69
6510.00,0.69
6509.00,0.69
6508.00,0.69
6507.00,0.69
6506.00,0.69
6505.00,0.69
6504.00,0.69
6503.00,0.69
6502.00,0.69
6501.00,0.69
6500.00,0.69
6499.00,0.70
6498.00,0.70
6497.00,0.70
6496.00,0.70
6495.00,0.70
6494.00,0.70
6493.00,0.70
6492.00,0.70
6491.00,0.70
6490.00,0.70
6489.00,0.70
6488.00,0.70
6487.00,0.70
6486.00,0.70
6485.00,0.70
6484.00,0.70
6483.00,0.70
6482.00,0.70
6481.00,0.70
6480.00,0.70
6479.00,0.70
6478.00,0.70
6477.00,0.70
6476.00,0.70
6475.00,0.70
6474.00,0.70
6473.00,0.70
6472.00,0.70
6471.00,0.70
6470.00,0.70
6469.00,0.70
6468.00,0.71
6467.00,0.71
6466.00,0.71
6465.00,0.71
6464.00,0.71
6463.00,0.71
6462.00,0.71
6461.00,0.71
6460.00,0.71
6459.00,0.71
6458.00,0.72
6457.00,0.72
6456.00,0.72
6455.00,0.72
6454.00,0.72
6453.00,0.72
6452.00,0.72
6451.00,0.72
6450.00,0.72
6449.00,0.72
6448.00,0.72
6447.00,0.72
6446.00,0.72
6445.00,0.72
6444.00,0.72
6443.00,0.72
6442.00,0.72
6441.00,0.72
6440.00,0.72
6439.00,0.72
6438.00,0.72
6437.00,0.72
6436.00,0.72
6435.00,0.72
6434.00,0.72
6433.00,0.72
6432.00,0.72
6431.00,0.72
6430.00,0.72
6429.00,0.72
6428.00,0.72
6427.00,0.72
6426.00,0.72
6425.00,0.72
6424.00,0.72
6423.00,0.72
6422.00,0.72
6421.00,0.72
6420.00,0.72
6419.00,0.72
6418.00,0.72
6417.00,0.72
6416.00,0.72
6415.00,0.72
6414.00,0.72
6413.00,0.72
6412.00,0.72
6411.00,0.72
6410.00,0.73
6409.00,0.73
6408.00,0.73
6407.00,0.73
6406.00,0.73
6405.00,0.73
6404.00,0.73
6403.00,0.73
6402.00,0.73
6401.00,0.73
6400.00,0.73
6399.00,0.73
6398.00,0.73
6397.00,0.73
6396.00,0.73
6395.00,0.73
6394.00,0.73
6393.00,0.73
6392.00,0.73
6391.00,0.73
6390.00,0.73
6389.00,0.74
6388.00,0.74
6387.00,0.74
6386.00,0.74
6385.00,0.74
6384.00,0.74
6383.00,0.74
6382.00,0.74
6381.00,0.74
6380.00,0.74
6379.00,0.74
6378.00,0.74
6377.00,0.74
6376.00,0.74
6375.00,0.74
6374.00,0.74
6373.00,0.74
6372.00,0.74
6371.00,0.74
6370.00,0.74
6369.00,0.74
6368.00,0.74
6367.00,0.75
6366.00,0.75
6365.00,0.75
6364.00,0.75
6363.00,0.75
6362.00,0.75
6361.00,0.75
6360.00,0.75
6359.00,0.75
6358.00,0.75
6357.00,0.75
6356.00,0.75
6355.00,0.75
6354.00,0.75
6353.00,0.75
6352.00,0.75
6351.00,0.75
6350.00,0.75
6349.00,0.75
6348.00,0.75
6347.00,0.75
6346.00,0.75
6345.00,0.75
6344.00,0.75
6343.00,0.75
6342.00,0.75
6341.00,0.75
6340.00,0.75
6339.00,0.75
6338.00,0.75
6337.00,0.76
6336.00,0.76
6335.00,0.76
6334.00,0.76
6333.00,0.76
6332.00,0.76
6331.00,0.76
6330.00,0.76
6329.00,0.76
6328.00,0.76
6327.00,0.76
6326.00,0.76
6325.00,0.77
6324.00,0.77
6323.00,0.77
6322.00,0.77
6321.00,0.77
6320.00,0.77
6319.00,0.77
6318.00,0.77
6317.00,0.77
6316.00,0.77
6315.00,0.77
6314.00,0.77
6313.00,0.77
6312.00,0.77
6311.00,0.77
6310.00,0.77
6309.00,0.77
6308.00,0.77
6307.00,0.78
6306.00,0.78
6305.00,0.78
6304.00,0.78
6303.00,0.78
6302.00,0.78
6301.00,0.78
6300.00,0.78
6299.00,0.78
6298.00,0.78
6297.00,0.78
6296.00,0.78
6295.00,0.78
6294.00,0.79
6293.00,0.79
6292.00,0.79
6291.00,0.79
6290.00,0.79
6289.00,0.79
6288.00,0.79
6287.00,0.79
6286.00,0.79
6285.00,0.79
6284.00,0.79
6283.00,0.79
6282.00,0.79
6281.00,0.80
6280.00,0.80
6279.00,0.80
6278.00,0.80
6277.00,0.80
6276.00,0.80
6275.00,0.80
6274.00,0.80
6273.00,0.80
6272.00,0.80
6271.00,0.80
6270.00,0.80
6269.00,0.80
6268.00,0.80
6267.00,0.81
6266.00,0.81
6265.00,0.81
6264.00,0.81
6263.00,0.81
6262.00,0.81
6261.00,0.81
6260.00,0.81
6259.00,0.81
6258.00,0.81
6257.00,0.81
6256.00,0.82
6255.00,0.82
6254.00,0.82
6253.00,0.82
6252.00,0.82
6251.00,0.82
6250.00,0.82
6249.00,0.82
6248.00,0.83
6247.00,0.83
6246.00,0.83
6245.00,0.83
6244.00,0.83
6243.00,0.83
6242.00,0.83
6241.00,0.83
6240.00,0.83
6239.00,0.83
6238.00,0.83
6237.00,0.83
6236.00,0.83
6235.00,0.84
6234.00,0.84
6233.00,0.84
6232.00,0.84
6231.00,0.84
6230.00,0.84
6229.00,0.84
6228.00,0.84
6227.00,0.84
6226.00,0.84
6225.00,0.84
6224.00,0.84
6223.00,0.84
6222.00,0.84
6221.00,0.85
6220.00,0.85
6219.00,0.85
6218.00,0.85
6217.00,0.85
6216.00,0.85
6215.00,0.85
6214.00,0.85
6213.00,0.85
6212.00,0.85
6211.00,0.86
6210.00,0.86
6209.00,0.86
6208.00,0.86
6207.00,0.86
6206.00,0.86
6205.00,0.86
6204.00,0.86
6203.00,0.87
6202.00,0.87
6201.00,0.87
6200.00,0.87
6199.00,0.87
6198.00,0.87
6197.00,0.87
6196.00,0.88
6195.00,0.88
6194.00,0.88
6193.00,0.88
6192.00,0.88
6191.00,0.88
6190.00,0.88
6189.00,0.88
6188.00,0.88
6187.00,0.88
6186.00,0.88
6185.00,0.88
6184.00,0.89
6183.00,0.89
6182.00,0.89
6181.00,0.89
6180.00,0.89
6179.00,0.89
6178.00,0.89
6177.00,0.89
6176.00,0.89
6175.00,0.89
6174.00,0.89
6173.00,0.89
6172.00,0.89
6171.00,0.90
6170.00,0.90
6169.00,0.90
6168.00,0.90
6167.00,0.90
6166.00,0.90
6165.00,0.90
6164.00,0.90
6163.00,0.90
6162.00,0.90
6161.00,0.91
6160.00,0.91
6159.00,0.91
6158.00,0.91
6157.00,0.91
6156.00,0.91
6155.00,0.91
6154.00,0.91
6153.00,0.92
6152.00,0.92
6151.00,0.92
6150.00,0.92
6149.00,0.92
6148.00,0.92
6147.00,0.92
6146.00,0.93
6145.00,0.93
6144.00,0.93
6143.00,0.93
6142.00,0.93
6141.00,0.93
6140.00,0.94
6139.00,0.94
6138.00,0.94
6137.00,0.94
6136.00,0.94
6135.00,0.94
6134.00,0.94
6133.00,0.95
6132.00,0.95
6131.00,0.95
6130.00,0.95
6129.00,0.95
6128.00,0.95
6127.00,0.95
6126.00,0.96
6125.00,0.96
6124.00,0.96
6123.00,0.96
6122.00,0.96
6121.00,0.96
6120.00,0.96
6119.00,0.96
6118.00,0.96
6117.00,0.96
6116.00,0.97
6115.00,0.97
6114.00,0.97
6113.00,0.97
6112.00,0.97
6111.00,0.97
6110.00,0.97
6109.00,0.97
6108.00,0.97
6107.00,0.97
6106.00,0.97
6105.00,0.97
6104.00,0.97
6103.00,0.98
6102.00,0.98
6101.00,0.98
6100.00,0.98
6099.00,0.98
6098.00,0.98
6097.00,0.98
6096.00,0.98
6095.00,0.98
6094.00,0.99
6093.00,0.99
6092.00,0.99
6091.00,0.99
6090.00,0.99
6089.00,0.99
6088.00,0.99
6087.00,0.99
6086.00,0.99
6085.00,1.00
6084.00,1.00
6083.00,1.00
6082.00,1.00
6081.00,1.00
6080.00,1.00
6079.00,1.00
6078.00,1.00
6077.00,1.00
6076.00,1.00
6075.00,1.01
6074.00,1.01
6073.00,1.01
6072.00,1.01
6071.00,1.01
6070.00,1.01
6069.00,1.01
6068.00,1.01
6067.00,1.01
6066.00,1.01
6065.00,1.02
6064.00,1.02
6063.00,1.02
6062.00,1.02
6061.00,1.02
6060.00,1.02
6059.00,1.02
6058.00,1.02
6057.00,1.02
6056.00,1.02
6055.00,1.02
6054.00,1.02
6053.00,1.02
6052.00,1.02
6051.00,1.02
6050.00,1.02
6049.00,1.03
6048.00,1.03
6047.00,1.03
6046.00,1.03
6045.00,1.03
6044.00,1.03
6043.00,1.03
6042.00,1.03
6041.00,1.03
6040.00,1.03
6039.00,1.03
6038.00,1.03
6037.00,1.03
6036.00,1.03
6035.00,1.03
6034.00,1.03
6033.00,1.03
6032.00,1.03
6031.00,1.03
6030.00,1.03
6029.00,1.03
6028.00,1.03
6027.00,1.03
6026.00,1.03
6025.00,1.03
6024.00,1.03
6023.00,1.03
6022.00,1.03
6021.00,1.04
6020.00,1.04
6019.00,1.04
6018.00,1.04
6017.00,1.04
6016.00,1.04
6015.00,1.04
6014.00,1.04
6013.00,1.04
6012.00,1.04
6011.00,1.04
6010.00,1.04
6009.00,1.04
6008.00,1.04
6007.00,1.04
6006.00,1.04
6005.00,1.03
6004.00,1.03
6003.00,1.03
6002.00,1.03
6001.00,1.03
6000.00,1.03
5999.00,1.03
5998.00,1.03
5997.00,1.03
5996.00,1.02
5995.00,1.02
5994.00,1.02
5993.00,1.02
5992.00,1.02
5991.00,1.02
5990.00,1.02
5989.00,1.02
5988.00,1.01
5987.00,1.01
5986.00,1.01
5985.00,1.01
5984.00,1.01
5983.00,1.01
5982.00,1.00
5981.00,1.00
5980.00,1.00
5979.00,1.00
5978.00,0.99
5977.00,0.99
5976.00,0.99
5975.00,0.98
5974.00,0.98
5973.00,0.98
5972.00,0.97
5971.00,0.97
5970.00,0.96
5969.00,0.96
5968.00,0.95
5967.00,0.95
5966.00,0.94
5965.00,0.94
5964.00,0.93
5963.00,0.92
5962.00,0.92
5961.00,0.91
5960.00,0.91
5959.00,0.90
5958.00,0.89
5957.00,0.89
5956.00,0.88
5955.00,0.87
5954.00,0.87
5953.00,0.86
5952.00,0.86
5951.00,0.85
5950.00,0.85
5949.00,0.84
5948.00,0.84
5947.00,0.84
5946.00,0.83
5945.00,0.83
5944.00,0.83
5943.00,0.82
5942.00,0.82
5941.00,0.82
5940.00,0.82
5939.00,0.81
5938.00,0.81
5937.00,0.81
5936.00,0.81
5935.00,0.81
5934.00,0.81
5933.00,0.81
5932.00,0.81
5931.00,0.81
5930.00,0.81
5929.00,0.81
5928.00,0.80
5927.00,0.80
5926.00,0.80
5925.00,0.80
5924.00,0.80
5923.00,0.80
5922.00,0.80
5921.00,0.80
5920.00,0.80
5919.00,0.80
5918.00,0.79
5917.00,0.79
5916.00,0.79
5915.00,0.79
5914.00,0.79
5913.00,0.78
5912.00,0.78
5911.00,0.78
5910.00,0.78
5909.00,0.78
5908.00,0.77
5907.00,0.77
5906.00,0.77
5905.00,0.77
5904.00,0.77
5903.00,0.77
5902.00,0.77
5901.00,0.77
5900.00,0.77
5899.00,0.77
5898.00,0.77
5897.00,0.77
5896.00,0.77
5895.00,0.77
5894.00,0.78
5893.00,0.78
5892.00,0.78
5891.00,0.78
5890.00,0.78
5889.00,0.78
5888.00,0.79
5887.00,0.79
5886.00,0.79
5885.00,0.79
5884.00,0.79
5883.00,0.80
5882.00,0.80
5881.00,0.80
5880.00,0.80
5879.00,0.80
5878.00,0.81
5877.00,0.81
5876.00,0.81
5875.00,0.81
5874.00,0.81
5873.00,0.81
5872.00,0.82
5871.00,0.82
5870.00,0.82
5869.00,0.82
5868.00,0.82
5867.00,0.83
5866.00,0.83
5865.00,0.83
5864.00,0.83
5863.00,0.83
5862.00,0.83
5861.00,0.84
5860.00,0.84
5859.00,0.84
5858.00,0.84
5857.00,0.84
5856.00,0.84
5855.00,0.85
5854.00,0.85
5853.00,0.85
5852.00,0.85
5851.00,0.85
5850.00,0.85
5849.00,0.85
5848.00,0.85
5847.00,0.85
5846.00,0.85
5845.00,0.85
5844.00,0.85
5843.00,0.85
5842.00,0.85
5841.00,0.85
5840.00,0.85
5839.00,0.85
5838.00,0.85
5837.00,0.85
5836.00,0.85
5835.00,0.85
5834.00,0.85
5833.00,0.85
5832.00,0.85
5831.00,0.85
5830.00,0.85
5829.00,0.85
5828.00,0.85
5827.00,0.85
5826.00,0.85
5825.00,0.85
5824.00,0.85
5823.00,0.85
5822.00,0.85
5821.00,0.85
5820.00,0.85
5819.00,0.85
5818.00,0.85
5817.00,0.85
5816.00,0.85
5815.00,0.85
5814.00,0.85
5813.00,0.85
5812.00,0.85
5811.00,0.85
5810.00,0.85
5809.00,0.85
5808.00,0.85
5807.00,0.85
5806.00,0.85
5805.00,0.85
5804.00,0.85
5803.00,0.85
5802.00,0.85
5801.00,0.85
5800.00,0.85
5799.00,0.85
5798.00,0.85
5797.00,0.85
5796.00,0.84
5795.00,0.84
5794.00,0.84
5793.00,0.84
5792.00,0.84
5791.00,0.84
5790.00,0.83
5789.00,0.83
5788.00,0.83
5787.00,0.83
5786.00,0.83
5785.00,0.82
5784.00,0.82
5783.00,0.82
5782.00,0.82
5781.00,0.82
5780.00,0.82
5779.00,0.82
5778.00,0.82
5777.00,0.82
5776.00,0.82
5775.00,0.81
5774.00,0.81
5773.00,0.81
5772.00,0.82
5771.00,0.82
5770.00,0.82
5769.00,0.82
5768.00,0.82
5767.00,0.82
5766.00,0.82
5765.00,0.82
5764.00,0.82
5763.00,0.82
5762.00,0.83
5761.00,0.83
5760.00,0.83
5759.00,0.83
5758.00,0.83
5757.00,0.84
5756.00,0.84
5755.00,0.84
5754.00,0.84
5753.00,0.85
5752.00,0.85
5751.00,0.85
5750.00,0.86
5749.00,0.86
5748.00,0.86
5747.00,0.86
5746.00,0.87
5745.00,0.87
5744.00,0.87
5743.00,0.88
5742.00,0.88
5741.00,0.88
5740.00,0.88
5739.00,0.89
5738.00,0.89
5737.00,0.89
5736.00,0.89
5735.00,0.89
5734.00,0.90
5733.00,0.90
5732.00,0.90
5731.00,0.90
5730.00,0.90
5729.00,0.90
5728.00,0.90
5727.00,0.91
5726.00,0.91
5725.00,0.91
5724.00,0.91
5723.00,0.91
5722.00,0.91
5721.00,0.91
5720.00,0.91
5719.00,0.91
5718.00,0.91
5717.00,0.92
5716.00,0.92
5715.00,0.92
5714.00,0.92
5713.00,0.92
5712.00,0.92
5711.00,0.92
5710.00,0.92
5709.00,0.92
5708.00,0.92
5707.00,0.92
5706.00,0.92
5705.00,0.91
5704.00,0.91
5703.00,0.91
5702.00,0.91
5701.00,0.91
5700.00,0.91
5699.00,0.91
5698.00,0.91
5697.00,0.91
5696.00,0.91
5695.00,0.90
5694.00,0.90
5693.00,0.90
5692.00,0.90
5691.00,0.90
5690.00,0.90
5689.00,0.90
5688.00,0.90
5687.00,0.89
5686.00,0.89
5685.00,0.89
5684.00,0.89
5683.00,0.89
5682.00,0.89
5681.00,0.89
5680.00,0.89
5679.00,0.89
5678.00,0.89
5677.00,0.89
5676.00,0.89
5675.00,0.89
5674.00,0.89
5673.00,0.89
5672.00,0.89
5671.00,0.89
5670.00,0.89
5669.00,0.89
5668.00,0.89
5667.00,0.89
5666.00,0.89
5665.00,0.90
5664.00,0.90
5663.00,0.90
5662.00,0.90
5661.00,0.90
5660.00,0.90
5659.00,0.90
5658.00,0.90
5657.00,0.90
5656.00,0.90
5655.00,0.91
5654.00,0.91
5653.00,0.91
5652.00,0.91
5651.00,0.91
5650.00,0.91
5649.00,0.91
5648.00,0.92
5647.00,0.92
5646.00,0.92
5645.00,0.92
5644.00,0.92
5643.00,0.92
5642.00,0.93
5641.00,0.93
5640.00,0.93
5639.00,0.93
5638.00,0.93
5637.00,0.94
5636.00,0.94
5635.00,0.94
5634.00,0.94
5633.00,0.94
5632.00,0.94
5631.00,0.94
5630.00,0.95
5629.00,0.95
5628.00,0.95
5627.00,0.95
5626.00,0.95
5625.00,0.95
5624.00,0.95
5623.00,0.95
5622.00,0.96
5621.00,0.96
5620.00,0.96
5619.00,0.96
5618.00,0.96
5617.00,0.96
5616.00,0.96
5615.00,0.97
5614.00,0.97
5613.00,0.97
5612.00,0.97
5611.00,0.97
5610.00,0.97
5609.00,0.98
5608.00,0.98
5607.00,0.98
5606.00,0.98
5605.00,0.98
5604.00,0.98
5603.00,0.98
5602.00,0.99
5601.00,0.99
5600.00,0.99
5599.00,0.99
5598.00,0.99
5597.00,0.99
5596.00,0.99
5595.00,1.00
5594.00,1.00
5593.00,1.00
5592.00,1.00
5591.00,1.00
5590.00,1.00
5589.00,1.00
5588.00,1.01
5587.00,1.01
5586.00,1.01
5585.00,1.01
5584.00,1.01
5583.00,1.01
5582.00,1.01
5581.00,1.02
5580.00,1.02
5579.00,1.02
5578.00,1.02
5577.00,1.02
5576.00,1.02
5575.00,1.02
5574.00,1.03
5573.00,1.03
5572.00,1.03
5571.00,1.03
5570.00,1.03
5569.00,1.03
5568.00,1.03
5567.00,1.03
5566.00,1.03
5565.00,1.04
5564.00,1.04
5563.00,1.04
5562.00,1.04
5561.00,1.04
5560.00,1.04
5559.00,1.04
5558.00,1.04
5557.00,1.04
5556.00,1.04
5555.00,1.04
5554.00,1.04
5553.00,1.05
5552.00,1.05
5551.00,1.05
5550.00,1.05
5549.00,1.05
5548.00,1.05
5547.00,1.05
5546.00,1.05
5545.00,1.05
5544.00,1.06
5543.00,1.06
5542.00,1.06
5541.00,1.06
5540.00,1.06
5539.00,1.06
5538.00,1.06
5537.00,1.06
5536.00,1.06
5535.00,1.06
5534.00,1.07
5533.00,1.07
5532.00,1.07
5531.00,1.07
5530.00,1.07
5529.00,1.07
5528.00,1.07
5527.00,1.07
5526.00,1.07
5525.00,1.07
5524.00,1.07
5523.00,1.07
5522.00,1.07
5521.00,1.07
5520.00,1.08
5519.00,1.08
5518.00,1.08
5517.00,1.08
5516.00,1.08
5515.00,1.08
5514.00,1.08
5513.00,1.08
5512.00,1.08
5511.00,1.08
5510.00,1.08
5509.00,1.08
5508.00,1.08
5507.00,1.08
5506.00,1.08
5505.00,1.08
5504.00,1.08
5503.00,1.08
5502.00,1.08
5501.00,1.08
5500.00,1.08
5499.00,1.08
5498.00,1.08
5497.00,1.08
5496.00,1.08
5495.00,1.08
5494.00,1.08
5493.00,1.08
5492.00,1.09
5491.00,1.09
5490.00,1.09
5489.00,1.09
5488.00,1.09
5487.00,1.09
5486.00,1.09
5485.00,1.09
5484.00,1.09
5483.00,1.09
5482.00,1.10
5481.00,1.10
5480.00,1.10
5479.00,1.10
5478.00,1.10
5477.00,1.10
5476.00,1.10
5475.00,1.10
5474.00,1.11
5473.00,1.11
5472.00,1.11
5471.00,1.11
5470.00,1.11
5469.00,1.11
5468.00,1.11
5467.00,1.12
5466.00,1.12
5465.00,1.12
5464.00,1.12
5463.00,1.12
5462.00,1.12
5461.00,1.12
5460.00,1.12
5459.00,1.13
5458.00,1.13
5457.00,1.13
5456.00,1.13
5455.00,1.13
5454.00,1.13
5453.00,1.13
5452.00,1.13
5451.00,1.13
5450.00,1.13
5449.00,1.13
5448.00,1.13
5447.00,1.13
5446.00,1.13
5445.00,1.13
5444.00,1.13
5443.00,1.13
5442.00,1.13
5441.00,1.13
5440.00,1.13
5439.00,1.13
5438.00,1.13
5437.00,1.13
5436.00,1.13
5435.00,1.13
5434.00,1.13
5433.00,1.13
5432.00,1.13
5431.00,1.13
5430.00,1.13
5429.00,1.13
5428.00,1.13
5427.00,1.14
5426.00,1.14
5425.00,1.14
5424.00,1.14
5423.00,1.14
5422.00,1.14
5421.00,1.14
5420.00,1.14
5419.00,1.14
5418.00,1.14
5417.00,1.14
5416.00,1.14
5415.00,1.14
5414.00,1.14
5413.00,1.14
5412.00,1.14
5411.00,1.14
5410.00,1.14
5409.00,1.14
5408.00,1.14
5407.00,1.14
5406.00,1.14
5405.00,1.14
5404.00,1.14
5403.00,1.14
5402.00,1.14
5401.00,1.14
5400.00,1.14
5399.00,1.14
5398.00,1.14
5397.00,1.14
5396.00,1.14
5395.00,1.14
5394.00,1.14
5393.00,1.14
5392.00,1.14
5391.00,1.14
5390.00,1.13
5389.00,1.13
5388.00,1.13
5387.00,1.13
5386.00,1.13
5385.00,1.13
5384.00,1.13
5383.00,1.12
5382.00,1.12
5381.00,1.12
5380.00,1.12
5379.00,1.12
5378.00,1.11
5377.00,1.11
5376.00,1.11
5375.00,1.11
5374.00,1.10
5373.00,1.10
5372.00,1.10
5371.00,1.10
5370.00,1.09
5369.00,1.09
5368.00,1.09
5367.00,1.08
5366.00,1.08
5365.00,1.08
5364.00,1.07
5363.00,1.07
5362.00,1.06
5361.00,1.06
5360.00,1.05
5359.00,1.05
5358.00,1.04
5357.00,1.04
5356.00,1.03
5355.00,1.03
5354.00,1.02
5353.00,1.02
5352.00,1.01
5351.00,1.00
5350.00,1.00
5349.00,0.99
5348.00,0.98
5347.00,0.98
5346.00,0.97
5345.00,0.96
5344.00,0.96
5343.00,0.95
5342.00,0.95
5341.00,0.94
5340.00,0.93
5339.00,0.93
5338.00,0.92
5337.00,0.91
5336.00,0.91
5335.00,0.90
5334.00,0.89
5333.00,0.88
5332.00,0.88
5331.00,0.87
5330.00,0.86
5329.00,0.86
5328.00,0.85
5327.00,0.84
5326.00,0.83
5325.00,0.83
5324.00,0.82
5323.00,0.81
5322.00,0.81
5321.00,0.80
5320.00,0.79
5319.00,0.79
5318.00,0.78
5317.00,0.77
5316.00,0.77
5315.00,0.76
5314.00,0.76
5313.00,0.75
5312.00,0.74
5311.00,0.74
5310.00,0.73
5309.00,0.73
5308.00,0.73
5307.00,0.72
5306.00,0.72
5305.00,0.71
5304.00,0.71
5303.00,0.71
5302.00,0.71
5301.00,0.70
5300.00,0.70
5299.00,0.70
5298.00,0.70
5297.00,0.70
5296.00,0.69
5295.00,0.69
5294.00,0.69
5293.00,0.69
5292.00,0.69
5291.00,0.69
5290.00,0.69
5289.00,0.69
5288.00,0.69
5287.00,0.69
5286.00,0.69
5285.00,0.68
5284.00,0.68
5283.00,0.68
5282.00,0.68
5281.00,0.68
5280.00,0.68
5279.00,0.68
5278.00,0.68
5277.00,0.68
5276.00,0.68
5275.00,0.68
5274.00,0.68
5273.00,0.68
5272.00,0.67
5271.00,0.67
5270.00,0.67
5269.00,0.67
5268.00,0.67
5267.00,0.67
5266.00,0.67
5265.00,0.67
5264.00,0.67
5263.00,0.67
5262.00,0.67
5261.00,0.67
5260.00,0.67
5259.00,0.67
5258.00,0.67
5257.00,0.67
5256.00,0.67
5255.00,0.67
5254.00,0.67
5253.00,0.67
5252.00,0.67
5251.00,0.67
5250.00,0.67
5249.00,0.67
5248.00,0.67
5247.00,0.67
5246.00,0.67
5245.00,0.67
5244.00,0.67
5243.00,0.67
5242.00,0.67
5241.00,0.67
5240.00,0.67
5239.00,0.67
5238.00,0.67
5237.00,0.67
5236.00,0.67
5235.00,0.67
5234.00,0.67
5233.00,0.67
5232.00,0.67
5231.00,0.68
5230.00,0.68
5229.00,0.68
5228.00,0.68
5227.00,0.68
5226.00,0.68
5225.00,0.68
5224.00,0.68
5223.00,0.68
5222.00,0.68
5221.00,0.68
5220.00,0.68
5219.00,0.68
5218.00,0.68
5217.00,0.68
5216.00,0.68
5215.00,0.68
5214.00,0.68
5213.00,0.68
5212.00,0.68
5211.00,0.68
5210.00,0.68
5209.00,0.68
5208.00,0.68
5207.00,0.68
5206.00,0.68
5205.00,0.68
5204.00,0.68
5203.00,0.68
5202.00,0.68
5201.00,0.68
5200.00,0.68
5199.00,0.68
5198.00,0.68
5197.00,0.68
5196.00,0.68
5195.00,0.68
5194.00,0.68
5193.00,0.68
5192.00,0.69
5191.00,0.69
5190.00,0.69
5189.00,0.69
5188.00,0.69
5187.00,0.69
5186.00,0.69
5185.00,0.69
5184.00,0.69
5183.00,0.69
5182.00,0.69
5181.00,0.69
5180.00,0.69
5179.00,0.70
5178.00,0.70
5177.00,0.70
5176.00,0.70
5175.00,0.70
5174.00,0.70
5173.00,0.70
5172.00,0.70
5171.00,0.70
5170.00,0.70
5169.00,0.70
5168.00,0.70
5167.00,0.70
5166.00,0.70
5165.00,0.70
5164.00,0.70
5163.00,0.70
5162.00,0.70
5161.00,0.70
5160.00,0.70
5159.00,0.70
5158.00,0.70
5157.00,0.70
5156.00,0.70
5155.00,0.70
5154.00,0.70
5153.00,0.70
5152.00,0.70
5151.00,0.70
5150.00,0.70
5149.00,0.70
5148.00,0.70
5147.00,0.70
5146.00,0.70
5145.00,0.70
5144.00,0.71
5143.00,0.71
5142.00,0.71
5141.00,0.71
5140.00,0.71
5139.00,0.71
5138.00,0.71
5137.00,0.71
5136.00,0.71
5135.00,0.71
5134.00,0.71
5133.00,0.71
5132.00,0.71
5131.00,0.71
5130.00,0.71
5129.00,0.71
5128.00,0.71
5127.00,0.71
5126.00,0.71
5125.00,0.71
5124.00,0.71
5123.00,0.71
5122.00,0.71
5121.00,0.71
5120.00,0.71
5119.00,0.71
5118.00,0.71
5117.00,0.71
5116.00,0.71
5115.00,0.71
5114.00,0.71
5113.00,0.71
5112.00,0.71
5111.00,0.71
5110.00,0.72
5109.00,0.72
5108.00,0.72
5107.00,0.72
5106.00,0.72
5105.00,0.72
5104.00,0.72
5103.00,0.72
5102.00,0.72
5101.00,0.72
5100.00,0.72
5099.00,0.72
5098.00,0.72
5097.00,0.72
5096.00,0.72
5095.00,0.72
5094.00,0.72
5093.00,0.72
5092.00,0.72
5091.00,0.72
5090.00,0.72
5089.00,0.72
5088.00,0.72
5087.00,0.72
5086.00,0.73
5085.00,0.73
5084.00,0.73
5083.00,0.73
5082.00,0.73
5081.00,0.73
5080.00,0.73
5079.00,0.73
5078.00,0.73
5077.00,0.73
5076.00,0.73
5075.00,0.73
5074.00,0.73
5073.00,0.73
5072.00,0.73
5071.00,0.73
5070.00,0.73
5069.00,0.73
5068.00,0.73
5067.00,0.73
5066.00,0.73
5065.00,0.73
5064.00,0.73
5063.00,0.73
5062.00,0.73
5061.00,0.74
5060.00,0.74
5059.00,0.74
5058.00,0.74
5057.00,0.74
5056.00,0.74
5055.00,0.74
5054.00,0.74
5053.00,0.74
5052.00,0.74
5051.00,0.74
5050.00,0.74
5049.00,0.74
5048.00,0.74
5047.00,0.74
5046.00,0.74
5045.00,0.74
5044.00,0.74
5043.00,0.74
5042.00,0.74
5041.00,0.74
5040.00,0.74
5039.00,0.75
5038.00,0.75
5037.00,0.75
5036.00,0.75
5035.00,0.75
5034.00,0.75
5033.00,0.75
5032.00,0.75
5031.00,0.75
5030.00,0.75
5029.00,0.75
5028.00,0.75
5027.00,0.75
5026.00,0.75
5025.00,0.75
5024.00,0.75
5023.00,0.75
5022.00,0.75
5021.00,0.75
5020.00,0.75
5019.00,0.75
5018.00,0.75
5017.00,0.75
5016.00,0.75
5015.00,0.75
5014.00,0.75
5013.00,0.75
5012.00,0.76
5011.00,0.76
5010.00,0.76
5009.00,0.76
5008.00,0.76
5007.00,0.76
5006.00,0.76
5005.00,0.76
5004.00,0.76
5003.00,0.76
5002.00,0.76
5001.00,0.76
5000.00,0.76
4999.00,0.76
4998.00,0.76
4997.00,0.76
4996.00,0.77
4995.00,0.77
4994.00,0.77
4993.00,0.77
4992.00,0.77
4991.00,0.77
4990.00,0.77
4989.00,0.77
4988.00,0.77
4987.00,0.77
4986.00,0.78
4985.00,0.78
4984.00,0.78
4983.00,0.78
4982.00,0.78
4981.00,0.78
4980.00,0.78
4979.00,0.78
4978.00,0.78
4977.00,0.78
4976.00,0.78
4975.00,0.78
4974.00,0.78
4973.00,0.78
4972.00,0.78
4971.00,0.78
4970.00,0.78
4969.00,0.78
4968.00,0.78
4967.00,0.78
4966.00,0.78
4965.00,0.78
4964.00,0.78
4963.00,0.78
4962.00,0.78
4961.00,0.78
4960.00,0.78
4959.00,0.78
4958.00,0.78
4957.00,0.78
4956.00,0.78
4955.00,0.78
4954.00,0.78
4953.00,0.79
4952.00,0.79
4951.00,0.79
4950.00,0.79
4949.00,0.79
4948.00,0.79
4947.00,0.79
4946.00,0.79
4945.00,0.79
4944.00,0.79
4943.00,0.79
4942.00,0.79
4941.00,0.79
4940.00,0.79
4939.00,0.79
4938.00,0.79
4937.00,0.79
4936.00,0.80
4935.00,0.80
4934.00,0.80
4933.00,0.80
4932.00,0.80
4931.00,0.80
4930.00,0.80
4929.00,0.80
4928.00,0.80
4927.00,0.80
4926.00,0.80
4925.00,0.80
4924.00,0.80
4923.00,0.80
4922.00,0.80
4921.00,0.80
4920.00,0.80
4919.00,0.80
4918.00,0.80
4917.00,0.80
4916.00,0.80
4915.00,0.80
4914.00,0.81
4913.00,0.81
4912.00,0.81
4911.00,0.81
4910.00,0.81
4909.00,0.81
4908.00,0.81
4907.00,0.81
4906.00,0.81
4905.00,0.81
4904.00,0.81
4903.00,0.81
4902.00,0.81
4901.00,0.81
4900.00,0.81
4899.00,0.81
4898.00,0.81
4897.00,0.81
4896.00,0.81
4895.00,0.81
4894.00,0.81
4893.00,0.81
4892.00,0.81
4891.00,0.81
4890.00,0.81
4889.00,0.81
4888.00,0.81
4887.00,0.81
4886.00,0.81
4885.00,0.81
4884.00,0.82
4883.00,0.82
4882.00,0.82
4881.00,0.82
4880.00,0.82
4879.00,0.82
4878.00,0.82
4877.00,0.82
4876.00,0.82
4875.00,0.82
4874.00,0.82
4873.00,0.82
4872.00,0.82
4871.00,0.82
4870.00,0.82
4869.00,0.82
4868.00,0.81
4867.00,0.81
4866.00,0.81
4865.00,0.81
4864.00,0.81
4863.00,0.81
4862.00,0.81
4861.00,0.81
4860.00,0.81
4859.00,0.81
4858.00,0.81
4857.00,0.81
4856.00,0.82
4855.00,0.82
4854.00,0.82
4853.00,0.82
4852.00,0.82
4851.00,0.82
4850.00,0.82
4849.00,0.82
4848.00,0.82
4847.00,0.82
4846.00,0.82
4845.00,0.82
4844.00,0.82
4843.00,0.83
4842.00,0.83
4841.00,0.83
4840.00,0.83
4839.00,0.83
4838.00,0.83
4837.00,0.83
4836.00,0.83
4835.00,0.83
4834.00,0.83
4833.00,0.83
4832.00,0.83
4831.00,0.83
4830.00,0.83
4829.00,0.83
4828.00,0.83
4827.00,0.83
4826.00,0.83
4825.00,0.83
4824.00,0.83
4823.00,0.83
4822.00,0.83
4821.00,0.83
4820.00,0.83
4819.00,0.83
4818.00,0.83
4817.00,0.83
4816.00,0.83
4815.00,0.84
4814.00,0.84
4813.00,0.84
4812.00,0.84
4811.00,0.84
4810.00,0.84
4809.00,0.84
4808.00,0.84
4807.00,0.84
4806.00,0.84
4805.00,0.84
4804.00,0.85
4803.00,0.85
4802.00,0.85
4801.00,0.85
4800.00,0.85
4799.00,0.85
4798.00,0.85
4797.00,0.85
4796.00,0.85
4795.00,0.85
4794.00,0.85
4793.00,0.85
4792.00,0.85
4791.00,0.85
4790.00,0.85
4789.00,0.85
4788.00,0.85
4787.00,0.85
4786.00,0.85
4785.00,0.86
4784.00,0.86
4783.00,0.86
4782.00,0.86
4781.00,0.86
4780.00,0.86
4779.00,0.86
4778.00,0.86
4777.00,0.86
4776.00,0.86
4775.00,0.86
4774.00,0.86
4773.00,0.86
4772.00,0.86
4771.00,0.86
4770.00,0.86
4769.00,0.86
4768.00,0.86
4767.00,0.86
4766.00,0.86
4765.00,0.86
4764.00,0.87
4763.00,0.87
4762.00,0.87
4761.00,0.87
4760.00,0.87
4759.00,0.87
4758.00,0.87
4757.00,0.87
4756.00,0.87
4755.00,0.87
4754.00,0.87
4753.00,0.87
4752.00,0.88
4751.00,0.88
4750.00,0.88
4749.00,0.88
4748.00,0.88
4747.00,0.88
4746.00,0.88
4745.00,0.88
4744.00,0.89
4743.00,0.89
4742.00,0.89
4741.00,0.89
4740.00,0.89
4739.00,0.89
4738.00,0.89
4737.00,0.89
4736.00,0.89
4735.00,0.89
4734.00,0.89
4733.00,0.89
4732.00,0.89
4731.00,0.89
4730.00,0.89
4729.00,0.89
4728.00,0.89
4727.00,0.89
4726.00,0.89
4725.00,0.89
4724.00,0.89
4723.00,0.89
4722.00,0.89
4721.00,0.89
4720.00,0.90
4719.00,0.90
4718.00,0.90
4717.00,0.90
4716.00,0.90
4715.00,0.90
4714.00,0.90
4713.00,0.90
4712.00,0.90
4711.00,0.90
4710.00,0.91
4709.00,0.91
4708.00,0.91
4707.00,0.91
4706.00,0.91
4705.00,0.91
4704.00,0.91
4703.00,0.91
4702.00,0.92
4701.00,0.92
4700.00,0.92
4699.00,0.92
4698.00,0.92
4697.00,0.92
4696.00,0.92
4695.00,0.92
4694.00,0.92
4693.00,0.93
4692.00,0.93
4691.00,0.93
4690.00,0.93
4689.00,0.93
4688.00,0.93
4687.00,0.93
4686.00,0.93
4685.00,0.93
4684.00,0.93
4683.00,0.94
4682.00,0.94
4681.00,0.94
4680.00,0.94
4679.00,0.94
4678.00,0.94
4677.00,0.94
4676.00,0.94
4675.00,0.94
4674.00,0.94
4673.00,0.94
4672.00,0.94
4671.00,0.94
4670.00,0.94
4669.00,0.94
4668.00,0.94
4667.00,0.94
4666.00,0.94
4665.00,0.94
4664.00,0.94
4663.00,0.94
4662.00,0.94
4661.00,0.95
4660.00,0.95
4659.00,0.95
4658.00,0.95
4657.00,0.95
4656.00,0.95
4655.00,0.95
4654.00,0.95
4653.00,0.95
4652.00,0.96
4651.00,0.96
4650.00,0.96
4649.00,0.96
4648.00,0.96
4647.00,0.96
4646.00,0.96
4645.00,0.96
4644.00,0.97
4643.00,0.97
4642.00,0.97
4641.00,0.97
4640.00,0.97
4639.00,0.97
4638.00,0.97
4637.00,0.97
4636.00,0.97
4635.00,0.97
4634.00,0.97
4633.00,0.97
4632.00,0.97
4631.00,0.97
4630.00,0.97
4629.00,0.97
4628.00,0.97
4627.00,0.97
4626.00,0.97
4625.00,0.97
4624.00,0.97
4623.00,0.98
4622.00,0.98
4621.00,0.98
4620.00,0.98
4619.00,0.98
4618.00,0.98
4617.00,0.98
4616.00,0.98
4615.00,0.98
4614.00,0.98
4613.00,0.98
4612.00,0.99
4611.00,0.99
4610.00,0.99
4609.00,0.99
4608.00,0.99
4607.00,0.99
4606.00,0.99
4605.00,0.99
4604.00,0.99
4603.00,0.99
4602.00,0.99
4601.00,0.99
4600.00,0.99
4599.00,0.99
4598.00,0.99
4597.00,0.99
4596.00,0.99
4595.00,0.99
4594.00,0.99
4593.00,0.99
4592.00,0.99
4591.00,0.99
4590.00,0.99
4589.00,0.99
4588.00,0.98
4587.00,0.98
4586.00,0.98
4585.00,0.98
4584.00,0.98
4583.00,0.98
4582.00,0.98
4581.00,0.99
4580.00,0.99
4579.00,0.99
4578.00,0.99
4577.00,0.99
4576.00,0.99
4575.00,0.99
4574.00,0.99
4573.00,0.99
4572.00,0.99
4571.00,0.99
4570.00,0.99
4569.00,0.99
4568.00,1.00
4567.00,1.00
4566.00,1.00
4565.00,1.00
4564.00,1.00
4563.00,1.00
4562.00,1.00
4561.00,1.00
4560.00,1.00
4559.00,1.01
4558.00,1.01
4557.00,1.01
4556.00,1.01
4555.00,1.01
4554.00,1.01
4553.00,1.01
4552.00,1.01
4551.00,1.01
4550.00,1.01
4549.00,1.01
4548.00,1.02
4547.00,1.02
4546.00,1.02
4545.00,1.02
4544.00,1.02
4543.00,1.02
4542.00,1.02
4541.00,1.02
4540.00,1.02
4539.00,1.02
4538.00,1.02
4537.00,1.01
4536.00,1.01
4535.00,1.01
4534.00,1.01
4533.00,1.02
4532.00,1.02
4531.00,1.02
4530.00,1.02
4529.00,1.02
4528.00,1.02
4527.00,1.02
4526.00,1.02
4525.00,1.02
4524.00,1.02
4523.00,1.02
4522.00,1.02
4521.00,1.02
4520.00,1.02
4519.00,1.02
4518.00,1.02
4517.00,1.02
4516.00,1.02
4515.00,1.02
4514.00,1.02
4513.00,1.02
4512.00,1.02
4511.00,1.02
4510.00,1.02
4509.00,1.02
4508.00,1.02
4507.00,1.02
4506.00,1.02
4505.00,1.02
4504.00,1.02
4503.00,1.02
4502.00,1.02
4501.00,1.02
4500.00,1.02
4499.00,1.02
4498.00,1.02
4497.00,1.02
4496.00,1.02
4495.00,1.02
4494.00,1.01
4493.00,1.01
4492.00,1.01
4491.00,1.01
4490.00,1.01
4489.00,1.01
4488.00,1.01
4487.00,1.01
4486.00,1.01
4485.00,1.01
4484.00,1.01
4483.00,1.01
4482.00,1.01
4481.00,1.01
4480.00,1.01
4479.00,1.01
4478.00,1.01
4477.00,1.01
4476.00,1.01
4475.00,1.01
4474.00,1.01
4473.00,1.00
4472.00,1.00
4471.00,1.00
4470.00,1.00
4469.00,1.00
4468.00,1.00
4467.00,1.00
4466.00,1.00
4465.00,1.00
4464.00,1.00
4463.00,1.00
4462.00,1.00
4461.00,0.99
4460.00,0.99
4459.00,0.99
4458.00,0.99
4457.00,0.99
4456.00,0.99
4455.00,0.99
4454.00,0.98
4453.00,0.98
4452.00,0.98
4451.00,0.98
4450.00,0.98
4449.00,0.98
4448.00,0.97
4447.00,0.97
4446.00,0.97
4445.00,0.97
4444.00,0.97
4443.00,0.97
4442.00,0.96
4441.00,0.96
4440.00,0.96
4439.00,0.96
4438.00,0.96
4437.00,0.96
4436.00,0.96
4435.00,0.96
4434.00,0.96
4433.00,0.96
4432.00,0.96
4431.00,0.96
4430.00,0.96
4429.00,0.96
4428.00,0.96
4427.00,0.96
4426.00,0.96
4425.00,0.96
4424.00,0.96
4423.00,0.96
4422.00,0.96
4421.00,0.96
4420.00,0.96
4419.00,0.96
4418.00,0.96
4417.00,0.96
4416.00,0.96
4415.00,0.96
4414.00,0.96
4413.00,0.96
4412.00,0.96
4411.00,0.96
4410.00,0.96
4409.00,0.96
4408.00,0.96
4407.00,0.96
4406.00,0.96
4405.00,0.96
4404.00,0.96
4403.00,0.96
4402.00,0.96
4401.00,0.96
4400.00,0.96
4399.00,0.96
4398.00,0.96
4397.00,0.97
4396.00,0.97
4395.00,0.97
4394.00,0.97
4393.00,0.97
4392.00,0.97
4391.00,0.97
4390.00,0.97
4389.00,0.97
4388.00,0.97
4387.00,0.97
4386.00,0.97
4385.00,0.97
4384.00,0.97
4383.00,0.97
4382.00,0.97
4381.00,0.97
4380.00,0.97
4379.00,0.97
4378.00,0.97
4377.00,0.97
4376.00,0.97
4375.00,0.97
4374.00,0.97
4373.00,0.97
4372.00,0.97
4371.00,0.97
4370.00,0.97
4369.00,0.97
4368.00,0.97
4367.00,0.97
4366.00,0.97
4365.00,0.97
4364.00,0.97
4363.00,0.98
4362.00,0.98
4361.00,0.98
4360.00,0.98
4359.00,0.98
4358.00,0.98
4357.00,0.98
4356.00,0.98
4355.00,0.98
4354.00,0.98
4353.00,0.98
4352.00,0.98
4351.00,0.98
4350.00,0.98
4349.00,0.98
4348.00,0.98
4347.00,0.98
4346.00,0.98
4345.00,0.98
4344.00,0.98
4343.00,0.98
4342.00,0.98
4341.00,0.98
4340.00,0.98
4339.00,0.98
4338.00,0.99
4337.00,0.99
4336.00,0.99
4335.00,0.99
4334.00,0.99
4333.00,0.99
4332.00,0.99
4331.00,0.99
4330.00,0.99
4329.00,0.99
4328.00,0.99
4327.00,1.00
4326.00,1.00
4325.00,1.00
4324.00,1.00
4323.00,1.00
4322.00,1.00
4321.00,1.00
4320.00,1.00
4319.00,1.01
4318.00,1.01
4317.00,1.01
4316.00,1.01
4315.00,1.01
4314.00,1.01
4313.00,1.01
4312.00,1.01
4311.00,1.01
4310.00,1.01
4309.00,1.01
4308.00,1.01
4307.00,1.01
4306.00,1.02
4305.00,1.02
4304.00,1.02
4303.00,1.02
4302.00,1.02
4301.00,1.02
4300.00,1.02
4299.00,1.02
4298.00,1.02
4297.00,1.02
4296.00,1.02
4295.00,1.02
4294.00,1.02
4293.00,1.02
4292.00,1.02
4291.00,1.02
4290.00,1.02
4289.00,1.02
4288.00,1.02
4287.00,1.03
4286.00,1.03
4285.00,1.03
4284.00,1.03
4283.00,1.03
4282.00,1.03
4281.00,1.03
4280.00,1.02
4279.00,1.02
4278.00,1.02
4277.00,1.02
4276.00,1.02
4275.00,1.02
4274.00,1.02
4273.00,1.02
4272.00,1.02
4271.00,1.02
4270.00,1.02
4269.00,1.02
4268.00,1.02
4267.00,1.02
4266.00,1.02
4265.00,1.03
4264.00,1.03
4263.00,1.03
4262.00,1.03
4261.00,1.03
4260.00,1.03
4259.00,1.03
4258.00,1.03
4257.00,1.03
4256.00,1.03
4255.00,1.04
4254.00,1.04
4253.00,1.04
4252.00,1.04
4251.00,1.04
4250.00,1.04
4249.00,1.04
4248.00,1.04
4247.00,1.04
4246.00,1.04
4245.00,1.04
4244.00,1.04
4243.00,1.04
4242.00,1.04
4241.00,1.04
4240.00,1.04
4239.00,1.04
4238.00,1.04
4237.00,1.04
4236.00,1.04
4235.00,1.04
4234.00,1.04
4233.00,1.04
4232.00,1.04
4231.00,1.04
4230.00,1.04
4229.00,1.05
4228.00,1.05
4227.00,1.05
4226.00,1.05
4225.00,1.05
4224.00,1.05
4223.00,1.05
4222.00,1.05
4221.00,1.05
4220.00,1.05
4219.00,1.06
4218.00,1.06
4217.00,1.06
4216.00,1.06
4215.00,1.06
4214.00,1.06
4213.00,1.06
4212.00,1.06
4211.00,1.06
4210.00,1.06
4209.00,1.06
4208.00,1.06
4207.00,1.06
4206.00,1.07
4205.00,1.07
4204.00,1.07
4203.00,1.07
4202.00,1.07
4201.00,1.07
4200.00,1.07
4199.00,1.07
4198.00,1.07
4197.00,1.07
4196.00,1.07
4195.00,1.07
4194.00,1.07
4193.00,1.07
4192.00,1.07
4191.00,1.07
4190.00,1.07
4189.00,1.07
4188.00,1.07
4187.00,1.07
4186.00,1.07
4185.00,1.07
4184.00,1.07
4183.00,1.07
4182.00,1.07
4181.00,1.07
4180.00,1.07
4179.00,1.07
4178.00,1.07
4177.00,1.07
4176.00,1.07
4175.00,1.07
4174.00,1.07
4173.00,1.07
4172.00,1.07
4171.00,1.07
4170.00,1.07
4169.00,1.07
4168.00,1.07
4167.00,1.07
4166.00,1.07
4165.00,1.07
4164.00,1.07
4163.00,1.07
4162.00,1.08
4161.00,1.08
4160.00,1.08
4159.00,1.08
4158.00,1.08
4157.00,1.08
4156.00,1.08
4155.00,1.08
4154.00,1.08
4153.00,1.09
4152.00,1.09
4151.00,1.09
4150.00,1.09
4149.00,1.09
4148.00,1.09
4147.00,1.09
4146.00,1.09
4145.00,1.09
4144.00,1.09
4143.00,1.09
4142.00,1.09
4141.00,1.09
4140.00,1.09
4139.00,1.09
4138.00,1.09
4137.00,1.09
4136.00,1.09
4135.00,1.09
4134.00,1.09
4133.00,1.09
4132.00,1.09
4131.00,1.09
4130.00,1.09
4129.00,1.09
4128.00,1.09
4127.00,1.09
4126.00,1.09
4125.00,1.09
4124.00,1.10
4123.00,1.10
4122.00,1.10
4121.00,1.10
4120.00,1.10
4119.00,1.10
4118.00,1.10
4117.00,1.10
4116.00,1.10
4115.00,1.11
4114.00,1.11
4113.00,1.11
4112.00,1.11
4111.00,1.11
4110.00,1.11
4109.00,1.11
4108.00,1.11
4107.00,1.11
4106.00,1.11
4105.00,1.11
4104.00,1.11
4103.00,1.11
4102.00,1.12
4101.00,1.12
4100.00,1.12
4099.00,1.12
4098.00,1.12
4097.00,1.12
4096.00,1.12
4095.00,1.12
4094.00,1.12
4093.00,1.12
4092.00,1.12
4091.00,1.12
4090.00,1.12
4089.00,1.11
4088.00,1.11
4087.00,1.11
4086.00,1.11
4085.00,1.11
4084.00,1.11
4083.00,1.11
4082.00,1.11
4081.00,1.11
4080.00,1.11
4079.00,1.11
4078.00,1.10
4077.00,1.10
4076.00,1.11
4075.00,1.11
4074.00,1.11
4073.00,1.11
4072.00,1.11
4071.00,1.11
4070.00,1.11
4069.00,1.11
4068.00,1.11
4067.00,1.12
4066.00,1.12
4065.00,1.12
4064.00,1.12
4063.00,1.12
4062.00,1.13
4061.00,1.13
4060.00,1.13
4059.00,1.13
4058.00,1.13
4057.00,1.13
4056.00,1.13
4055.00,1.13
4054.00,1.13
4053.00,1.13
4052.00,1.13
4051.00,1.13
4050.00,1.13
4049.00,1.13
4048.00,1.13
4047.00,1.13
4046.00,1.13
4045.00,1.13
4044.00,1.13
4043.00,1.13
4042.00,1.13
4041.00,1.13
4040.00,1.13
4039.00,1.13
4038.00,1.14
4037.00,1.14
4036.00,1.14
4035.00,1.14
4034.00,1.14
4033.00,1.14
4032.00,1.14
4031.00,1.14
4030.00,1.14
4029.00,1.14
4028.00,1.14
4027.00,1.14
4026.00,1.14
4025.00,1.14
4024.00,1.14
4023.00,1.14
4022.00,1.13
4021.00,1.13
4020.00,1.13
4019.00,1.13
4018.00,1.13
4017.00,1.13
4016.00,1.13
4015.00,1.13
4014.00,1.13
4013.00,1.13
4012.00,1.13
4011.00,1.13
4010.00,1.13
4009.00,1.13
4008.00,1.13
4007.00,1.13
4006.00,1.13
4005.00,1.14
4004.00,1.14
4003.00,1.14
4002.00,1.14
4001.00,1.14
4000.00,1.14
