创建为新数据集,样品 270 用户 Administrator 日期 星期日, 七月 22 2018
cm-1,%T
10000.00,1.46
9999.00,1.46
9998.00,1.45
9997.00,1.44
9996.00,1.44
9995.00,1.43
9994.00,1.43
9993.00,1.42
9992.00,1.42
9991.00,1.41
9990.00,1.41
9989.00,1.40
9988.00,1.40
9987.00,1.39
9986.00,1.39
9985.00,1.39
9984.00,1.38
9983.00,1.38
9982.00,1.38
9981.00,1.38
9980.00,1.38
9979.00,1.38
9978.00,1.38
9977.00,1.38
9976.00,1.38
9975.00,1.38
9974.00,1.38
9973.00,1.38
9972.00,1.38
9971.00,1.38
9970.00,1.38
9969.00,1.38
9968.00,1.38
9967.00,1.38
9966.00,1.38
9965.00,1.38
9964.00,1.38
9963.00,1.38
9962.00,1.38
9961.00,1.38
9960.00,1.38
9959.00,1.38
9958.00,1.38
9957.00,1.38
9956.00,1.38
9955.00,1.37
9954.00,1.37
9953.00,1.37
9952.00,1.37
9951.00,1.37
9950.00,1.37
9949.00,1.37
9948.00,1.37
9947.00,1.37
9946.00,1.37
9945.00,1.37
9944.00,1.37
9943.00,1.37
9942.00,1.37
9941.00,1.37
9940.00,1.37
9939.00,1.37
9938.00,1.37
9937.00,1.37
9936.00,1.37
9935.00,1.37
9934.00,1.37
9933.00,1.37
9932.00,1.37
9931.00,1.37
9930.00,1.37
9929.00,1.37
9928.00,1.37
9927.00,1.37
9926.00,1.37
9925.00,1.37
9924.00,1.37
9923.00,1.37
9922.00,1.37
9921.00,1.37
9920.00,1.36
9919.00,1.36
9918.00,1.36
9917.00,1.36
9916.00,1.36
9915.00,1.36
9914.00,1.35
9913.00,1.35
9912.00,1.35
9911.00,1.35
9910.00,1.35
9909.00,1.35
9908.00,1.35
9907.00,1.35
9906.00,1.35
9905.00,1.35
9904.00,1.35
9903.00,1.35
9902.00,1.35
9901.00,1.35
9900.00,1.35
9899.00,1.35
9898.00,1.35
9897.00,1.36
9896.00,1.36
9895.00,1.36
9894.00,1.36
9893.00,1.36
9892.00,1.36
9891.00,1.36
9890.00,1.37
9889.00,1.37
9888.00,1.37
9887.00,1.37
9886.00,1.37
9885.00,1.37
9884.00,1.37
9883.00,1.38
9882.00,1.38
9881.00,1.38
9880.00,1.38
9879.00,1.38
9878.00,1.38
9877.00,1.38
9876.00,1.38
9875.00,1.38
9874.00,1.38
9873.00,1.38
9872.00,1.38
9871.00,1.37
9870.00,1.37
9869.00,1.37
9868.00,1.37
9867.00,1.36
9866.00,1.36
9865.00,1.36
9864.00,1.35
9863.00,1.35
9862.00,1.35
9861.00,1.35
9860.00,1.34
9859.00,1.34
9858.00,1.34
9857.00,1.34
9856.00,1.34
9855.00,1.34
9854.00,1.34
9853.00,1.34
9852.00,1.34
9851.00,1.34
9850.00,1.34
9849.00,1.35
9848.00,1.35
9847.00,1.35
9846.00,1.35
9845.00,1.36
9844.00,1.36
9843.00,1.36
9842.00,1.37
9841.00,1.37
9840.00,1.37
9839.00,1.37
9838.00,1.38
9837.00,1.38
9836.00,1.38
9835.00,1.38
9834.00,1.38
9833.00,1.38
9832.00,1.38
9831.00,1.38
9830.00,1.38
9829.00,1.38
9828.00,1.37
9827.00,1.37
9826.00,1.37
9825.00,1.37
9824.00,1.36
9823.00,1.36
9822.00,1.36
9821.00,1.35
9820.00,1.35
9819.00,1.35
9818.00,1.35
9817.00,1.34
9816.00,1.34
9815.00,1.34
9814.00,1.34
9813.00,1.34
9812.00,1.34
9811.00,1.34
9810.00,1.34
9809.00,1.34
9808.00,1.34
9807.00,1.34
9806.00,1.35
9805.00,1.35
9804.00,1.35
9803.00,1.35
9802.00,1.35
9801.00,1.35
9800.00,1.36
9799.00,1.36
9798.00,1.36
9797.00,1.36
9796.00,1.36
9795.00,1.36
9794.00,1.36
9793.00,1.36
9792.00,1.36
9791.00,1.36
9790.00,1.36
9789.00,1.36
9788.00,1.36
9787.00,1.36
9786.00,1.36
9785.00,1.36
9784.00,1.35
9783.00,1.35
9782.00,1.35
9781.00,1.35
9780.00,1.35
9779.00,1.35
9778.00,1.35
9777.00,1.35
9776.00,1.35
9775.00,1.35
9774.00,1.34
9773.00,1.34
9772.00,1.35
9771.00,1.35
9770.00,1.35
9769.00,1.35
9768.00,1.35
9767.00,1.35
9766.00,1.35
9765.00,1.35
9764.00,1.35
9763.00,1.35
9762.00,1.35
9761.00,1.35
9760.00,1.35
9759.00,1.35
9758.00,1.35
9757.00,1.35
9756.00,1.35
9755.00,1.35
9754.00,1.35
9753.00,1.35
9752.00,1.35
9751.00,1.35
9750.00,1.35
9749.00,1.35
9748.00,1.35
9747.00,1.35
9746.00,1.35
9745.00,1.35
9744.00,1.35
9743.00,1.35
9742.00,1.35
9741.00,1.35
9740.00,1.35
9739.00,1.35
9738.00,1.35
9737.00,1.35
9736.00,1.35
9735.00,1.35
9734.00,1.35
9733.00,1.35
9732.00,1.35
9731.00,1.35
9730.00,1.35
9729.00,1.35
9728.00,1.35
9727.00,1.35
9726.00,1.35
9725.00,1.35
9724.00,1.35
9723.00,1.35
9722.00,1.35
9721.00,1.35
9720.00,1.35
9719.00,1.35
9718.00,1.34
9717.00,1.34
9716.00,1.34
9715.00,1.34
9714.00,1.34
9713.00,1.34
9712.00,1.34
9711.00,1.34
9710.00,1.34
9709.00,1.34
9708.00,1.35
9707.00,1.35
9706.00,1.35
9705.00,1.35
9704.00,1.35
9703.00,1.35
9702.00,1.35
9701.00,1.35
9700.00,1.35
9699.00,1.35
9698.00,1.35
9697.00,1.35
9696.00,1.35
9695.00,1.35
9694.00,1.35
9693.00,1.35
9692.00,1.35
9691.00,1.35
9690.00,1.35
9689.00,1.35
9688.00,1.35
9687.00,1.35
9686.00,1.35
9685.00,1.35
9684.00,1.35
9683.00,1.35
9682.00,1.34
9681.00,1.34
9680.00,1.34
9679.00,1.34
9678.00,1.34
9677.00,1.34
9676.00,1.34
9675.00,1.34
9674.00,1.35
9673.00,1.35
9672.00,1.35
9671.00,1.35
9670.00,1.35
9669.00,1.36
9668.00,1.36
9667.00,1.36
9666.00,1.36
9665.00,1.36
9664.00,1.37
9663.00,1.37
9662.00,1.37
9661.00,1.37
9660.00,1.37
9659.00,1.37
9658.00,1.37
9657.00,1.37
9656.00,1.37
9655.00,1.37
9654.00,1.38
9653.00,1.37
9652.00,1.37
9651.00,1.37
9650.00,1.37
9649.00,1.37
9648.00,1.37
9647.00,1.37
9646.00,1.37
9645.00,1.37
9644.00,1.37
9643.00,1.37
9642.00,1.37
9641.00,1.36
9640.00,1.36
9639.00,1.36
9638.00,1.36
9637.00,1.36
9636.00,1.36
9635.00,1.35
9634.00,1.35
9633.00,1.35
9632.00,1.35
9631.00,1.35
9630.00,1.35
9629.00,1.34
9628.00,1.34
9627.00,1.34
9626.00,1.34
9625.00,1.34
9624.00,1.34
9623.00,1.34
9622.00,1.34
9621.00,1.34
9620.00,1.34
9619.00,1.34
9618.00,1.34
9617.00,1.35
9616.00,1.35
9615.00,1.35
9614.00,1.35
9613.00,1.35
9612.00,1.35
9611.00,1.36
9610.00,1.36
9609.00,1.36
9608.00,1.36
9607.00,1.36
9606.00,1.36
9605.00,1.36
9604.00,1.35
9603.00,1.35
9602.00,1.35
9601.00,1.35
9600.00,1.35
9599.00,1.35
9598.00,1.35
9597.00,1.35
9596.00,1.35
9595.00,1.35
9594.00,1.35
9593.00,1.35
9592.00,1.35
9591.00,1.35
9590.00,1.35
9589.00,1.35
9588.00,1.35
9587.00,1.36
9586.00,1.36
9585.00,1.36
9584.00,1.36
9583.00,1.36
9582.00,1.36
9581.00,1.36
9580.00,1.36
9579.00,1.36
9578.00,1.36
9577.00,1.36
9576.00,1.36
9575.00,1.36
9574.00,1.37
9573.00,1.37
9572.00,1.37
9571.00,1.37
9570.00,1.37
9569.00,1.37
9568.00,1.38
9567.00,1.38
9566.00,1.38
9565.00,1.38
9564.00,1.38
9563.00,1.38
9562.00,1.38
9561.00,1.38
9560.00,1.38
9559.00,1.38
9558.00,1.37
9557.00,1.37
9556.00,1.37
9555.00,1.37
9554.00,1.37
9553.00,1.36
9552.00,1.36
9551.00,1.36
9550.00,1.36
9549.00,1.36
9548.00,1.36
9547.00,1.36
9546.00,1.36
9545.00,1.36
9544.00,1.36
9543.00,1.36
9542.00,1.36
9541.00,1.36
9540.00,1.36
9539.00,1.36
9538.00,1.36
9537.00,1.37
9536.00,1.37
9535.00,1.37
9534.00,1.37
9533.00,1.37
9532.00,1.37
9531.00,1.38
9530.00,1.38
9529.00,1.38
9528.00,1.38
9527.00,1.37
9526.00,1.37
9525.00,1.37
9524.00,1.37
9523.00,1.37
9522.00,1.36
9521.00,1.36
9520.00,1.36
9519.00,1.35
9518.00,1.35
9517.00,1.35
9516.00,1.34
9515.00,1.34
9514.00,1.34
9513.00,1.33
9512.00,1.33
9511.00,1.33
9510.00,1.33
9509.00,1.33
9508.00,1.33
9507.00,1.33
9506.00,1.33
9505.00,1.33
9504.00,1.33
9503.00,1.33
9502.00,1.33
9501.00,1.33
9500.00,1.34
9499.00,1.34
9498.00,1.34
9497.00,1.34
9496.00,1.35
9495.00,1.35
9494.00,1.35
9493.00,1.35
9492.00,1.36
9491.00,1.36
9490.00,1.36
9489.00,1.36
9488.00,1.37
9487.00,1.37
9486.00,1.37
9485.00,1.37
9484.00,1.37
9483.00,1.37
9482.00,1.38
9481.00,1.38
9480.00,1.38
9479.00,1.38
9478.00,1.38
9477.00,1.38
9476.00,1.38
9475.00,1.38
9474.00,1.38
9473.00,1.38
9472.00,1.38
9471.00,1.38
9470.00,1.38
9469.00,1.38
9468.00,1.38
9467.00,1.38
9466.00,1.38
9465.00,1.38
9464.00,1.38
9463.00,1.38
9462.00,1.38
9461.00,1.37
9460.00,1.37
9459.00,1.37
9458.00,1.37
9457.00,1.37
9456.00,1.36
9455.00,1.36
9454.00,1.36
9453.00,1.36
9452.00,1.36
9451.00,1.36
9450.00,1.35
9449.00,1.35
9448.00,1.35
9447.00,1.35
9446.00,1.35
9445.00,1.35
9444.00,1.35
9443.00,1.35
9442.00,1.35
9441.00,1.35
9440.00,1.35
9439.00,1.35
9438.00,1.35
9437.00,1.36
9436.00,1.36
9435.00,1.36
9434.00,1.36
9433.00,1.36
9432.00,1.37
9431.00,1.37
9430.00,1.37
9429.00,1.37
9428.00,1.37
9427.00,1.37
9426.00,1.37
9425.00,1.37
9424.00,1.37
9423.00,1.37
9422.00,1.37
9421.00,1.37
9420.00,1.36
9419.00,1.36
9418.00,1.36
9417.00,1.36
9416.00,1.36
9415.00,1.35
9414.00,1.35
9413.00,1.35
9412.00,1.35
9411.00,1.35
9410.00,1.35
9409.00,1.35
9408.00,1.35
9407.00,1.35
9406.00,1.35
9405.00,1.35
9404.00,1.35
9403.00,1.36
9402.00,1.36
9401.00,1.36
9400.00,1.36
9399.00,1.36
9398.00,1.36
9397.00,1.36
9396.00,1.36
9395.00,1.36
9394.00,1.36
9393.00,1.36
9392.00,1.35
9391.00,1.35
9390.00,1.35
9389.00,1.35
9388.00,1.35
9387.00,1.35
9386.00,1.35
9385.00,1.35
9384.00,1.35
9383.00,1.35
9382.00,1.35
9381.00,1.35
9380.00,1.35
9379.00,1.35
9378.00,1.34
9377.00,1.34
9376.00,1.34
9375.00,1.34
9374.00,1.34
9373.00,1.34
9372.00,1.34
9371.00,1.34
9370.00,1.34
9369.00,1.34
9368.00,1.34
9367.00,1.35
9366.00,1.35
9365.00,1.35
9364.00,1.35
9363.00,1.36
9362.00,1.36
9361.00,1.36
9360.00,1.37
9359.00,1.37
9358.00,1.37
9357.00,1.37
9356.00,1.38
9355.00,1.38
9354.00,1.38
9353.00,1.38
9352.00,1.38
9351.00,1.38
9350.00,1.38
9349.00,1.38
9348.00,1.37
9347.00,1.37
9346.00,1.37
9345.00,1.37
9344.00,1.37
9343.00,1.37
9342.00,1.36
9341.00,1.36
9340.00,1.36
9339.00,1.36
9338.00,1.36
9337.00,1.36
9336.00,1.36
9335.00,1.36
9334.00,1.36
9333.00,1.36
9332.00,1.36
9331.00,1.36
9330.00,1.36
9329.00,1.36
9328.00,1.36
9327.00,1.36
9326.00,1.36
9325.00,1.36
9324.00,1.36
9323.00,1.36
9322.00,1.36
9321.00,1.36
9320.00,1.36
9319.00,1.36
9318.00,1.36
9317.00,1.36
9316.00,1.35
9315.00,1.35
9314.00,1.35
9313.00,1.35
9312.00,1.35
9311.00,1.35
9310.00,1.35
9309.00,1.35
9308.00,1.35
9307.00,1.35
9306.00,1.35
9305.00,1.34
9304.00,1.34
9303.00,1.34
9302.00,1.34
9301.00,1.34
9300.00,1.34
9299.00,1.34
9298.00,1.34
9297.00,1.34
9296.00,1.34
9295.00,1.34
9294.00,1.34
9293.00,1.34
9292.00,1.35
9291.00,1.35
9290.00,1.35
9289.00,1.35
9288.00,1.35
9287.00,1.35
9286.00,1.35
9285.00,1.35
9284.00,1.36
9283.00,1.36
9282.00,1.36
9281.00,1.36
9280.00,1.36
9279.00,1.36
9278.00,1.36
9277.00,1.36
9276.00,1.36
9275.00,1.36
9274.00,1.36
9273.00,1.36
9272.00,1.37
9271.00,1.37
9270.00,1.37
9269.00,1.37
9268.00,1.37
9267.00,1.37
9266.00,1.37
9265.00,1.37
9264.00,1.37
9263.00,1.37
9262.00,1.37
9261.00,1.37
9260.00,1.37
9259.00,1.37
9258.00,1.37
9257.00,1.37
9256.00,1.37
9255.00,1.37
9254.00,1.37
9253.00,1.37
9252.00,1.37
9251.00,1.37
9250.00,1.37
9249.00,1.37
9248.00,1.37
9247.00,1.38
9246.00,1.38
9245.00,1.38
9244.00,1.38
9243.00,1.38
9242.00,1.38
9241.00,1.38
9240.00,1.38
9239.00,1.38
9238.00,1.38
9237.00,1.38
9236.00,1.38
9235.00,1.38
9234.00,1.38
9233.00,1.38
9232.00,1.38
9231.00,1.38
9230.00,1.38
9229.00,1.38
9228.00,1.38
9227.00,1.38
9226.00,1.37
9225.00,1.37
9224.00,1.37
9223.00,1.37
9222.00,1.38
9221.00,1.38
9220.00,1.38
9219.00,1.38
9218.00,1.38
9217.00,1.38
9216.00,1.38
9215.00,1.38
9214.00,1.38
9213.00,1.38
9212.00,1.38
9211.00,1.38
9210.00,1.38
9209.00,1.38
9208.00,1.38
9207.00,1.38
9206.00,1.38
9205.00,1.38
9204.00,1.38
9203.00,1.38
9202.00,1.37
9201.00,1.37
9200.00,1.37
9199.00,1.37
9198.00,1.37
9197.00,1.37
9196.00,1.37
9195.00,1.37
9194.00,1.37
9193.00,1.37
9192.00,1.36
9191.00,1.36
9190.00,1.36
9189.00,1.36
9188.00,1.36
9187.00,1.36
9186.00,1.36
9185.00,1.36
9184.00,1.36
9183.00,1.36
9182.00,1.36
9181.00,1.36
9180.00,1.36
9179.00,1.36
9178.00,1.36
9177.00,1.36
9176.00,1.36
9175.00,1.36
9174.00,1.36
9173.00,1.36
9172.00,1.36
9171.00,1.36
9170.00,1.36
9169.00,1.36
9168.00,1.36
9167.00,1.36
9166.00,1.35
9165.00,1.35
9164.00,1.35
9163.00,1.35
9162.00,1.35
9161.00,1.35
9160.00,1.35
9159.00,1.35
9158.00,1.35
9157.00,1.35
9156.00,1.35
9155.00,1.35
9154.00,1.35
9153.00,1.35
9152.00,1.36
9151.00,1.36
9150.00,1.36
9149.00,1.36
9148.00,1.36
9147.00,1.36
9146.00,1.36
9145.00,1.37
9144.00,1.37
9143.00,1.37
9142.00,1.37
9141.00,1.37
9140.00,1.38
9139.00,1.38
9138.00,1.38
9137.00,1.38
9136.00,1.38
9135.00,1.38
9134.00,1.38
9133.00,1.38
9132.00,1.38
9131.00,1.38
9130.00,1.37
9129.00,1.37
9128.00,1.37
9127.00,1.37
9126.00,1.37
9125.00,1.37
9124.00,1.37
9123.00,1.37
9122.00,1.36
9121.00,1.36
9120.00,1.36
9119.00,1.36
9118.00,1.36
9117.00,1.36
9116.00,1.37
9115.00,1.37
9114.00,1.37
9113.00,1.37
9112.00,1.37
9111.00,1.37
9110.00,1.37
9109.00,1.37
9108.00,1.37
9107.00,1.37
9106.00,1.37
9105.00,1.37
9104.00,1.37
9103.00,1.37
9102.00,1.37
9101.00,1.37
9100.00,1.37
9099.00,1.37
9098.00,1.37
9097.00,1.37
9096.00,1.37
9095.00,1.37
9094.00,1.37
9093.00,1.37
9092.00,1.37
9091.00,1.37
9090.00,1.37
9089.00,1.37
9088.00,1.37
9087.00,1.37
9086.00,1.37
9085.00,1.37
9084.00,1.37
9083.00,1.37
9082.00,1.37
9081.00,1.37
9080.00,1.37
9079.00,1.38
9078.00,1.38
9077.00,1.38
9076.00,1.38
9075.00,1.38
9074.00,1.38
9073.00,1.38
9072.00,1.37
9071.00,1.37
9070.00,1.37
9069.00,1.37
9068.00,1.37
9067.00,1.37
9066.00,1.37
9065.00,1.37
9064.00,1.37
9063.00,1.37
9062.00,1.36
9061.00,1.36
9060.00,1.36
9059.00,1.36
9058.00,1.36
9057.00,1.36
9056.00,1.36
9055.00,1.36
9054.00,1.36
9053.00,1.36
9052.00,1.36
9051.00,1.36
9050.00,1.36
9049.00,1.36
9048.00,1.36
9047.00,1.36
9046.00,1.36
9045.00,1.36
9044.00,1.36
9043.00,1.36
9042.00,1.36
9041.00,1.36
9040.00,1.36
9039.00,1.35
9038.00,1.35
9037.00,1.35
9036.00,1.35
9035.00,1.35
9034.00,1.35
9033.00,1.36
9032.00,1.36
9031.00,1.36
9030.00,1.36
9029.00,1.36
9028.00,1.36
9027.00,1.36
9026.00,1.36
9025.00,1.36
9024.00,1.37
9023.00,1.37
9022.00,1.37
9021.00,1.37
9020.00,1.37
9019.00,1.38
9018.00,1.38
9017.00,1.38
9016.00,1.38
9015.00,1.38
9014.00,1.38
9013.00,1.38
9012.00,1.38
9011.00,1.38
9010.00,1.38
9009.00,1.38
9008.00,1.38
9007.00,1.38
9006.00,1.38
9005.00,1.37
9004.00,1.37
9003.00,1.37
9002.00,1.37
9001.00,1.37
9000.00,1.37
8999.00,1.37
8998.00,1.37
8997.00,1.37
8996.00,1.37
8995.00,1.38
8994.00,1.38
8993.00,1.38
8992.00,1.38
8991.00,1.38
8990.00,1.38
8989.00,1.38
8988.00,1.38
8987.00,1.38
8986.00,1.38
8985.00,1.38
8984.00,1.38
8983.00,1.38
8982.00,1.38
8981.00,1.37
8980.00,1.37
8979.00,1.37
8978.00,1.37
8977.00,1.37
8976.00,1.37
8975.00,1.37
8974.00,1.37
8973.00,1.37
8972.00,1.36
8971.00,1.36
8970.00,1.36
8969.00,1.36
8968.00,1.36
8967.00,1.37
8966.00,1.37
8965.00,1.37
8964.00,1.37
8963.00,1.37
8962.00,1.37
8961.00,1.37
8960.00,1.37
8959.00,1.37
8958.00,1.37
8957.00,1.38
8956.00,1.38
8955.00,1.38
8954.00,1.38
8953.00,1.38
8952.00,1.38
8951.00,1.38
8950.00,1.38
8949.00,1.38
8948.00,1.38
8947.00,1.38
8946.00,1.38
8945.00,1.38
8944.00,1.38
8943.00,1.38
8942.00,1.38
8941.00,1.38
8940.00,1.38
8939.00,1.38
8938.00,1.38
8937.00,1.38
8936.00,1.37
8935.00,1.37
8934.00,1.37
8933.00,1.37
8932.00,1.37
8931.00,1.37
8930.00,1.37
8929.00,1.37
8928.00,1.37
8927.00,1.37
8926.00,1.37
8925.00,1.37
8924.00,1.37
8923.00,1.37
8922.00,1.37
8921.00,1.37
8920.00,1.37
8919.00,1.37
8918.00,1.37
8917.00,1.37
8916.00,1.37
8915.00,1.37
8914.00,1.37
8913.00,1.36
8912.00,1.36
8911.00,1.36
8910.00,1.36
8909.00,1.36
8908.00,1.36
8907.00,1.36
8906.00,1.36
8905.00,1.36
8904.00,1.36
8903.00,1.36
8902.00,1.36
8901.00,1.36
8900.00,1.36
8899.00,1.36
8898.00,1.36
8897.00,1.36
8896.00,1.36
8895.00,1.36
8894.00,1.36
8893.00,1.36
8892.00,1.36
8891.00,1.36
8890.00,1.37
8889.00,1.37
8888.00,1.37
8887.00,1.37
8886.00,1.37
8885.00,1.37
8884.00,1.37
8883.00,1.36
8882.00,1.36
8881.00,1.36
8880.00,1.36
8879.00,1.36
8878.00,1.36
8877.00,1.36
8876.00,1.36
8875.00,1.36
8874.00,1.36
8873.00,1.36
8872.00,1.36
8871.00,1.36
8870.00,1.36
8869.00,1.36
8868.00,1.36
8867.00,1.36
8866.00,1.36
8865.00,1.35
8864.00,1.35
8863.00,1.35
8862.00,1.35
8861.00,1.35
8860.00,1.35
8859.00,1.35
8858.00,1.35
8857.00,1.35
8856.00,1.35
8855.00,1.35
8854.00,1.35
8853.00,1.35
8852.00,1.35
8851.00,1.35
8850.00,1.35
8849.00,1.35
8848.00,1.35
8847.00,1.35
8846.00,1.36
8845.00,1.36
8844.00,1.36
8843.00,1.36
8842.00,1.36
8841.00,1.36
8840.00,1.36
8839.00,1.36
8838.00,1.36
8837.00,1.36
8836.00,1.36
8835.00,1.36
8834.00,1.36
8833.00,1.35
8832.00,1.35
8831.00,1.35
8830.00,1.35
8829.00,1.35
8828.00,1.34
8827.00,1.34
8826.00,1.34
8825.00,1.34
8824.00,1.34
8823.00,1.34
8822.00,1.34
8821.00,1.33
8820.00,1.33
8819.00,1.33
8818.00,1.33
8817.00,1.33
8816.00,1.33
8815.00,1.33
8814.00,1.33
8813.00,1.33
8812.00,1.33
8811.00,1.33
8810.00,1.33
8809.00,1.33
8808.00,1.33
8807.00,1.33
8806.00,1.33
8805.00,1.33
8804.00,1.33
8803.00,1.33
8802.00,1.33
8801.00,1.33
8800.00,1.33
8799.00,1.33
8798.00,1.33
8797.00,1.33
8796.00,1.33
8795.00,1.33
8794.00,1.33
8793.00,1.34
8792.00,1.34
8791.00,1.34
8790.00,1.34
8789.00,1.34
8788.00,1.34
8787.00,1.34
8786.00,1.34
8785.00,1.34
8784.00,1.34
8783.00,1.34
8782.00,1.34
8781.00,1.34
8780.00,1.34
8779.00,1.34
8778.00,1.34
8777.00,1.34
8776.00,1.34
8775.00,1.34
8774.00,1.34
8773.00,1.33
8772.00,1.33
8771.00,1.33
8770.00,1.33
8769.00,1.33
8768.00,1.33
8767.00,1.33
8766.00,1.33
8765.00,1.33
8764.00,1.33
8763.00,1.32
8762.00,1.32
8761.00,1.32
8760.00,1.32
8759.00,1.32
8758.00,1.32
8757.00,1.32
8756.00,1.32
8755.00,1.32
8754.00,1.32
8753.00,1.31
8752.00,1.31
8751.00,1.31
8750.00,1.31
8749.00,1.31
8748.00,1.31
8747.00,1.31
8746.00,1.31
8745.00,1.31
8744.00,1.31
8743.00,1.31
8742.00,1.31
8741.00,1.31
8740.00,1.31
8739.00,1.31
8738.00,1.31
8737.00,1.31
8736.00,1.31
8735.00,1.31
8734.00,1.31
8733.00,1.31
8732.00,1.31
8731.00,1.31
8730.00,1.31
8729.00,1.31
8728.00,1.31
8727.00,1.31
8726.00,1.31
8725.00,1.31
8724.00,1.31
8723.00,1.31
8722.00,1.31
8721.00,1.31
8720.00,1.31
8719.00,1.31
8718.00,1.31
8717.00,1.31
8716.00,1.31
8715.00,1.31
8714.00,1.31
8713.00,1.31
8712.00,1.31
8711.00,1.31
8710.00,1.31
8709.00,1.31
8708.00,1.31
8707.00,1.31
8706.00,1.31
8705.00,1.31
8704.00,1.31
8703.00,1.31
8702.00,1.31
8701.00,1.31
8700.00,1.31
8699.00,1.31
8698.00,1.31
8697.00,1.31
8696.00,1.31
8695.00,1.31
8694.00,1.31
8693.00,1.31
8692.00,1.31
8691.00,1.31
8690.00,1.31
8689.00,1.31
8688.00,1.30
8687.00,1.30
8686.00,1.30
8685.00,1.30
8684.00,1.30
8683.00,1.30
8682.00,1.30
8681.00,1.30
8680.00,1.30
8679.00,1.29
8678.00,1.29
8677.00,1.29
8676.00,1.29
8675.00,1.29
8674.00,1.29
8673.00,1.29
8672.00,1.30
8671.00,1.30
8670.00,1.30
8669.00,1.30
8668.00,1.30
8667.00,1.30
8666.00,1.30
8665.00,1.30
8664.00,1.30
8663.00,1.30
8662.00,1.30
8661.00,1.30
8660.00,1.30
8659.00,1.30
8658.00,1.30
8657.00,1.30
8656.00,1.30
8655.00,1.30
8654.00,1.30
8653.00,1.30
8652.00,1.29
8651.00,1.29
8650.00,1.29
8649.00,1.29
8648.00,1.29
8647.00,1.29
8646.00,1.29
8645.00,1.29
8644.00,1.29
8643.00,1.29
8642.00,1.29
8641.00,1.28
8640.00,1.28
8639.00,1.28
8638.00,1.28
8637.00,1.28
8636.00,1.28
8635.00,1.28
8634.00,1.28
8633.00,1.28
8632.00,1.28
8631.00,1.28
8630.00,1.28
8629.00,1.28
8628.00,1.28
8627.00,1.28
8626.00,1.28
8625.00,1.28
8624.00,1.28
8623.00,1.28
8622.00,1.27
8621.00,1.27
8620.00,1.27
8619.00,1.27
8618.00,1.27
8617.00,1.27
8616.00,1.27
8615.00,1.27
8614.00,1.27
8613.00,1.28
8612.00,1.28
8611.00,1.28
8610.00,1.28
8609.00,1.28
8608.00,1.28
8607.00,1.29
8606.00,1.29
8605.00,1.29
8604.00,1.29
8603.00,1.29
8602.00,1.29
8601.00,1.29
8600.00,1.29
8599.00,1.29
8598.00,1.29
8597.00,1.29
8596.00,1.29
8595.00,1.29
8594.00,1.28
8593.00,1.28
8592.00,1.28
8591.00,1.28
8590.00,1.27
8589.00,1.27
8588.00,1.27
8587.00,1.27
8586.00,1.26
8585.00,1.26
8584.00,1.26
8583.00,1.26
8582.00,1.26
8581.00,1.26
8580.00,1.26
8579.00,1.25
8578.00,1.25
8577.00,1.25
8576.00,1.25
8575.00,1.25
8574.00,1.25
8573.00,1.25
8572.00,1.25
8571.00,1.25
8570.00,1.25
8569.00,1.25
8568.00,1.25
8567.00,1.25
8566.00,1.25
8565.00,1.25
8564.00,1.25
8563.00,1.25
8562.00,1.25
8561.00,1.25
8560.00,1.25
8559.00,1.25
8558.00,1.25
8557.00,1.25
8556.00,1.25
8555.00,1.25
8554.00,1.25
8553.00,1.25
8552.00,1.25
8551.00,1.25
8550.00,1.25
8549.00,1.25
8548.00,1.25
8547.00,1.25
8546.00,1.25
8545.00,1.26
8544.00,1.26
8543.00,1.26
8542.00,1.26
8541.00,1.26
8540.00,1.26
8539.00,1.26
8538.00,1.26
8537.00,1.26
8536.00,1.26
8535.00,1.27
8534.00,1.27
8533.00,1.27
8532.00,1.26
8531.00,1.26
8530.00,1.26
8529.00,1.26
8528.00,1.26
8527.00,1.26
8526.00,1.26
8525.00,1.25
8524.00,1.25
8523.00,1.25
8522.00,1.25
8521.00,1.24
8520.00,1.24
8519.00,1.24
8518.00,1.23
8517.00,1.23
8516.00,1.23
8515.00,1.23
8514.00,1.23
8513.00,1.23
8512.00,1.22
8511.00,1.22
8510.00,1.22
8509.00,1.22
8508.00,1.22
8507.00,1.22
8506.00,1.22
8505.00,1.22
8504.00,1.22
8503.00,1.22
8502.00,1.22
8501.00,1.22
8500.00,1.21
8499.00,1.21
8498.00,1.21
8497.00,1.21
8496.00,1.21
8495.00,1.20
8494.00,1.20
8493.00,1.20
8492.00,1.20
8491.00,1.20
8490.00,1.20
8489.00,1.20
8488.00,1.20
8487.00,1.20
8486.00,1.20
8485.00,1.20
8484.00,1.20
8483.00,1.21
8482.00,1.21
8481.00,1.21
8480.00,1.21
8479.00,1.21
8478.00,1.21
8477.00,1.21
8476.00,1.21
8475.00,1.21
8474.00,1.21
8473.00,1.21
8472.00,1.21
8471.00,1.20
8470.00,1.20
8469.00,1.20
8468.00,1.20
8467.00,1.20
8466.00,1.20
8465.00,1.20
8464.00,1.20
8463.00,1.19
8462.00,1.19
8461.00,1.19
8460.00,1.19
8459.00,1.19
8458.00,1.19
8457.00,1.19
8456.00,1.19
8455.00,1.19
8454.00,1.19
8453.00,1.19
8452.00,1.19
8451.00,1.19
8450.00,1.19
8449.00,1.18
8448.00,1.18
8447.00,1.18
8446.00,1.18
8445.00,1.18
8444.00,1.18
8443.00,1.18
8442.00,1.18
8441.00,1.18
8440.00,1.18
8439.00,1.18
8438.00,1.18
8437.00,1.18
8436.00,1.18
8435.00,1.18
8434.00,1.18
8433.00,1.18
8432.00,1.18
8431.00,1.18
8430.00,1.18
8429.00,1.19
8428.00,1.19
8427.00,1.19
8426.00,1.19
8425.00,1.19
8424.00,1.20
8423.00,1.20
8422.00,1.20
8421.00,1.20
8420.00,1.20
8419.00,1.20
8418.00,1.20
8417.00,1.21
8416.00,1.21
8415.00,1.21
8414.00,1.21
8413.00,1.21
8412.00,1.21
8411.00,1.21
8410.00,1.21
8409.00,1.21
8408.00,1.21
8407.00,1.21
8406.00,1.21
8405.00,1.21
8404.00,1.21
8403.00,1.21
8402.00,1.21
8401.00,1.21
8400.00,1.21
8399.00,1.21
8398.00,1.21
8397.00,1.21
8396.00,1.21
8395.00,1.21
8394.00,1.22
8393.00,1.22
8392.00,1.22
8391.00,1.22
8390.00,1.22
8389.00,1.22
8388.00,1.22
8387.00,1.22
8386.00,1.22
8385.00,1.23
8384.00,1.23
8383.00,1.23
8382.00,1.23
8381.00,1.23
8380.00,1.23
8379.00,1.23
8378.00,1.23
8377.00,1.23
8376.00,1.23
8375.00,1.23
8374.00,1.24
8373.00,1.24
8372.00,1.24
8371.00,1.24
8370.00,1.24
8369.00,1.23
8368.00,1.23
8367.00,1.23
8366.00,1.23
8365.00,1.23
8364.00,1.23
8363.00,1.23
8362.00,1.23
8361.00,1.23
8360.00,1.23
8359.00,1.23
8358.00,1.23
8357.00,1.23
8356.00,1.23
8355.00,1.23
8354.00,1.23
8353.00,1.23
8352.00,1.23
8351.00,1.23
8350.00,1.23
8349.00,1.23
8348.00,1.24
8347.00,1.24
8346.00,1.24
8345.00,1.24
8344.00,1.24
8343.00,1.24
8342.00,1.24
8341.00,1.24
8340.00,1.25
8339.00,1.25
8338.00,1.25
8337.00,1.25
8336.00,1.25
8335.00,1.25
8334.00,1.25
8333.00,1.25
8332.00,1.25
8331.00,1.25
8330.00,1.25
8329.00,1.25
8328.00,1.24
8327.00,1.24
8326.00,1.24
8325.00,1.24
8324.00,1.24
8323.00,1.24
8322.00,1.24
8321.00,1.24
8320.00,1.24
8319.00,1.24
8318.00,1.24
8317.00,1.24
8316.00,1.24
8315.00,1.24
8314.00,1.24
8313.00,1.24
8312.00,1.24
8311.00,1.24
8310.00,1.24
8309.00,1.24
8308.00,1.24
8307.00,1.24
8306.00,1.24
8305.00,1.24
8304.00,1.24
8303.00,1.24
8302.00,1.24
8301.00,1.24
8300.00,1.24
8299.00,1.24
8298.00,1.24
8297.00,1.24
8296.00,1.24
8295.00,1.24
8294.00,1.24
8293.00,1.24
8292.00,1.24
8291.00,1.24
8290.00,1.24
8289.00,1.24
8288.00,1.24
8287.00,1.24
8286.00,1.24
8285.00,1.24
8284.00,1.24
8283.00,1.24
8282.00,1.24
8281.00,1.24
8280.00,1.24
8279.00,1.24
8278.00,1.24
8277.00,1.24
8276.00,1.24
8275.00,1.24
8274.00,1.24
8273.00,1.24
8272.00,1.24
8271.00,1.24
8270.00,1.24
8269.00,1.24
8268.00,1.24
8267.00,1.25
8266.00,1.25
8265.00,1.25
8264.00,1.25
8263.00,1.25
8262.00,1.25
8261.00,1.25
8260.00,1.25
8259.00,1.25
8258.00,1.25
8257.00,1.25
8256.00,1.25
8255.00,1.25
8254.00,1.25
8253.00,1.25
8252.00,1.25
8251.00,1.25
8250.00,1.25
8249.00,1.25
8248.00,1.25
8247.00,1.25
8246.00,1.25
8245.00,1.25
8244.00,1.25
8243.00,1.25
8242.00,1.25
8241.00,1.25
8240.00,1.25
8239.00,1.25
8238.00,1.25
8237.00,1.25
8236.00,1.25
8235.00,1.25
8234.00,1.25
8233.00,1.25
8232.00,1.25
8231.00,1.26
8230.00,1.26
8229.00,1.26
8228.00,1.26
8227.00,1.26
8226.00,1.26
8225.00,1.26
8224.00,1.26
8223.00,1.27
8222.00,1.27
8221.00,1.27
8220.00,1.27
8219.00,1.27
8218.00,1.27
8217.00,1.27
8216.00,1.27
8215.00,1.27
8214.00,1.27
8213.00,1.27
8212.00,1.27
8211.00,1.27
8210.00,1.27
8209.00,1.27
8208.00,1.27
8207.00,1.27
8206.00,1.27
8205.00,1.27
8204.00,1.27
8203.00,1.27
8202.00,1.27
8201.00,1.27
8200.00,1.27
8199.00,1.27
8198.00,1.28
8197.00,1.28
8196.00,1.28
8195.00,1.28
8194.00,1.28
8193.00,1.28
8192.00,1.28
8191.00,1.28
8190.00,1.28
8189.00,1.28
8188.00,1.28
8187.00,1.29
8186.00,1.29
8185.00,1.29
8184.00,1.29
8183.00,1.29
8182.00,1.29
8181.00,1.29
8180.00,1.29
8179.00,1.29
8178.00,1.29
8177.00,1.29
8176.00,1.29
8175.00,1.29
8174.00,1.29
8173.00,1.29
8172.00,1.28
8171.00,1.28
8170.00,1.28
8169.00,1.28
8168.00,1.28
8167.00,1.28
8166.00,1.28
8165.00,1.28
8164.00,1.28
8163.00,1.28
8162.00,1.28
8161.00,1.28
8160.00,1.27
8159.00,1.27
8158.00,1.27
8157.00,1.27
8156.00,1.27
8155.00,1.27
8154.00,1.27
8153.00,1.28
8152.00,1.28
8151.00,1.28
8150.00,1.28
8149.00,1.28
8148.00,1.28
8147.00,1.29
8146.00,1.29
8145.00,1.29
8144.00,1.29
8143.00,1.29
8142.00,1.30
8141.00,1.30
8140.00,1.30
8139.00,1.30
8138.00,1.30
8137.00,1.30
8136.00,1.30
8135.00,1.30
8134.00,1.30
8133.00,1.30
8132.00,1.30
8131.00,1.30
8130.00,1.30
8129.00,1.30
8128.00,1.30
8127.00,1.30
8126.00,1.30
8125.00,1.30
8124.00,1.30
8123.00,1.30
8122.00,1.30
8121.00,1.30
8120.00,1.30
8119.00,1.30
8118.00,1.31
8117.00,1.31
8116.00,1.31
8115.00,1.31
8114.00,1.31
8113.00,1.31
8112.00,1.31
8111.00,1.31
8110.00,1.31
8109.00,1.31
8108.00,1.31
8107.00,1.31
8106.00,1.31
8105.00,1.31
8104.00,1.31
8103.00,1.31
8102.00,1.31
8101.00,1.32
8100.00,1.32
8099.00,1.32
8098.00,1.32
8097.00,1.32
8096.00,1.32
8095.00,1.32
8094.00,1.32
8093.00,1.32
8092.00,1.32
8091.00,1.32
8090.00,1.32
8089.00,1.32
8088.00,1.32
8087.00,1.32
8086.00,1.32
8085.00,1.32
8084.00,1.32
8083.00,1.32
8082.00,1.32
8081.00,1.32
8080.00,1.32
8079.00,1.32
8078.00,1.32
8077.00,1.32
8076.00,1.32
8075.00,1.32
8074.00,1.32
8073.00,1.32
8072.00,1.32
8071.00,1.32
8070.00,1.32
8069.00,1.32
8068.00,1.32
8067.00,1.32
8066.00,1.32
8065.00,1.32
8064.00,1.32
8063.00,1.32
8062.00,1.32
8061.00,1.32
8060.00,1.32
8059.00,1.33
8058.00,1.33
8057.00,1.33
8056.00,1.33
8055.00,1.33
8054.00,1.33
8053.00,1.33
8052.00,1.33
8051.00,1.33
8050.00,1.33
8049.00,1.33
8048.00,1.33
8047.00,1.33
8046.00,1.33
8045.00,1.33
8044.00,1.33
8043.00,1.33
8042.00,1.33
8041.00,1.33
8040.00,1.33
8039.00,1.33
8038.00,1.33
8037.00,1.33
8036.00,1.33
8035.00,1.33
8034.00,1.33
8033.00,1.33
8032.00,1.33
8031.00,1.33
8030.00,1.33
8029.00,1.33
8028.00,1.34
8027.00,1.34
8026.00,1.34
8025.00,1.34
8024.00,1.34
8023.00,1.34
8022.00,1.34
8021.00,1.34
8020.00,1.34
8019.00,1.35
8018.00,1.35
8017.00,1.35
8016.00,1.35
8015.00,1.35
8014.00,1.35
8013.00,1.35
8012.00,1.35
8011.00,1.35
8010.00,1.34
8009.00,1.34
8008.00,1.34
8007.00,1.34
8006.00,1.34
8005.00,1.34
8004.00,1.34
8003.00,1.34
8002.00,1.34
8001.00,1.34
8000.00,1.34
7999.00,1.34
7998.00,1.34
7997.00,1.34
7996.00,1.34
7995.00,1.34
7994.00,1.34
7993.00,1.34
7992.00,1.34
7991.00,1.34
7990.00,1.34
7989.00,1.34
7988.00,1.34
7987.00,1.34
7986.00,1.34
7985.00,1.34
7984.00,1.34
7983.00,1.34
7982.00,1.34
7981.00,1.34
7980.00,1.34
7979.00,1.33
7978.00,1.33
7977.00,1.33
7976.00,1.33
7975.00,1.33
7974.00,1.33
7973.00,1.33
7972.00,1.33
7971.00,1.33
7970.00,1.33
7969.00,1.33
7968.00,1.33
7967.00,1.34
7966.00,1.34
7965.00,1.34
7964.00,1.34
7963.00,1.34
7962.00,1.34
7961.00,1.34
7960.00,1.34
7959.00,1.35
7958.00,1.35
7957.00,1.35
7956.00,1.35
7955.00,1.35
7954.00,1.35
7953.00,1.35
7952.00,1.35
7951.00,1.35
7950.00,1.36
7949.00,1.36
7948.00,1.36
7947.00,1.35
7946.00,1.35
7945.00,1.35
7944.00,1.35
7943.00,1.35
7942.00,1.35
7941.00,1.35
7940.00,1.35
7939.00,1.35
7938.00,1.35
7937.00,1.35
7936.00,1.35
7935.00,1.35
7934.00,1.35
7933.00,1.35
7932.00,1.35
7931.00,1.35
7930.00,1.35
7929.00,1.35
7928.00,1.35
7927.00,1.35
7926.00,1.35
7925.00,1.35
7924.00,1.35
7923.00,1.35
7922.00,1.35
7921.00,1.35
7920.00,1.35
7919.00,1.35
7918.00,1.35
7917.00,1.35
7916.00,1.35
7915.00,1.35
7914.00,1.35
7913.00,1.35
7912.00,1.35
7911.00,1.35
7910.00,1.35
7909.00,1.35
7908.00,1.35
7907.00,1.36
7906.00,1.36
7905.00,1.36
7904.00,1.36
7903.00,1.36
7902.00,1.36
7901.00,1.36
7900.00,1.36
7899.00,1.36
7898.00,1.36
7897.00,1.36
7896.00,1.36
7895.00,1.36
7894.00,1.36
7893.00,1.36
7892.00,1.36
7891.00,1.36
7890.00,1.36
7889.00,1.36
7888.00,1.36
7887.00,1.36
7886.00,1.36
7885.00,1.36
7884.00,1.36
7883.00,1.36
7882.00,1.36
7881.00,1.36
7880.00,1.36
7879.00,1.36
7878.00,1.36
7877.00,1.36
7876.00,1.36
7875.00,1.36
7874.00,1.36
7873.00,1.35
7872.00,1.35
7871.00,1.35
7870.00,1.35
7869.00,1.35
7868.00,1.35
7867.00,1.35
7866.00,1.35
7865.00,1.35
7864.00,1.35
7863.00,1.35
7862.00,1.35
7861.00,1.36
7860.00,1.36
7859.00,1.36
7858.00,1.36
7857.00,1.36
7856.00,1.36
7855.00,1.36
7854.00,1.36
7853.00,1.36
7852.00,1.36
7851.00,1.36
7850.00,1.36
7849.00,1.36
7848.00,1.36
7847.00,1.36
7846.00,1.36
7845.00,1.36
7844.00,1.36
7843.00,1.36
7842.00,1.36
7841.00,1.36
7840.00,1.36
7839.00,1.36
7838.00,1.36
7837.00,1.36
7836.00,1.36
7835.00,1.36
7834.00,1.36
7833.00,1.36
7832.00,1.36
7831.00,1.36
7830.00,1.36
7829.00,1.36
7828.00,1.36
7827.00,1.36
7826.00,1.36
7825.00,1.36
7824.00,1.36
7823.00,1.36
7822.00,1.36
7821.00,1.36
7820.00,1.36
7819.00,1.36
7818.00,1.36
7817.00,1.36
7816.00,1.36
7815.00,1.36
7814.00,1.36
7813.00,1.36
7812.00,1.37
7811.00,1.37
7810.00,1.37
7809.00,1.37
7808.00,1.37
7807.00,1.37
7806.00,1.37
7805.00,1.37
7804.00,1.37
7803.00,1.37
7802.00,1.37
7801.00,1.37
7800.00,1.37
7799.00,1.37
7798.00,1.37
7797.00,1.37
7796.00,1.37
7795.00,1.37
7794.00,1.37
7793.00,1.37
7792.00,1.37
7791.00,1.37
7790.00,1.37
7789.00,1.37
7788.00,1.37
7787.00,1.38
7786.00,1.38
7785.00,1.38
7784.00,1.38
7783.00,1.38
7782.00,1.38
7781.00,1.38
7780.00,1.38
7779.00,1.38
7778.00,1.38
7777.00,1.38
7776.00,1.38
7775.00,1.38
7774.00,1.38
7773.00,1.38
7772.00,1.38
7771.00,1.38
7770.00,1.38
7769.00,1.38
7768.00,1.38
7767.00,1.38
7766.00,1.38
7765.00,1.38
7764.00,1.38
7763.00,1.38
7762.00,1.38
7761.00,1.38
7760.00,1.38
7759.00,1.38
7758.00,1.38
7757.00,1.38
7756.00,1.38
7755.00,1.38
7754.00,1.38
7753.00,1.38
7752.00,1.38
7751.00,1.38
7750.00,1.38
7749.00,1.38
7748.00,1.38
7747.00,1.38
7746.00,1.38
7745.00,1.38
7744.00,1.38
7743.00,1.38
7742.00,1.38
7741.00,1.37
7740.00,1.37
7739.00,1.37
7738.00,1.37
7737.00,1.37
7736.00,1.38
7735.00,1.38
7734.00,1.38
7733.00,1.38
7732.00,1.38
7731.00,1.38
7730.00,1.38
7729.00,1.38
7728.00,1.38
7727.00,1.38
7726.00,1.38
7725.00,1.38
7724.00,1.38
7723.00,1.38
7722.00,1.38
7721.00,1.38
7720.00,1.38
7719.00,1.38
7718.00,1.38
7717.00,1.38
7716.00,1.38
7715.00,1.38
7714.00,1.38
7713.00,1.38
7712.00,1.37
7711.00,1.37
7710.00,1.37
7709.00,1.37
7708.00,1.37
7707.00,1.37
7706.00,1.37
7705.00,1.37
7704.00,1.37
7703.00,1.37
7702.00,1.37
7701.00,1.37
7700.00,1.37
7699.00,1.37
7698.00,1.37
7697.00,1.37
7696.00,1.37
7695.00,1.37
7694.00,1.37
7693.00,1.37
7692.00,1.37
7691.00,1.37
7690.00,1.37
7689.00,1.38
7688.00,1.38
7687.00,1.38
7686.00,1.38
7685.00,1.38
7684.00,1.38
7683.00,1.38
7682.00,1.37
7681.00,1.37
7680.00,1.37
7679.00,1.37
7678.00,1.37
7677.00,1.37
7676.00,1.37
7675.00,1.37
7674.00,1.37
7673.00,1.37
7672.00,1.37
7671.00,1.37
7670.00,1.37
7669.00,1.37
7668.00,1.37
7667.00,1.37
7666.00,1.37
7665.00,1.37
7664.00,1.37
7663.00,1.37
7662.00,1.37
7661.00,1.37
7660.00,1.37
7659.00,1.37
7658.00,1.37
7657.00,1.37
7656.00,1.37
7655.00,1.37
7654.00,1.37
7653.00,1.37
7652.00,1.37
7651.00,1.37
7650.00,1.37
7649.00,1.37
7648.00,1.38
7647.00,1.38
7646.00,1.38
7645.00,1.38
7644.00,1.38
7643.00,1.38
7642.00,1.38
7641.00,1.38
7640.00,1.38
7639.00,1.38
7638.00,1.38
7637.00,1.38
7636.00,1.38
7635.00,1.38
7634.00,1.38
7633.00,1.38
7632.00,1.38
7631.00,1.38
7630.00,1.38
7629.00,1.38
7628.00,1.38
7627.00,1.38
7626.00,1.38
7625.00,1.38
7624.00,1.38
7623.00,1.38
7622.00,1.38
7621.00,1.38
7620.00,1.38
7619.00,1.38
7618.00,1.38
7617.00,1.38
7616.00,1.38
7615.00,1.38
7614.00,1.38
7613.00,1.38
7612.00,1.38
7611.00,1.38
7610.00,1.38
7609.00,1.38
7608.00,1.38
7607.00,1.38
7606.00,1.38
7605.00,1.38
7604.00,1.38
7603.00,1.38
7602.00,1.38
7601.00,1.38
7600.00,1.38
7599.00,1.38
7598.00,1.38
7597.00,1.38
7596.00,1.38
7595.00,1.38
7594.00,1.38
7593.00,1.38
7592.00,1.38
7591.00,1.38
7590.00,1.38
7589.00,1.38
7588.00,1.38
7587.00,1.38
7586.00,1.38
7585.00,1.38
7584.00,1.38
7583.00,1.38
7582.00,1.38
7581.00,1.38
7580.00,1.38
7579.00,1.38
7578.00,1.38
7577.00,1.38
7576.00,1.38
7575.00,1.38
7574.00,1.38
7573.00,1.38
7572.00,1.38
7571.00,1.38
7570.00,1.38
7569.00,1.38
7568.00,1.38
7567.00,1.38
7566.00,1.38
7565.00,1.38
7564.00,1.38
7563.00,1.38
7562.00,1.38
7561.00,1.38
7560.00,1.37
7559.00,1.37
7558.00,1.37
7557.00,1.37
7556.00,1.37
7555.00,1.37
7554.00,1.37
7553.00,1.37
7552.00,1.37
7551.00,1.37
7550.00,1.37
7549.00,1.37
7548.00,1.36
7547.00,1.36
7546.00,1.36
7545.00,1.36
7544.00,1.36
7543.00,1.36
7542.00,1.36
7541.00,1.36
7540.00,1.36
7539.00,1.36
7538.00,1.36
7537.00,1.36
7536.00,1.35
7535.00,1.35
7534.00,1.35
7533.00,1.35
7532.00,1.35
7531.00,1.35
7530.00,1.35
7529.00,1.35
7528.00,1.35
7527.00,1.35
7526.00,1.35
7525.00,1.35
7524.00,1.35
7523.00,1.35
7522.00,1.35
7521.00,1.35
7520.00,1.35
7519.00,1.35
7518.00,1.35
7517.00,1.35
7516.00,1.35
7515.00,1.35
7514.00,1.35
7513.00,1.35
7512.00,1.35
7511.00,1.35
7510.00,1.35
7509.00,1.35
7508.00,1.35
7507.00,1.35
7506.00,1.35
7505.00,1.35
7504.00,1.35
7503.00,1.35
7502.00,1.35
7501.00,1.35
7500.00,1.35
7499.00,1.35
7498.00,1.35
7497.00,1.35
7496.00,1.35
7495.00,1.35
7494.00,1.35
7493.00,1.35
7492.00,1.35
7491.00,1.35
7490.00,1.35
7489.00,1.35
7488.00,1.35
7487.00,1.35
7486.00,1.35
7485.00,1.35
7484.00,1.34
7483.00,1.34
7482.00,1.34
7481.00,1.34
7480.00,1.34
7479.00,1.34
7478.00,1.34
7477.00,1.34
7476.00,1.34
7475.00,1.34
7474.00,1.34
7473.00,1.34
7472.00,1.33
7471.00,1.33
7470.00,1.33
7469.00,1.33
7468.00,1.33
7467.00,1.33
7466.00,1.33
7465.00,1.33
7464.00,1.33
7463.00,1.33
7462.00,1.33
7461.00,1.33
7460.00,1.33
7459.00,1.33
7458.00,1.33
7457.00,1.33
7456.00,1.33
7455.00,1.33
7454.00,1.33
7453.00,1.33
7452.00,1.33
7451.00,1.33
7450.00,1.32
7449.00,1.32
7448.00,1.32
7447.00,1.32
7446.00,1.32
7445.00,1.32
7444.00,1.32
7443.00,1.32
7442.00,1.32
7441.00,1.32
7440.00,1.32
7439.00,1.32
7438.00,1.32
7437.00,1.32
7436.00,1.32
7435.00,1.32
7434.00,1.32
7433.00,1.32
7432.00,1.32
7431.00,1.32
7430.00,1.32
7429.00,1.32
7428.00,1.31
7427.00,1.31
7426.00,1.31
7425.00,1.31
7424.00,1.31
7423.00,1.31
7422.00,1.31
7421.00,1.31
7420.00,1.31
7419.00,1.31
7418.00,1.30
7417.00,1.30
7416.00,1.30
7415.00,1.30
7414.00,1.30
7413.00,1.30
7412.00,1.29
7411.00,1.29
7410.00,1.29
7409.00,1.29
7408.00,1.29
7407.00,1.29
7406.00,1.28
7405.00,1.28
7404.00,1.28
7403.00,1.28
7402.00,1.28
7401.00,1.28
7400.00,1.28
7399.00,1.28
7398.00,1.27
7397.00,1.27
7396.00,1.27
7395.00,1.27
7394.00,1.27
7393.00,1.27
7392.00,1.27
7391.00,1.27
7390.00,1.26
7389.00,1.26
7388.00,1.26
7387.00,1.26
7386.00,1.26
7385.00,1.26
7384.00,1.26
7383.00,1.26
7382.00,1.25
7381.00,1.25
7380.00,1.25
7379.00,1.25
7378.00,1.25
7377.00,1.25
7376.00,1.25
7375.00,1.25
7374.00,1.25
7373.00,1.25
7372.00,1.25
7371.00,1.25
7370.00,1.25
7369.00,1.25
7368.00,1.25
7367.00,1.25
7366.00,1.25
7365.00,1.25
7364.00,1.25
7363.00,1.25
7362.00,1.25
7361.00,1.25
7360.00,1.25
7359.00,1.25
7358.00,1.25
7357.00,1.25
7356.00,1.25
7355.00,1.25
7354.00,1.25
7353.00,1.25
7352.00,1.25
7351.00,1.25
7350.00,1.25
7349.00,1.25
7348.00,1.25
7347.00,1.25
7346.00,1.25
7345.00,1.25
7344.00,1.25
7343.00,1.25
7342.00,1.25
7341.00,1.24
7340.00,1.24
7339.00,1.24
7338.00,1.24
7337.00,1.24
7336.00,1.24
7335.00,1.24
7334.00,1.24
7333.00,1.24
7332.00,1.24
7331.00,1.24
7330.00,1.23
7329.00,1.23
7328.00,1.23
7327.00,1.23
7326.00,1.23
7325.00,1.23
7324.00,1.23
7323.00,1.23
7322.00,1.23
7321.00,1.23
7320.00,1.23
7319.00,1.22
7318.00,1.22
7317.00,1.22
7316.00,1.22
7315.00,1.22
7314.00,1.22
7313.00,1.22
7312.00,1.22
7311.00,1.22
7310.00,1.22
7309.00,1.22
7308.00,1.21
7307.00,1.21
7306.00,1.21
7305.00,1.21
7304.00,1.21
7303.00,1.21
7302.00,1.21
7301.00,1.21
7300.00,1.21
7299.00,1.21
7298.00,1.20
7297.00,1.20
7296.00,1.20
7295.00,1.20
7294.00,1.20
7293.00,1.20
7292.00,1.20
7291.00,1.19
7290.00,1.19
7289.00,1.19
7288.00,1.19
7287.00,1.19
7286.00,1.19
7285.00,1.19
7284.00,1.19
7283.00,1.19
7282.00,1.19
7281.00,1.19
7280.00,1.19
7279.00,1.19
7278.00,1.18
7277.00,1.18
7276.00,1.18
7275.00,1.18
7274.00,1.18
7273.00,1.18
7272.00,1.18
7271.00,1.18
7270.00,1.18
7269.00,1.18
7268.00,1.18
7267.00,1.17
7266.00,1.17
7265.00,1.17
7264.00,1.17
7263.00,1.17
7262.00,1.16
7261.00,1.16
7260.00,1.16
7259.00,1.16
7258.00,1.15
7257.00,1.15
7256.00,1.15
7255.00,1.15
7254.00,1.14
7253.00,1.14
7252.00,1.14
7251.00,1.14
7250.00,1.13
7249.00,1.13
7248.00,1.13
7247.00,1.13
7246.00,1.13
7245.00,1.12
7244.00,1.12
7243.00,1.12
7242.00,1.12
7241.00,1.12
7240.00,1.12
7239.00,1.11
7238.00,1.11
7237.00,1.11
7236.00,1.11
7235.00,1.10
7234.00,1.10
7233.00,1.10
7232.00,1.10
7231.00,1.09
7230.00,1.09
7229.00,1.09
7228.00,1.08
7227.00,1.08
7226.00,1.08
7225.00,1.07
7224.00,1.07
7223.00,1.06
7222.00,1.06
7221.00,1.06
7220.00,1.05
7219.00,1.05
7218.00,1.04
7217.00,1.04
7216.00,1.04
7215.00,1.03
7214.00,1.03
7213.00,1.02
7212.00,1.02
7211.00,1.02
7210.00,1.01
7209.00,1.01
7208.00,1.00
7207.00,1.00
7206.00,1.00
7205.00,0.99
7204.00,0.99
7203.00,0.99
7202.00,0.98
7201.00,0.98
7200.00,0.98
7199.00,0.97
7198.00,0.97
7197.00,0.97
7196.00,0.97
7195.00,0.96
7194.00,0.96
7193.00,0.96
7192.00,0.95
7191.00,0.95
7190.00,0.95
7189.00,0.94
7188.00,0.94
7187.00,0.94
7186.00,0.93
7185.00,0.93
7184.00,0.93
7183.00,0.92
7182.00,0.92
7181.00,0.92
7180.00,0.91
7179.00,0.91
7178.00,0.90
7177.00,0.90
7176.00,0.90
7175.00,0.89
7174.00,0.89
7173.00,0.89
7172.00,0.88
7171.00,0.88
7170.00,0.88
7169.00,0.87
7168.00,0.87
7167.00,0.87
7166.00,0.87
7165.00,0.86
7164.00,0.86
7163.00,0.86
7162.00,0.86
7161.00,0.86
7160.00,0.85
7159.00,0.85
7158.00,0.85
7157.00,0.85
7156.00,0.85
7155.00,0.84
7154.00,0.84
7153.00,0.84
7152.00,0.84
7151.00,0.83
7150.00,0.83
7149.00,0.83
7148.00,0.82
7147.00,0.82
7146.00,0.82
7145.00,0.81
7144.00,0.81
7143.00,0.81
7142.00,0.80
7141.00,0.80
7140.00,0.80
7139.00,0.79
7138.00,0.79
7137.00,0.79
7136.00,0.79
7135.00,0.78
7134.00,0.78
7133.00,0.78
7132.00,0.78
7131.00,0.77
7130.00,0.77
7129.00,0.77
7128.00,0.77
7127.00,0.76
7126.00,0.76
7125.00,0.76
7124.00,0.75
7123.00,0.75
7122.00,0.75
7121.00,0.75
7120.00,0.74
7119.00,0.74
7118.00,0.74
7117.00,0.74
7116.00,0.73
7115.00,0.73
7114.00,0.73
7113.00,0.73
7112.00,0.72
7111.00,0.72
7110.00,0.72
7109.00,0.72
7108.00,0.72
7107.00,0.71
7106.00,0.71
7105.00,0.71
7104.00,0.71
7103.00,0.71
7102.00,0.71
7101.00,0.70
7100.00,0.70
7099.00,0.70
7098.00,0.70
7097.00,0.70
7096.00,0.70
7095.00,0.69
7094.00,0.69
7093.00,0.69
7092.00,0.69
7091.00,0.69
7090.00,0.69
7089.00,0.68
7088.00,0.68
7087.00,0.68
7086.00,0.68
7085.00,0.68
7084.00,0.68
7083.00,0.67
7082.00,0.67
7081.00,0.67
7080.00,0.67
7079.00,0.67
7078.00,0.67
7077.00,0.67
7076.00,0.66
7075.00,0.66
7074.00,0.66
7073.00,0.66
7072.00,0.66
7071.00,0.66
7070.00,0.66
7069.00,0.66
7068.00,0.66
7067.00,0.66
7066.00,0.66
7065.00,0.65
7064.00,0.65
7063.00,0.65
7062.00,0.65
7061.00,0.65
7060.00,0.65
7059.00,0.65
7058.00,0.65
7057.00,0.65
7056.00,0.64
7055.00,0.64
7054.00,0.64
7053.00,0.64
7052.00,0.64
7051.00,0.64
7050.00,0.63
7049.00,0.63
7048.00,0.63
7047.00,0.63
7046.00,0.63
7045.00,0.63
7044.00,0.63
7043.00,0.63
7042.00,0.63
7041.00,0.63
7040.00,0.63
7039.00,0.63
7038.00,0.63
7037.00,0.63
7036.00,0.63
7035.00,0.63
7034.00,0.62
7033.00,0.62
7032.00,0.62
7031.00,0.62
7030.00,0.62
7029.00,0.62
7028.00,0.62
7027.00,0.62
7026.00,0.62
7025.00,0.61
7024.00,0.61
7023.00,0.61
7022.00,0.61
7021.00,0.61
7020.00,0.61
7019.00,0.61
7018.00,0.61
7017.00,0.61
7016.00,0.61
7015.00,0.61
7014.00,0.61
7013.00,0.61
7012.00,0.61
7011.00,0.61
7010.00,0.61
7009.00,0.60
7008.00,0.60
7007.00,0.60
7006.00,0.60
7005.00,0.60
7004.00,0.60
7003.00,0.60
7002.00,0.60
7001.00,0.60
7000.00,0.59
6999.00,0.59
6998.00,0.59
6997.00,0.59
6996.00,0.59
6995.00,0.59
6994.00,0.59
6993.00,0.59
6992.00,0.59
6991.00,0.59
6990.00,0.59
6989.00,0.59
6988.00,0.59
6987.00,0.59
6986.00,0.59
6985.00,0.59
6984.00,0.59
6983.00,0.59
6982.00,0.59
6981.00,0.59
6980.00,0.59
6979.00,0.59
6978.00,0.59
6977.00,0.58
6976.00,0.58
6975.00,0.58
6974.00,0.58
6973.00,0.58
6972.00,0.58
6971.00,0.58
6970.00,0.58
6969.00,0.57
6968.00,0.57
6967.00,0.57
6966.00,0.57
6965.00,0.57
6964.00,0.57
6963.00,0.57
6962.00,0.57
6961.00,0.57
6960.00,0.57
6959.00,0.57
6958.00,0.57
6957.00,0.57
6956.00,0.57
6955.00,0.57
6954.00,0.57
6953.00,0.57
6952.00,0.57
6951.00,0.57
6950.00,0.57
6949.00,0.57
6948.00,0.57
6947.00,0.57
6946.00,0.57
6945.00,0.57
6944.00,0.57
6943.00,0.57
6942.00,0.57
6941.00,0.57
6940.00,0.57
6939.00,0.57
6938.00,0.57
6937.00,0.57
6936.00,0.57
6935.00,0.57
6934.00,0.57
6933.00,0.57
6932.00,0.57
6931.00,0.57
6930.00,0.57
6929.00,0.57
6928.00,0.57
6927.00,0.57
6926.00,0.57
6925.00,0.57
6924.00,0.57
6923.00,0.57
6922.00,0.57
6921.00,0.57
6920.00,0.57
6919.00,0.57
6918.00,0.57
6917.00,0.57
6916.00,0.57
6915.00,0.57
6914.00,0.57
6913.00,0.57
6912.00,0.57
6911.00,0.57
6910.00,0.57
6909.00,0.57
6908.00,0.57
6907.00,0.57
6906.00,0.57
6905.00,0.57
6904.00,0.57
6903.00,0.57
6902.00,0.57
6901.00,0.57
6900.00,0.57
6899.00,0.57
6898.00,0.57
6897.00,0.57
6896.00,0.57
6895.00,0.57
6894.00,0.57
6893.00,0.57
6892.00,0.57
6891.00,0.57
6890.00,0.57
6889.00,0.57
6888.00,0.57
6887.00,0.57
6886.00,0.57
6885.00,0.57
6884.00,0.57
6883.00,0.57
6882.00,0.57
6881.00,0.57
6880.00,0.57
6879.00,0.57
6878.00,0.57
6877.00,0.57
6876.00,0.57
6875.00,0.57
6874.00,0.57
6873.00,0.57
6872.00,0.57
6871.00,0.57
6870.00,0.57
6869.00,0.57
6868.00,0.57
6867.00,0.57
6866.00,0.57
6865.00,0.57
6864.00,0.57
6863.00,0.57
6862.00,0.57
6861.00,0.57
6860.00,0.57
6859.00,0.57
6858.00,0.57
6857.00,0.57
6856.00,0.57
6855.00,0.57
6854.00,0.57
6853.00,0.57
6852.00,0.57
6851.00,0.57
6850.00,0.57
6849.00,0.57
6848.00,0.57
6847.00,0.57
6846.00,0.57
6845.00,0.57
6844.00,0.57
6843.00,0.57
6842.00,0.57
6841.00,0.57
6840.00,0.57
6839.00,0.57
6838.00,0.57
6837.00,0.57
6836.00,0.57
6835.00,0.57
6834.00,0.57
6833.00,0.57
6832.00,0.57
6831.00,0.57
6830.00,0.58
6829.00,0.58
6828.00,0.58
6827.00,0.58
6826.00,0.58
6825.00,0.58
6824.00,0.58
6823.00,0.58
6822.00,0.58
6821.00,0.58
6820.00,0.57
6819.00,0.57
6818.00,0.57
6817.00,0.57
6816.00,0.57
6815.00,0.57
6814.00,0.57
6813.00,0.57
6812.00,0.57
6811.00,0.57
6810.00,0.57
6809.00,0.57
6808.00,0.57
6807.00,0.57
6806.00,0.57
6805.00,0.57
6804.00,0.57
6803.00,0.57
6802.00,0.57
6801.00,0.57
6800.00,0.57
6799.00,0.57
6798.00,0.58
6797.00,0.58
6796.00,0.58
6795.00,0.58
6794.00,0.58
6793.00,0.58
6792.00,0.58
6791.00,0.58
6790.00,0.58
6789.00,0.59
6788.00,0.59
6787.00,0.59
6786.00,0.59
6785.00,0.59
6784.00,0.59
6783.00,0.59
6782.00,0.60
6781.00,0.60
6780.00,0.60
6779.00,0.60
6778.00,0.60
6777.00,0.60
6776.00,0.60
6775.00,0.60
6774.00,0.60
6773.00,0.60
6772.00,0.60
6771.00,0.60
6770.00,0.60
6769.00,0.60
6768.00,0.60
6767.00,0.60
6766.00,0.60
6765.00,0.60
6764.00,0.60
6763.00,0.60
6762.00,0.60
6761.00,0.60
6760.00,0.60
6759.00,0.60
6758.00,0.60
6757.00,0.60
6756.00,0.60
6755.00,0.61
6754.00,0.61
6753.00,0.61
6752.00,0.61
6751.00,0.61
6750.00,0.61
6749.00,0.61
6748.00,0.61
6747.00,0.61
6746.00,0.61
6745.00,0.61
6744.00,0.61
6743.00,0.61
6742.00,0.61
6741.00,0.61
6740.00,0.61
6739.00,0.61
6738.00,0.61
6737.00,0.61
6736.00,0.61
6735.00,0.61
6734.00,0.61
6733.00,0.61
6732.00,0.61
6731.00,0.62
6730.00,0.62
6729.00,0.62
6728.00,0.62
6727.00,0.62
6726.00,0.62
6725.00,0.62
6724.00,0.62
6723.00,0.62
6722.00,0.63
6721.00,0.63
6720.00,0.63
6719.00,0.63
6718.00,0.63
6717.00,0.63
6716.00,0.63
6715.00,0.63
6714.00,0.63
6713.00,0.64
6712.00,0.64
6711.00,0.64
6710.00,0.64
6709.00,0.64
6708.00,0.64
6707.00,0.64
6706.00,0.64
6705.00,0.64
6704.00,0.64
6703.00,0.64
6702.00,0.64
6701.00,0.64
6700.00,0.64
6699.00,0.64
6698.00,0.64
6697.00,0.64
6696.00,0.64
6695.00,0.64
6694.00,0.64
6693.00,0.64
6692.00,0.64
6691.00,0.64
6690.00,0.64
6689.00,0.65
6688.00,0.65
6687.00,0.65
6686.00,0.65
6685.00,0.65
6684.00,0.65
6683.00,0.65
6682.00,0.65
6681.00,0.65
6680.00,0.65
6679.00,0.65
6678.00,0.65
6677.00,0.66
6676.00,0.66
6675.00,0.66
6674.00,0.66
6673.00,0.66
6672.00,0.66
6671.00,0.66
6670.00,0.66
6669.00,0.67
6668.00,0.67
6667.00,0.67
6666.00,0.67
6665.00,0.67
6664.00,0.67
6663.00,0.67
6662.00,0.67
6661.00,0.67
6660.00,0.67
6659.00,0.67
6658.00,0.68
6657.00,0.68
6656.00,0.68
6655.00,0.68
6654.00,0.68
6653.00,0.68
6652.00,0.68
6651.00,0.68
6650.00,0.68
6649.00,0.68
6648.00,0.69
6647.00,0.69
6646.00,0.69
6645.00,0.69
6644.00,0.69
6643.00,0.69
6642.00,0.69
6641.00,0.69
6640.00,0.69
6639.00,0.69
6638.00,0.69
6637.00,0.69
6636.00,0.69
6635.00,0.69
6634.00,0.69
6633.00,0.69
6632.00,0.69
6631.00,0.69
6630.00,0.70
6629.00,0.70
6628.00,0.70
6627.00,0.70
6626.00,0.70
6625.00,0.70
6624.00,0.70
6623.00,0.70
6622.00,0.70
6621.00,0.70
6620.00,0.71
6619.00,0.71
6618.00,0.71
6617.00,0.71
6616.00,0.71
6615.00,0.71
6614.00,0.72
6613.00,0.72
6612.00,0.72
6611.00,0.72
6610.00,0.72
6609.00,0.72
6608.00,0.72
6607.00,0.73
6606.00,0.73
6605.00,0.73
6604.00,0.73
6603.00,0.73
6602.00,0.73
6601.00,0.73
6600.00,0.73
6599.00,0.73
6598.00,0.73
6597.00,0.73
6596.00,0.73
6595.00,0.73
6594.00,0.73
6593.00,0.73
6592.00,0.73
6591.00,0.73
6590.00,0.73
6589.00,0.74
6588.00,0.74
6587.00,0.74
6586.00,0.74
6585.00,0.74
6584.00,0.74
6583.00,0.74
6582.00,0.74
6581.00,0.74
6580.00,0.74
6579.00,0.74
6578.00,0.74
6577.00,0.74
6576.00,0.75
6575.00,0.75
6574.00,0.75
6573.00,0.75
6572.00,0.75
6571.00,0.75
6570.00,0.75
6569.00,0.75
6568.00,0.75
6567.00,0.76
6566.00,0.76
6565.00,0.76
6564.00,0.76
6563.00,0.76
6562.00,0.76
6561.00,0.76
6560.00,0.76
6559.00,0.76
6558.00,0.77
6557.00,0.77
6556.00,0.77
6555.00,0.77
6554.00,0.77
6553.00,0.77
6552.00,0.77
6551.00,0.77
6550.00,0.77
6549.00,0.77
6548.00,0.77
6547.00,0.77
6546.00,0.77
6545.00,0.77
6544.00,0.78
6543.00,0.78
6542.00,0.78
6541.00,0.78
6540.00,0.78
6539.00,0.78
6538.00,0.78
6537.00,0.78
6536.00,0.79
6535.00,0.79
6534.00,0.79
6533.00,0.79
6532.00,0.79
6531.00,0.79
6530.00,0.79
6529.00,0.79
6528.00,0.79
6527.00,0.79
6526.00,0.79
6525.00,0.80
6524.00,0.80
6523.00,0.80
6522.00,0.80
6521.00,0.80
6520.00,0.80
6519.00,0.80
6518.00,0.80
6517.00,0.80
6516.00,0.80
6515.00,0.80
6514.00,0.80
6513.00,0.80
6512.00,0.80
6511.00,0.80
6510.00,0.81
6509.00,0.81
6508.00,0.81
6507.00,0.81
6506.00,0.81
6505.00,0.81
6504.00,0.81
6503.00,0.81
6502.00,0.81
6501.00,0.82
6500.00,0.82
6499.00,0.82
6498.00,0.82
6497.00,0.82
6496.00,0.82
6495.00,0.82
6494.00,0.82
6493.00,0.82
6492.00,0.83
6491.00,0.83
6490.00,0.83
6489.00,0.83
6488.00,0.83
6487.00,0.83
6486.00,0.83
6485.00,0.83
6484.00,0.83
6483.00,0.83
6482.00,0.83
6481.00,0.83
6480.00,0.83
6479.00,0.83
6478.00,0.83
6477.00,0.83
6476.00,0.83
6475.00,0.83
6474.00,0.83
6473.00,0.83
6472.00,0.83
6471.00,0.83
6470.00,0.83
6469.00,0.83
6468.00,0.83
6467.00,0.83
6466.00,0.83
6465.00,0.83
6464.00,0.83
6463.00,0.83
6462.00,0.83
6461.00,0.83
6460.00,0.83
6459.00,0.83
6458.00,0.83
6457.00,0.83
6456.00,0.84
6455.00,0.84
6454.00,0.84
6453.00,0.84
6452.00,0.84
6451.00,0.84
6450.00,0.84
6449.00,0.84
6448.00,0.84
6447.00,0.84
6446.00,0.84
6445.00,0.84
6444.00,0.84
6443.00,0.84
6442.00,0.84
6441.00,0.84
6440.00,0.84
6439.00,0.84
6438.00,0.85
6437.00,0.85
6436.00,0.85
6435.00,0.85
6434.00,0.85
6433.00,0.85
6432.00,0.85
6431.00,0.85
6430.00,0.85
6429.00,0.85
6428.00,0.85
6427.00,0.85
6426.00,0.85
6425.00,0.85
6424.00,0.85
6423.00,0.86
6422.00,0.86
6421.00,0.86
6420.00,0.86
6419.00,0.86
6418.00,0.86
6417.00,0.86
6416.00,0.86
6415.00,0.86
6414.00,0.86
6413.00,0.86
6412.00,0.86
6411.00,0.87
6410.00,0.87
6409.00,0.87
6408.00,0.87
6407.00,0.87
6406.00,0.87
6405.00,0.87
6404.00,0.87
6403.00,0.87
6402.00,0.87
6401.00,0.87
6400.00,0.87
6399.00,0.87
6398.00,0.88
6397.00,0.88
6396.00,0.88
6395.00,0.88
6394.00,0.88
6393.00,0.88
6392.00,0.88
6391.00,0.88
6390.00,0.88
6389.00,0.89
6388.00,0.89
6387.00,0.89
6386.00,0.89
6385.00,0.89
6384.00,0.89
6383.00,0.89
6382.00,0.89
6381.00,0.89
6380.00,0.89
6379.00,0.89
6378.00,0.90
6377.00,0.90
6376.00,0.90
6375.00,0.90
6374.00,0.90
6373.00,0.90
6372.00,0.90
6371.00,0.90
6370.00,0.90
6369.00,0.90
6368.00,0.90
6367.00,0.90
6366.00,0.90
6365.00,0.90
6364.00,0.90
6363.00,0.90
6362.00,0.90
6361.00,0.90
6360.00,0.90
6359.00,0.91
6358.00,0.91
6357.00,0.91
6356.00,0.91
6355.00,0.91
6354.00,0.91
6353.00,0.91
6352.00,0.91
6351.00,0.91
6350.00,0.91
6349.00,0.91
6348.00,0.92
6347.00,0.92
6346.00,0.92
6345.00,0.92
6344.00,0.92
6343.00,0.92
6342.00,0.92
6341.00,0.92
6340.00,0.92
6339.00,0.92
6338.00,0.92
6337.00,0.92
6336.00,0.92
6335.00,0.92
6334.00,0.92
6333.00,0.92
6332.00,0.92
6331.00,0.92
6330.00,0.92
6329.00,0.92
6328.00,0.92
6327.00,0.92
6326.00,0.93
6325.00,0.93
6324.00,0.93
6323.00,0.93
6322.00,0.93
6321.00,0.93
6320.00,0.93
6319.00,0.94
6318.00,0.94
6317.00,0.94
6316.00,0.94
6315.00,0.94
6314.00,0.95
6313.00,0.95
6312.00,0.95
6311.00,0.95
6310.00,0.95
6309.00,0.95
6308.00,0.96
6307.00,0.96
6306.00,0.96
6305.00,0.96
6304.00,0.96
6303.00,0.96
6302.00,0.96
6301.00,0.96
6300.00,0.96
6299.00,0.96
6298.00,0.96
6297.00,0.96
6296.00,0.96
6295.00,0.96
6294.00,0.97
6293.00,0.97
6292.00,0.97
6291.00,0.97
6290.00,0.97
6289.00,0.97
6288.00,0.97
6287.00,0.97
6286.00,0.97
6285.00,0.98
6284.00,0.98
6283.00,0.98
6282.00,0.98
6281.00,0.98
6280.00,0.98
6279.00,0.98
6278.00,0.99
6277.00,0.99
6276.00,0.99
6275.00,0.99
6274.00,0.99
6273.00,0.99
6272.00,0.99
6271.00,0.99
6270.00,1.00
6269.00,1.00
6268.00,1.00
6267.00,1.00
6266.00,1.00
6265.00,1.00
6264.00,1.00
6263.00,1.00
6262.00,1.00
6261.00,1.01
6260.00,1.01
6259.00,1.01
6258.00,1.01
6257.00,1.01
6256.00,1.01
6255.00,1.01
6254.00,1.01
6253.00,1.01
6252.00,1.01
6251.00,1.01
6250.00,1.02
6249.00,1.02
6248.00,1.02
6247.00,1.02
6246.00,1.02
6245.00,1.02
6244.00,1.02
6243.00,1.02
6242.00,1.02
6241.00,1.02
6240.00,1.03
6239.00,1.03
6238.00,1.03
6237.00,1.03
6236.00,1.03
6235.00,1.03
6234.00,1.03
6233.00,1.04
6232.00,1.04
6231.00,1.04
6230.00,1.04
6229.00,1.04
6228.00,1.04
6227.00,1.05
6226.00,1.05
6225.00,1.05
6224.00,1.05
6223.00,1.05
6222.00,1.05
6221.00,1.06
6220.00,1.06
6219.00,1.06
6218.00,1.06
6217.00,1.06
6216.00,1.06
6215.00,1.06
6214.00,1.06
6213.00,1.07
6212.00,1.07
6211.00,1.07
6210.00,1.07
6209.00,1.07
6208.00,1.07
6207.00,1.07
6206.00,1.07
6205.00,1.07
6204.00,1.07
6203.00,1.08
6202.00,1.08
6201.00,1.08
6200.00,1.08
6199.00,1.08
6198.00,1.08
6197.00,1.08
6196.00,1.09
6195.00,1.09
6194.00,1.09
6193.00,1.09
6192.00,1.09
6191.00,1.10
6190.00,1.10
6189.00,1.10
6188.00,1.10
6187.00,1.10
6186.00,1.11
6185.00,1.11
6184.00,1.11
6183.00,1.11
6182.00,1.11
6181.00,1.11
6180.00,1.11
6179.00,1.12
6178.00,1.12
6177.00,1.12
6176.00,1.12
6175.00,1.12
6174.00,1.12
6173.00,1.12
6172.00,1.13
6171.00,1.13
6170.00,1.13
6169.00,1.13
6168.00,1.13
6167.00,1.13
6166.00,1.13
6165.00,1.13
6164.00,1.14
6163.00,1.14
6162.00,1.14
6161.00,1.14
6160.00,1.14
6159.00,1.14
6158.00,1.14
6157.00,1.14
6156.00,1.15
6155.00,1.15
6154.00,1.15
6153.00,1.15
6152.00,1.15
6151.00,1.15
6150.00,1.15
6149.00,1.16
6148.00,1.16
6147.00,1.16
6146.00,1.16
6145.00,1.16
6144.00,1.16
6143.00,1.16
6142.00,1.16
6141.00,1.17
6140.00,1.17
6139.00,1.17
6138.00,1.17
6137.00,1.17
6136.00,1.17
6135.00,1.17
6134.00,1.18
6133.00,1.18
6132.00,1.18
6131.00,1.18
6130.00,1.18
6129.00,1.18
6128.00,1.18
6127.00,1.19
6126.00,1.19
6125.00,1.19
6124.00,1.19
6123.00,1.19
6122.00,1.19
6121.00,1.19
6120.00,1.19
6119.00,1.19
6118.00,1.19
6117.00,1.20
6116.00,1.20
6115.00,1.20
6114.00,1.20
6113.00,1.20
6112.00,1.20
6111.00,1.21
6110.00,1.21
6109.00,1.21
6108.00,1.21
6107.00,1.21
6106.00,1.21
6105.00,1.22
6104.00,1.22
6103.00,1.22
6102.00,1.22
6101.00,1.22
6100.00,1.22
6099.00,1.23
6098.00,1.23
6097.00,1.23
6096.00,1.23
6095.00,1.23
6094.00,1.23
6093.00,1.23
6092.00,1.24
6091.00,1.24
6090.00,1.24
6089.00,1.24
6088.00,1.24
6087.00,1.24
6086.00,1.24
6085.00,1.25
6084.00,1.25
6083.00,1.25
6082.00,1.25
6081.00,1.25
6080.00,1.25
6079.00,1.25
6078.00,1.26
6077.00,1.26
6076.00,1.26
6075.00,1.26
6074.00,1.26
6073.00,1.26
6072.00,1.26
6071.00,1.26
6070.00,1.27
6069.00,1.27
6068.00,1.27
6067.00,1.27
6066.00,1.27
6065.00,1.27
6064.00,1.27
6063.00,1.27
6062.00,1.27
6061.00,1.27
6060.00,1.27
6059.00,1.27
6058.00,1.27
6057.00,1.27
6056.00,1.28
6055.00,1.28
6054.00,1.28
6053.00,1.28
6052.00,1.28
6051.00,1.28
6050.00,1.28
6049.00,1.28
6048.00,1.28
6047.00,1.28
6046.00,1.28
6045.00,1.28
6044.00,1.28
6043.00,1.29
6042.00,1.29
6041.00,1.29
6040.00,1.29
6039.00,1.29
6038.00,1.29
6037.00,1.29
6036.00,1.29
6035.00,1.29
6034.00,1.29
6033.00,1.29
6032.00,1.29
6031.00,1.29
6030.00,1.30
6029.00,1.30
6028.00,1.30
6027.00,1.30
6026.00,1.30
6025.00,1.30
6024.00,1.30
6023.00,1.30
6022.00,1.30
6021.00,1.30
6020.00,1.30
6019.00,1.30
6018.00,1.30
6017.00,1.30
6016.00,1.30
6015.00,1.30
6014.00,1.30
6013.00,1.30
6012.00,1.30
6011.00,1.30
6010.00,1.30
6009.00,1.30
6008.00,1.30
6007.00,1.30
6006.00,1.30
6005.00,1.30
6004.00,1.30
6003.00,1.30
6002.00,1.30
6001.00,1.30
6000.00,1.30
5999.00,1.30
5998.00,1.30
5997.00,1.30
5996.00,1.30
5995.00,1.29
5994.00,1.29
5993.00,1.29
5992.00,1.29
5991.00,1.29
5990.00,1.29
5989.00,1.29
5988.00,1.28
5987.00,1.28
5986.00,1.28
5985.00,1.28
5984.00,1.28
5983.00,1.27
5982.00,1.27
5981.00,1.27
5980.00,1.26
5979.00,1.26
5978.00,1.26
5977.00,1.25
5976.00,1.25
5975.00,1.24
5974.00,1.24
5973.00,1.23
5972.00,1.23
5971.00,1.22
5970.00,1.22
5969.00,1.21
5968.00,1.20
5967.00,1.20
5966.00,1.19
5965.00,1.18
5964.00,1.17
5963.00,1.17
5962.00,1.16
5961.00,1.15
5960.00,1.15
5959.00,1.14
5958.00,1.13
5957.00,1.12
5956.00,1.12
5955.00,1.11
5954.00,1.11
5953.00,1.10
5952.00,1.09
5951.00,1.09
5950.00,1.08
5949.00,1.08
5948.00,1.08
5947.00,1.07
5946.00,1.07
5945.00,1.07
5944.00,1.06
5943.00,1.06
5942.00,1.06
5941.00,1.06
5940.00,1.05
5939.00,1.05
5938.00,1.05
5937.00,1.05
5936.00,1.05
5935.00,1.05
5934.00,1.05
5933.00,1.05
5932.00,1.05
5931.00,1.04
5930.00,1.04
5929.00,1.04
5928.00,1.04
5927.00,1.04
5926.00,1.04
5925.00,1.04
5924.00,1.04
5923.00,1.03
5922.00,1.03
5921.00,1.03
5920.00,1.03
5919.00,1.02
5918.00,1.02
5917.00,1.02
5916.00,1.02
5915.00,1.01
5914.00,1.01
5913.00,1.01
5912.00,1.01
5911.00,1.00
5910.00,1.00
5909.00,1.00
5908.00,1.00
5907.00,1.00
5906.00,0.99
5905.00,0.99
5904.00,0.99
5903.00,0.99
5902.00,0.99
5901.00,0.99
5900.00,0.99
5899.00,0.99
5898.00,0.99
5897.00,0.99
5896.00,0.99
5895.00,1.00
5894.00,1.00
5893.00,1.00
5892.00,1.00
5891.00,1.00
5890.00,1.01
5889.00,1.01
5888.00,1.01
5887.00,1.02
5886.00,1.02
5885.00,1.02
5884.00,1.03
5883.00,1.03
5882.00,1.03
5881.00,1.03
5880.00,1.04
5879.00,1.04
5878.00,1.04
5877.00,1.04
5876.00,1.05
5875.00,1.05
5874.00,1.05
5873.00,1.05
5872.00,1.06
5871.00,1.06
5870.00,1.06
5869.00,1.06
5868.00,1.06
5867.00,1.07
5866.00,1.07
5865.00,1.07
5864.00,1.07
5863.00,1.07
5862.00,1.07
5861.00,1.07
5860.00,1.07
5859.00,1.08
5858.00,1.08
5857.00,1.08
5856.00,1.08
5855.00,1.08
5854.00,1.08
5853.00,1.08
5852.00,1.08
5851.00,1.08
5850.00,1.08
5849.00,1.08
5848.00,1.08
5847.00,1.08
5846.00,1.08
5845.00,1.08
5844.00,1.09
5843.00,1.09
5842.00,1.09
5841.00,1.09
5840.00,1.09
5839.00,1.09
5838.00,1.09
5837.00,1.09
5836.00,1.09
5835.00,1.09
5834.00,1.09
5833.00,1.09
5832.00,1.09
5831.00,1.09
5830.00,1.09
5829.00,1.09
5828.00,1.09
5827.00,1.09
5826.00,1.09
5825.00,1.09
5824.00,1.09
5823.00,1.09
5822.00,1.09
5821.00,1.09
5820.00,1.09
5819.00,1.09
5818.00,1.09
5817.00,1.09
5816.00,1.09
5815.00,1.09
5814.00,1.09
5813.00,1.09
5812.00,1.09
5811.00,1.09
5810.00,1.09
5809.00,1.09
5808.00,1.09
5807.00,1.09
5806.00,1.09
5805.00,1.09
5804.00,1.08
5803.00,1.08
5802.00,1.08
5801.00,1.08
5800.00,1.08
5799.00,1.08
5798.00,1.08
5797.00,1.07
5796.00,1.07
5795.00,1.07
5794.00,1.07
5793.00,1.07
5792.00,1.07
5791.00,1.06
5790.00,1.06
5789.00,1.06
5788.00,1.06
5787.00,1.06
5786.00,1.05
5785.00,1.05
5784.00,1.05
5783.00,1.05
5782.00,1.05
5781.00,1.04
5780.00,1.04
5779.00,1.04
5778.00,1.04
5777.00,1.04
5776.00,1.04
5775.00,1.04
5774.00,1.04
5773.00,1.04
5772.00,1.04
5771.00,1.04
5770.00,1.04
5769.00,1.04
5768.00,1.04
5767.00,1.04
5766.00,1.04
5765.00,1.04
5764.00,1.05
5763.00,1.05
5762.00,1.05
5761.00,1.05
5760.00,1.05
5759.00,1.06
5758.00,1.06
5757.00,1.06
5756.00,1.07
5755.00,1.07
5754.00,1.07
5753.00,1.07
5752.00,1.08
5751.00,1.08
5750.00,1.08
5749.00,1.09
5748.00,1.09
5747.00,1.09
5746.00,1.10
5745.00,1.10
5744.00,1.10
5743.00,1.11
5742.00,1.11
5741.00,1.11
5740.00,1.12
5739.00,1.12
5738.00,1.12
5737.00,1.12
5736.00,1.13
5735.00,1.13
5734.00,1.13
5733.00,1.13
5732.00,1.13
5731.00,1.14
5730.00,1.14
5729.00,1.14
5728.00,1.14
5727.00,1.14
5726.00,1.14
5725.00,1.14
5724.00,1.14
5723.00,1.14
5722.00,1.15
5721.00,1.15
5720.00,1.15
5719.00,1.15
5718.00,1.15
5717.00,1.15
5716.00,1.14
5715.00,1.14
5714.00,1.14
5713.00,1.14
5712.00,1.14
5711.00,1.14
5710.00,1.14
5709.00,1.14
5708.00,1.14
5707.00,1.14
5706.00,1.14
5705.00,1.14
5704.00,1.14
5703.00,1.14
5702.00,1.14
5701.00,1.14
5700.00,1.13
5699.00,1.13
5698.00,1.13
5697.00,1.13
5696.00,1.13
5695.00,1.13
5694.00,1.13
5693.00,1.13
5692.00,1.12
5691.00,1.12
5690.00,1.12
5689.00,1.12
5688.00,1.12
5687.00,1.12
5686.00,1.12
5685.00,1.11
5684.00,1.11
5683.00,1.11
5682.00,1.11
5681.00,1.11
5680.00,1.11
5679.00,1.11
5678.00,1.11
5677.00,1.11
5676.00,1.11
5675.00,1.11
5674.00,1.11
5673.00,1.11
5672.00,1.11
5671.00,1.11
5670.00,1.11
5669.00,1.11
5668.00,1.11
5667.00,1.11
5666.00,1.11
5665.00,1.11
5664.00,1.12
5663.00,1.12
5662.00,1.12
5661.00,1.12
5660.00,1.12
5659.00,1.12
5658.00,1.12
5657.00,1.12
5656.00,1.13
5655.00,1.13
5654.00,1.13
5653.00,1.13
5652.00,1.13
5651.00,1.13
5650.00,1.14
5649.00,1.14
5648.00,1.14
5647.00,1.14
5646.00,1.14
5645.00,1.15
5644.00,1.15
5643.00,1.15
5642.00,1.15
5641.00,1.16
5640.00,1.16
5639.00,1.16
5638.00,1.16
5637.00,1.16
5636.00,1.16
5635.00,1.17
5634.00,1.17
5633.00,1.17
5632.00,1.17
5631.00,1.17
5630.00,1.17
5629.00,1.17
5628.00,1.17
5627.00,1.18
5626.00,1.18
5625.00,1.18
5624.00,1.18
5623.00,1.18
5622.00,1.18
5621.00,1.18
5620.00,1.19
5619.00,1.19
5618.00,1.19
5617.00,1.19
5616.00,1.19
5615.00,1.19
5614.00,1.20
5613.00,1.20
5612.00,1.20
5611.00,1.20
5610.00,1.20
5609.00,1.20
5608.00,1.21
5607.00,1.21
5606.00,1.21
5605.00,1.21
5604.00,1.21
5603.00,1.21
5602.00,1.21
5601.00,1.22
5600.00,1.22
5599.00,1.22
5598.00,1.22
5597.00,1.22
5596.00,1.22
5595.00,1.22
5594.00,1.23
5593.00,1.23
5592.00,1.23
5591.00,1.23
5590.00,1.23
5589.00,1.23
5588.00,1.24
5587.00,1.24
5586.00,1.24
5585.00,1.24
5584.00,1.24
5583.00,1.24
5582.00,1.25
5581.00,1.25
5580.00,1.25
5579.00,1.25
5578.00,1.25
5577.00,1.25
5576.00,1.25
5575.00,1.26
5574.00,1.26
5573.00,1.26
5572.00,1.26
5571.00,1.26
5570.00,1.26
5569.00,1.26
5568.00,1.26
5567.00,1.27
5566.00,1.27
5565.00,1.27
5564.00,1.27
5563.00,1.27
5562.00,1.27
5561.00,1.27
5560.00,1.27
5559.00,1.27
5558.00,1.27
5557.00,1.28
5556.00,1.28
5555.00,1.28
5554.00,1.28
5553.00,1.28
5552.00,1.28
5551.00,1.28
5550.00,1.29
5549.00,1.29
5548.00,1.29
5547.00,1.29
5546.00,1.29
5545.00,1.29
5544.00,1.30
5543.00,1.30
5542.00,1.30
5541.00,1.30
5540.00,1.30
5539.00,1.30
5538.00,1.30
5537.00,1.30
5536.00,1.31
5535.00,1.31
5534.00,1.31
5533.00,1.31
5532.00,1.31
5531.00,1.31
5530.00,1.31
5529.00,1.31
5528.00,1.31
5527.00,1.32
5526.00,1.32
5525.00,1.32
5524.00,1.32
5523.00,1.32
5522.00,1.32
5521.00,1.32
5520.00,1.32
5519.00,1.32
5518.00,1.32
5517.00,1.33
5516.00,1.33
5515.00,1.33
5514.00,1.33
5513.00,1.33
5512.00,1.33
5511.00,1.33
5510.00,1.33
5509.00,1.33
5508.00,1.33
5507.00,1.33
5506.00,1.33
5505.00,1.33
5504.00,1.33
5503.00,1.33
5502.00,1.33
5501.00,1.33
5500.00,1.33
5499.00,1.33
5498.00,1.34
5497.00,1.34
5496.00,1.34
5495.00,1.34
5494.00,1.34
5493.00,1.34
5492.00,1.34
5491.00,1.34
5490.00,1.34
5489.00,1.34
5488.00,1.34
5487.00,1.35
5486.00,1.35
5485.00,1.35
5484.00,1.35
5483.00,1.35
5482.00,1.35
5481.00,1.35
5480.00,1.35
5479.00,1.35
5478.00,1.36
5477.00,1.36
5476.00,1.36
5475.00,1.36
5474.00,1.36
5473.00,1.36
5472.00,1.36
5471.00,1.36
5470.00,1.36
5469.00,1.37
5468.00,1.37
5467.00,1.37
5466.00,1.37
5465.00,1.37
5464.00,1.37
5463.00,1.37
5462.00,1.37
5461.00,1.37
5460.00,1.37
5459.00,1.37
5458.00,1.37
5457.00,1.37
5456.00,1.37
5455.00,1.37
5454.00,1.37
5453.00,1.37
5452.00,1.37
5451.00,1.37
5450.00,1.37
5449.00,1.37
5448.00,1.37
5447.00,1.37
5446.00,1.37
5445.00,1.37
5444.00,1.37
5443.00,1.37
5442.00,1.37
5441.00,1.37
5440.00,1.37
5439.00,1.37
5438.00,1.37
5437.00,1.37
5436.00,1.38
5435.00,1.38
5434.00,1.38
5433.00,1.38
5432.00,1.38
5431.00,1.38
5430.00,1.38
5429.00,1.38
5428.00,1.38
5427.00,1.38
5426.00,1.38
5425.00,1.38
5424.00,1.38
5423.00,1.38
5422.00,1.38
5421.00,1.38
5420.00,1.38
5419.00,1.38
5418.00,1.38
5417.00,1.38
5416.00,1.38
5415.00,1.38
5414.00,1.38
5413.00,1.38
5412.00,1.38
5411.00,1.38
5410.00,1.38
5409.00,1.38
5408.00,1.38
5407.00,1.38
5406.00,1.38
5405.00,1.38
5404.00,1.38
5403.00,1.38
5402.00,1.38
5401.00,1.38
5400.00,1.38
5399.00,1.38
5398.00,1.38
5397.00,1.38
5396.00,1.37
5395.00,1.37
5394.00,1.37
5393.00,1.37
5392.00,1.37
5391.00,1.36
5390.00,1.36
5389.00,1.36
5388.00,1.36
5387.00,1.35
5386.00,1.35
5385.00,1.35
5384.00,1.34
5383.00,1.34
5382.00,1.34
5381.00,1.33
5380.00,1.33
5379.00,1.33
5378.00,1.32
5377.00,1.32
5376.00,1.31
5375.00,1.31
5374.00,1.31
5373.00,1.30
5372.00,1.30
5371.00,1.29
5370.00,1.29
5369.00,1.28
5368.00,1.28
5367.00,1.27
5366.00,1.27
5365.00,1.26
5364.00,1.26
5363.00,1.25
5362.00,1.24
5361.00,1.24
5360.00,1.23
5359.00,1.23
5358.00,1.22
5357.00,1.21
5356.00,1.20
5355.00,1.20
5354.00,1.19
5353.00,1.18
5352.00,1.17
5351.00,1.16
5350.00,1.15
5349.00,1.14
5348.00,1.13
5347.00,1.12
5346.00,1.11
5345.00,1.10
5344.00,1.09
5343.00,1.08
5342.00,1.07
5341.00,1.06
5340.00,1.05
5339.00,1.04
5338.00,1.03
5337.00,1.02
5336.00,1.01
5335.00,1.00
5334.00,1.00
5333.00,0.99
5332.00,0.98
5331.00,0.97
5330.00,0.96
5329.00,0.95
5328.00,0.94
5327.00,0.93
5326.00,0.92
5325.00,0.92
5324.00,0.91
5323.00,0.90
5322.00,0.89
5321.00,0.88
5320.00,0.88
5319.00,0.87
5318.00,0.86
5317.00,0.85
5316.00,0.85
5315.00,0.84
5314.00,0.83
5313.00,0.82
5312.00,0.82
5311.00,0.81
5310.00,0.80
5309.00,0.80
5308.00,0.79
5307.00,0.79
5306.00,0.78
5305.00,0.78
5304.00,0.77
5303.00,0.77
5302.00,0.76
5301.00,0.76
5300.00,0.75
5299.00,0.75
5298.00,0.75
5297.00,0.74
5296.00,0.74
5295.00,0.74
5294.00,0.73
5293.00,0.73
5292.00,0.73
5291.00,0.73
5290.00,0.72
5289.00,0.72
5288.00,0.72
5287.00,0.72
5286.00,0.72
5285.00,0.71
5284.00,0.71
5283.00,0.71
5282.00,0.71
5281.00,0.71
5280.00,0.71
5279.00,0.71
5278.00,0.71
5277.00,0.71
5276.00,0.71
5275.00,0.71
5274.00,0.71
5273.00,0.71
5272.00,0.71
5271.00,0.71
5270.00,0.71
5269.00,0.71
5268.00,0.71
5267.00,0.71
5266.00,0.71
5265.00,0.71
5264.00,0.71
5263.00,0.71
5262.00,0.71
5261.00,0.71
5260.00,0.71
5259.00,0.71
5258.00,0.71
5257.00,0.71
5256.00,0.71
5255.00,0.71
5254.00,0.71
5253.00,0.71
5252.00,0.70
5251.00,0.70
5250.00,0.70
5249.00,0.70
5248.00,0.70
5247.00,0.70
5246.00,0.70
5245.00,0.70
5244.00,0.70
5243.00,0.70
5242.00,0.70
5241.00,0.70
5240.00,0.70
5239.00,0.70
5238.00,0.70
5237.00,0.71
5236.00,0.71
5235.00,0.71
5234.00,0.71
5233.00,0.71
5232.00,0.71
5231.00,0.71
5230.00,0.71
5229.00,0.71
5228.00,0.71
5227.00,0.71
5226.00,0.71
5225.00,0.71
5224.00,0.71
5223.00,0.71
5222.00,0.71
5221.00,0.71
5220.00,0.71
5219.00,0.71
5218.00,0.71
5217.00,0.71
5216.00,0.71
5215.00,0.71
5214.00,0.71
5213.00,0.71
5212.00,0.71
5211.00,0.71
5210.00,0.71
5209.00,0.71
5208.00,0.71
5207.00,0.72
5206.00,0.72
5205.00,0.72
5204.00,0.72
5203.00,0.72
5202.00,0.72
5201.00,0.72
5200.00,0.72
5199.00,0.72
5198.00,0.72
5197.00,0.72
5196.00,0.72
5195.00,0.72
5194.00,0.72
5193.00,0.73
5192.00,0.73
5191.00,0.73
5190.00,0.73
5189.00,0.73
5188.00,0.73
5187.00,0.73
5186.00,0.73
5185.00,0.73
5184.00,0.73
5183.00,0.73
5182.00,0.73
5181.00,0.73
5180.00,0.73
5179.00,0.73
5178.00,0.73
5177.00,0.73
5176.00,0.73
5175.00,0.73
5174.00,0.73
5173.00,0.73
5172.00,0.73
5171.00,0.73
5170.00,0.73
5169.00,0.73
5168.00,0.73
5167.00,0.73
5166.00,0.73
5165.00,0.73
5164.00,0.74
5163.00,0.74
5162.00,0.74
5161.00,0.74
5160.00,0.74
5159.00,0.74
5158.00,0.74
5157.00,0.74
5156.00,0.74
5155.00,0.74
5154.00,0.74
5153.00,0.74
5152.00,0.74
5151.00,0.74
5150.00,0.74
5149.00,0.74
5148.00,0.74
5147.00,0.74
5146.00,0.74
5145.00,0.74
5144.00,0.74
5143.00,0.74
5142.00,0.74
5141.00,0.74
5140.00,0.74
5139.00,0.74
5138.00,0.74
5137.00,0.75
5136.00,0.75
5135.00,0.75
5134.00,0.75
5133.00,0.75
5132.00,0.75
5131.00,0.75
5130.00,0.75
5129.00,0.75
5128.00,0.75
5127.00,0.75
5126.00,0.75
5125.00,0.75
5124.00,0.75
5123.00,0.75
5122.00,0.75
5121.00,0.75
5120.00,0.75
5119.00,0.75
5118.00,0.75
5117.00,0.75
5116.00,0.75
5115.00,0.76
5114.00,0.76
5113.00,0.76
5112.00,0.76
5111.00,0.76
5110.00,0.76
5109.00,0.76
5108.00,0.76
5107.00,0.76
5106.00,0.76
5105.00,0.76
5104.00,0.76
5103.00,0.76
5102.00,0.76
5101.00,0.76
5100.00,0.76
5099.00,0.76
5098.00,0.76
5097.00,0.76
5096.00,0.76
5095.00,0.76
5094.00,0.77
5093.00,0.77
5092.00,0.77
5091.00,0.77
5090.00,0.77
5089.00,0.77
5088.00,0.77
5087.00,0.77
5086.00,0.77
5085.00,0.77
5084.00,0.77
5083.00,0.77
5082.00,0.77
5081.00,0.78
5080.00,0.78
5079.00,0.78
5078.00,0.78
5077.00,0.78
5076.00,0.78
5075.00,0.78
5074.00,0.78
5073.00,0.78
5072.00,0.78
5071.00,0.78
5070.00,0.78
5069.00,0.78
5068.00,0.78
5067.00,0.78
5066.00,0.78
5065.00,0.78
5064.00,0.78
5063.00,0.78
5062.00,0.78
5061.00,0.78
5060.00,0.78
5059.00,0.78
5058.00,0.78
5057.00,0.78
5056.00,0.78
5055.00,0.78
5054.00,0.78
5053.00,0.78
5052.00,0.78
5051.00,0.78
5050.00,0.78
5049.00,0.78
5048.00,0.78
5047.00,0.78
5046.00,0.79
5045.00,0.79
5044.00,0.79
5043.00,0.79
5042.00,0.79
5041.00,0.79
5040.00,0.79
5039.00,0.79
5038.00,0.79
5037.00,0.79
5036.00,0.79
5035.00,0.79
5034.00,0.79
5033.00,0.80
5032.00,0.80
5031.00,0.80
5030.00,0.80
5029.00,0.80
5028.00,0.80
5027.00,0.80
5026.00,0.81
5025.00,0.81
5024.00,0.81
5023.00,0.81
5022.00,0.81
5021.00,0.81
5020.00,0.81
5019.00,0.81
5018.00,0.81
5017.00,0.81
5016.00,0.81
5015.00,0.81
5014.00,0.81
5013.00,0.82
5012.00,0.82
5011.00,0.82
5010.00,0.82
5009.00,0.82
5008.00,0.82
5007.00,0.82
5006.00,0.82
5005.00,0.82
5004.00,0.82
5003.00,0.82
5002.00,0.82
5001.00,0.82
5000.00,0.82
4999.00,0.82
4998.00,0.82
4997.00,0.82
4996.00,0.82
4995.00,0.83
4994.00,0.83
4993.00,0.83
4992.00,0.83
4991.00,0.83
4990.00,0.83
4989.00,0.83
4988.00,0.83
4987.00,0.83
4986.00,0.83
4985.00,0.83
4984.00,0.83
4983.00,0.83
4982.00,0.83
4981.00,0.83
4980.00,0.83
4979.00,0.84
4978.00,0.84
4977.00,0.84
4976.00,0.84
4975.00,0.84
4974.00,0.84
4973.00,0.84
4972.00,0.84
4971.00,0.84
4970.00,0.84
4969.00,0.84
4968.00,0.84
4967.00,0.85
4966.00,0.85
4965.00,0.85
4964.00,0.85
4963.00,0.85
4962.00,0.85
4961.00,0.85
4960.00,0.85
4959.00,0.85
4958.00,0.85
4957.00,0.85
4956.00,0.85
4955.00,0.85
4954.00,0.85
4953.00,0.85
4952.00,0.85
4951.00,0.85
4950.00,0.85
4949.00,0.86
4948.00,0.86
4947.00,0.86
4946.00,0.86
4945.00,0.86
4944.00,0.86
4943.00,0.86
4942.00,0.86
4941.00,0.86
4940.00,0.86
4939.00,0.86
4938.00,0.87
4937.00,0.87
4936.00,0.87
4935.00,0.87
4934.00,0.87
4933.00,0.87
4932.00,0.87
4931.00,0.87
4930.00,0.87
4929.00,0.87
4928.00,0.87
4927.00,0.88
4926.00,0.88
4925.00,0.88
4924.00,0.88
4923.00,0.88
4922.00,0.88
4921.00,0.88
4920.00,0.88
4919.00,0.88
4918.00,0.88
4917.00,0.88
4916.00,0.89
4915.00,0.89
4914.00,0.89
4913.00,0.89
4912.00,0.89
4911.00,0.89
4910.00,0.89
4909.00,0.89
4908.00,0.89
4907.00,0.89
4906.00,0.89
4905.00,0.89
4904.00,0.89
4903.00,0.89
4902.00,0.89
4901.00,0.89
4900.00,0.89
4899.00,0.89
4898.00,0.89
4897.00,0.89
4896.00,0.89
4895.00,0.89
4894.00,0.89
4893.00,0.89
4892.00,0.89
4891.00,0.89
4890.00,0.89
4889.00,0.89
4888.00,0.90
4887.00,0.90
4886.00,0.90
4885.00,0.90
4884.00,0.90
4883.00,0.90
4882.00,0.90
4881.00,0.90
4880.00,0.90
4879.00,0.90
4878.00,0.90
4877.00,0.90
4876.00,0.90
4875.00,0.91
4874.00,0.91
4873.00,0.91
4872.00,0.91
4871.00,0.91
4870.00,0.91
4869.00,0.91
4868.00,0.91
4867.00,0.91
4866.00,0.91
4865.00,0.91
4864.00,0.92
4863.00,0.92
4862.00,0.92
4861.00,0.92
4860.00,0.92
4859.00,0.92
4858.00,0.92
4857.00,0.92
4856.00,0.92
4855.00,0.92
4854.00,0.92
4853.00,0.92
4852.00,0.93
4851.00,0.93
4850.00,0.93
4849.00,0.93
4848.00,0.93
4847.00,0.93
4846.00,0.93
4845.00,0.93
4844.00,0.93
4843.00,0.93
4842.00,0.93
4841.00,0.93
4840.00,0.93
4839.00,0.93
4838.00,0.93
4837.00,0.93
4836.00,0.93
4835.00,0.93
4834.00,0.93
4833.00,0.93
4832.00,0.93
4831.00,0.93
4830.00,0.93
4829.00,0.93
4828.00,0.93
4827.00,0.93
4826.00,0.93
4825.00,0.93
4824.00,0.93
4823.00,0.93
4822.00,0.93
4821.00,0.93
4820.00,0.94
4819.00,0.94
4818.00,0.94
4817.00,0.94
4816.00,0.94
4815.00,0.94
4814.00,0.95
4813.00,0.95
4812.00,0.95
4811.00,0.95
4810.00,0.95
4809.00,0.95
4808.00,0.95
4807.00,0.96
4806.00,0.96
4805.00,0.96
4804.00,0.96
4803.00,0.96
4802.00,0.96
4801.00,0.96
4800.00,0.96
4799.00,0.96
4798.00,0.96
4797.00,0.96
4796.00,0.96
4795.00,0.96
4794.00,0.96
4793.00,0.96
4792.00,0.96
4791.00,0.96
4790.00,0.96
4789.00,0.96
4788.00,0.96
4787.00,0.96
4786.00,0.97
4785.00,0.97
4784.00,0.97
4783.00,0.97
4782.00,0.97
4781.00,0.97
4780.00,0.97
4779.00,0.97
4778.00,0.98
4777.00,0.98
4776.00,0.98
4775.00,0.98
4774.00,0.98
4773.00,0.98
4772.00,0.98
4771.00,0.98
4770.00,0.98
4769.00,0.98
4768.00,0.98
4767.00,0.98
4766.00,0.99
4765.00,0.99
4764.00,0.99
4763.00,0.99
4762.00,0.99
4761.00,0.99
4760.00,0.99
4759.00,0.99
4758.00,0.99
4757.00,0.99
4756.00,1.00
4755.00,1.00
4754.00,1.00
4753.00,1.00
4752.00,1.00
4751.00,1.01
4750.00,1.01
4749.00,1.01
4748.00,1.01
4747.00,1.01
4746.00,1.01
4745.00,1.01
4744.00,1.02
4743.00,1.02
4742.00,1.02
4741.00,1.02
4740.00,1.02
4739.00,1.02
4738.00,1.02
4737.00,1.02
4736.00,1.02
4735.00,1.02
4734.00,1.03
4733.00,1.03
4732.00,1.03
4731.00,1.03
4730.00,1.03
4729.00,1.03
4728.00,1.03
4727.00,1.04
4726.00,1.04
4725.00,1.04
4724.00,1.04
4723.00,1.04
4722.00,1.05
4721.00,1.05
4720.00,1.05
4719.00,1.05
4718.00,1.05
4717.00,1.05
4716.00,1.05
4715.00,1.06
4714.00,1.06
4713.00,1.06
4712.00,1.06
4711.00,1.06
4710.00,1.06
4709.00,1.06
4708.00,1.06
4707.00,1.06
4706.00,1.07
4705.00,1.07
4704.00,1.07
4703.00,1.07
4702.00,1.07
4701.00,1.07
4700.00,1.07
4699.00,1.07
4698.00,1.08
4697.00,1.08
4696.00,1.08
4695.00,1.08
4694.00,1.08
4693.00,1.08
4692.00,1.08
4691.00,1.09
4690.00,1.09
4689.00,1.09
4688.00,1.09
4687.00,1.09
4686.00,1.09
4685.00,1.10
4684.00,1.10
4683.00,1.10
4682.00,1.10
4681.00,1.10
4680.00,1.10
4679.00,1.10
4678.00,1.11
4677.00,1.11
4676.00,1.11
4675.00,1.11
4674.00,1.11
4673.00,1.11
4672.00,1.11
4671.00,1.11
4670.00,1.11
4669.00,1.11
4668.00,1.11
4667.00,1.11
4666.00,1.11
4665.00,1.11
4664.00,1.11
4663.00,1.11
4662.00,1.11
4661.00,1.11
4660.00,1.12
4659.00,1.12
4658.00,1.12
4657.00,1.12
4656.00,1.12
4655.00,1.12
4654.00,1.13
4653.00,1.13
4652.00,1.13
4651.00,1.13
4650.00,1.13
4649.00,1.14
4648.00,1.14
4647.00,1.14
4646.00,1.14
4645.00,1.14
4644.00,1.14
4643.00,1.15
4642.00,1.15
4641.00,1.15
4640.00,1.15
4639.00,1.15
4638.00,1.15
4637.00,1.15
4636.00,1.15
4635.00,1.15
4634.00,1.15
4633.00,1.15
4632.00,1.15
4631.00,1.15
4630.00,1.15
4629.00,1.16
4628.00,1.16
4627.00,1.16
4626.00,1.16
4625.00,1.16
4624.00,1.16
4623.00,1.16
4622.00,1.16
4621.00,1.16
4620.00,1.16
4619.00,1.16
4618.00,1.16
4617.00,1.16
4616.00,1.16
4615.00,1.17
4614.00,1.17
4613.00,1.17
4612.00,1.17
4611.00,1.17
4610.00,1.17
4609.00,1.17
4608.00,1.18
4607.00,1.18
4606.00,1.18
4605.00,1.18
4604.00,1.18
4603.00,1.19
4602.00,1.19
4601.00,1.19
4600.00,1.19
4599.00,1.19
4598.00,1.19
4597.00,1.19
4596.00,1.20
4595.00,1.20
4594.00,1.20
4593.00,1.20
4592.00,1.20
4591.00,1.20
4590.00,1.20
4589.00,1.20
4588.00,1.20
4587.00,1.20
4586.00,1.20
4585.00,1.20
4584.00,1.20
4583.00,1.20
4582.00,1.20
4581.00,1.20
4580.00,1.20
4579.00,1.20
4578.00,1.20
4577.00,1.20
4576.00,1.20
4575.00,1.20
4574.00,1.20
4573.00,1.20
4572.00,1.20
4571.00,1.21
4570.00,1.21
4569.00,1.21
4568.00,1.21
4567.00,1.21
4566.00,1.21
4565.00,1.21
4564.00,1.21
4563.00,1.21
4562.00,1.21
4561.00,1.21
4560.00,1.22
4559.00,1.22
4558.00,1.22
4557.00,1.22
4556.00,1.22
4555.00,1.22
4554.00,1.22
4553.00,1.22
4552.00,1.22
4551.00,1.22
4550.00,1.22
4549.00,1.22
4548.00,1.22
4547.00,1.22
4546.00,1.22
4545.00,1.22
4544.00,1.23
4543.00,1.23
4542.00,1.23
4541.00,1.23
4540.00,1.23
4539.00,1.23
4538.00,1.23
4537.00,1.23
4536.00,1.23
4535.00,1.23
4534.00,1.23
4533.00,1.24
4532.00,1.24
4531.00,1.24
4530.00,1.24
4529.00,1.24
4528.00,1.24
4527.00,1.24
4526.00,1.24
4525.00,1.24
4524.00,1.24
4523.00,1.24
4522.00,1.24
4521.00,1.24
4520.00,1.24
4519.00,1.24
4518.00,1.24
4517.00,1.24
4516.00,1.24
4515.00,1.24
4514.00,1.24
4513.00,1.24
4512.00,1.24
4511.00,1.24
4510.00,1.24
4509.00,1.24
4508.00,1.24
4507.00,1.24
4506.00,1.24
4505.00,1.24
4504.00,1.24
4503.00,1.24
4502.00,1.24
4501.00,1.24
4500.00,1.24
4499.00,1.24
4498.00,1.24
4497.00,1.24
4496.00,1.24
4495.00,1.24
4494.00,1.24
4493.00,1.24
4492.00,1.24
4491.00,1.24
4490.00,1.24
4489.00,1.24
4488.00,1.23
4487.00,1.23
4486.00,1.23
4485.00,1.23
4484.00,1.23
4483.00,1.23
4482.00,1.23
4481.00,1.22
4480.00,1.22
4479.00,1.22
4478.00,1.22
4477.00,1.22
4476.00,1.22
4475.00,1.22
4474.00,1.21
4473.00,1.21
4472.00,1.21
4471.00,1.21
4470.00,1.21
4469.00,1.20
4468.00,1.20
4467.00,1.20
4466.00,1.20
4465.00,1.20
4464.00,1.19
4463.00,1.19
4462.00,1.19
4461.00,1.19
4460.00,1.18
4459.00,1.18
4458.00,1.18
4457.00,1.18
4456.00,1.17
4455.00,1.17
4454.00,1.17
4453.00,1.17
4452.00,1.16
4451.00,1.16
4450.00,1.16
4449.00,1.16
4448.00,1.16
4447.00,1.15
4446.00,1.15
4445.00,1.15
4444.00,1.15
4443.00,1.14
4442.00,1.14
4441.00,1.14
4440.00,1.14
4439.00,1.13
4438.00,1.13
4437.00,1.13
4436.00,1.13
4435.00,1.12
4434.00,1.12
4433.00,1.12
4432.00,1.12
4431.00,1.12
4430.00,1.11
4429.00,1.11
4428.00,1.11
4427.00,1.11
4426.00,1.11
4425.00,1.11
4424.00,1.11
4423.00,1.11
4422.00,1.10
4421.00,1.10
4420.00,1.10
4419.00,1.10
4418.00,1.10
4417.00,1.10
4416.00,1.10
4415.00,1.10
4414.00,1.10
4413.00,1.10
4412.00,1.10
4411.00,1.10
4410.00,1.10
4409.00,1.11
4408.00,1.11
4407.00,1.11
4406.00,1.11
4405.00,1.11
4404.00,1.11
4403.00,1.11
4402.00,1.11
4401.00,1.11
4400.00,1.11
4399.00,1.11
4398.00,1.12
4397.00,1.12
4396.00,1.12
4395.00,1.12
4394.00,1.12
4393.00,1.12
4392.00,1.12
4391.00,1.12
4390.00,1.12
4389.00,1.12
4388.00,1.13
4387.00,1.13
4386.00,1.13
4385.00,1.13
4384.00,1.13
4383.00,1.13
4382.00,1.13
4381.00,1.13
4380.00,1.14
4379.00,1.14
4378.00,1.14
4377.00,1.14
4376.00,1.14
4375.00,1.14
4374.00,1.14
4373.00,1.15
4372.00,1.15
4371.00,1.15
4370.00,1.15
4369.00,1.15
4368.00,1.15
4367.00,1.15
4366.00,1.15
4365.00,1.15
4364.00,1.15
4363.00,1.15
4362.00,1.15
4361.00,1.15
4360.00,1.15
4359.00,1.15
4358.00,1.15
4357.00,1.15
4356.00,1.15
4355.00,1.15
4354.00,1.15
4353.00,1.15
4352.00,1.15
4351.00,1.15
4350.00,1.15
4349.00,1.15
4348.00,1.15
4347.00,1.15
4346.00,1.15
4345.00,1.15
4344.00,1.15
4343.00,1.15
4342.00,1.15
4341.00,1.15
4340.00,1.15
4339.00,1.15
4338.00,1.15
4337.00,1.15
4336.00,1.15
4335.00,1.15
4334.00,1.15
4333.00,1.16
4332.00,1.16
4331.00,1.16
4330.00,1.16
4329.00,1.16
4328.00,1.16
4327.00,1.16
4326.00,1.17
4325.00,1.17
4324.00,1.17
4323.00,1.17
4322.00,1.17
4321.00,1.17
4320.00,1.17
4319.00,1.17
4318.00,1.18
4317.00,1.18
4316.00,1.18
4315.00,1.18
4314.00,1.18
4313.00,1.18
4312.00,1.18
4311.00,1.18
4310.00,1.18
4309.00,1.18
4308.00,1.18
4307.00,1.18
4306.00,1.18
4305.00,1.18
4304.00,1.18
4303.00,1.19
4302.00,1.19
4301.00,1.19
4300.00,1.19
4299.00,1.19
4298.00,1.19
4297.00,1.20
4296.00,1.20
4295.00,1.20
4294.00,1.20
4293.00,1.20
4292.00,1.20
4291.00,1.20
4290.00,1.21
4289.00,1.21
4288.00,1.21
4287.00,1.21
4286.00,1.21
4285.00,1.21
4284.00,1.21
4283.00,1.21
4282.00,1.21
4281.00,1.21
4280.00,1.21
4279.00,1.22
4278.00,1.22
4277.00,1.22
4276.00,1.22
4275.00,1.22
4274.00,1.22
4273.00,1.22
4272.00,1.22
4271.00,1.22
4270.00,1.22
4269.00,1.22
4268.00,1.22
4267.00,1.21
4266.00,1.21
4265.00,1.21
4264.00,1.21
4263.00,1.21
4262.00,1.21
4261.00,1.21
4260.00,1.21
4259.00,1.21
4258.00,1.21
4257.00,1.21
4256.00,1.22
4255.00,1.22
4254.00,1.22
4253.00,1.22
4252.00,1.22
4251.00,1.22
4250.00,1.22
4249.00,1.22
4248.00,1.23
4247.00,1.23
4246.00,1.23
4245.00,1.23
4244.00,1.23
4243.00,1.23
4242.00,1.23
4241.00,1.23
4240.00,1.23
4239.00,1.23
4238.00,1.23
4237.00,1.23
4236.00,1.24
4235.00,1.24
4234.00,1.24
4233.00,1.24
4232.00,1.24
4231.00,1.24
4230.00,1.24
4229.00,1.24
4228.00,1.24
4227.00,1.24
4226.00,1.24
4225.00,1.24
4224.00,1.24
4223.00,1.24
4222.00,1.25
4221.00,1.25
4220.00,1.25
4219.00,1.25
4218.00,1.25
4217.00,1.25
4216.00,1.25
4215.00,1.25
4214.00,1.24
4213.00,1.24
4212.00,1.24
4211.00,1.24
4210.00,1.24
4209.00,1.24
4208.00,1.24
4207.00,1.24
4206.00,1.24
4205.00,1.25
4204.00,1.25
4203.00,1.25
4202.00,1.25
4201.00,1.25
4200.00,1.25
4199.00,1.26
4198.00,1.26
4197.00,1.26
4196.00,1.26
4195.00,1.26
4194.00,1.27
4193.00,1.27
4192.00,1.27
4191.00,1.27
4190.00,1.27
4189.00,1.27
4188.00,1.27
4187.00,1.27
4186.00,1.27
4185.00,1.27
4184.00,1.27
4183.00,1.27
4182.00,1.27
4181.00,1.27
4180.00,1.27
4179.00,1.27
4178.00,1.27
4177.00,1.27
4176.00,1.27
4175.00,1.27
4174.00,1.27
4173.00,1.27
4172.00,1.27
4171.00,1.27
4170.00,1.27
4169.00,1.27
4168.00,1.27
4167.00,1.27
4166.00,1.27
4165.00,1.27
4164.00,1.27
4163.00,1.27
4162.00,1.27
4161.00,1.27
4160.00,1.27
4159.00,1.27
4158.00,1.27
4157.00,1.27
4156.00,1.27
4155.00,1.27
4154.00,1.27
4153.00,1.28
4152.00,1.28
4151.00,1.28
4150.00,1.28
4149.00,1.28
4148.00,1.28
4147.00,1.28
4146.00,1.28
4145.00,1.28
4144.00,1.28
4143.00,1.28
4142.00,1.28
4141.00,1.28
4140.00,1.28
4139.00,1.28
4138.00,1.28
4137.00,1.29
4136.00,1.29
4135.00,1.29
4134.00,1.29
4133.00,1.29
4132.00,1.29
4131.00,1.29
4130.00,1.29
4129.00,1.29
4128.00,1.29
4127.00,1.30
4126.00,1.30
4125.00,1.30
4124.00,1.30
4123.00,1.30
4122.00,1.30
4121.00,1.30
4120.00,1.30
4119.00,1.31
4118.00,1.31
4117.00,1.31
4116.00,1.31
4115.00,1.31
4114.00,1.31
4113.00,1.31
4112.00,1.31
4111.00,1.31
4110.00,1.31
4109.00,1.31
4108.00,1.31
4107.00,1.31
4106.00,1.31
4105.00,1.30
4104.00,1.30
4103.00,1.30
4102.00,1.30
4101.00,1.30
4100.00,1.30
4099.00,1.30
4098.00,1.30
4097.00,1.30
4096.00,1.30
4095.00,1.30
4094.00,1.31
4093.00,1.31
4092.00,1.31
4091.00,1.31
4090.00,1.31
4089.00,1.32
4088.00,1.32
4087.00,1.32
4086.00,1.32
4085.00,1.33
4084.00,1.33
4083.00,1.33
4082.00,1.33
4081.00,1.33
4080.00,1.34
4079.00,1.34
4078.00,1.34
4077.00,1.34
4076.00,1.34
4075.00,1.34
4074.00,1.34
4073.00,1.34
4072.00,1.34
4071.00,1.34
4070.00,1.34
4069.00,1.34
4068.00,1.34
4067.00,1.34
4066.00,1.34
4065.00,1.34
4064.00,1.34
4063.00,1.34
4062.00,1.34
4061.00,1.34
4060.00,1.34
4059.00,1.34
4058.00,1.34
4057.00,1.34
4056.00,1.34
4055.00,1.34
4054.00,1.34
4053.00,1.34
4052.00,1.33
4051.00,1.33
4050.00,1.33
4049.00,1.33
4048.00,1.33
4047.00,1.33
4046.00,1.33
4045.00,1.33
4044.00,1.33
4043.00,1.33
4042.00,1.33
4041.00,1.33
4040.00,1.33
4039.00,1.33
4038.00,1.33
4037.00,1.33
4036.00,1.33
4035.00,1.33
4034.00,1.33
4033.00,1.33
4032.00,1.33
4031.00,1.34
4030.00,1.34
4029.00,1.34
4028.00,1.34
4027.00,1.34
4026.00,1.34
4025.00,1.34
4024.00,1.34
4023.00,1.35
4022.00,1.35
4021.00,1.35
4020.00,1.35
4019.00,1.35
4018.00,1.35
4017.00,1.35
4016.00,1.35
4015.00,1.36
4014.00,1.36
4013.00,1.36
4012.00,1.36
4011.00,1.36
4010.00,1.36
4009.00,1.37
4008.00,1.37
4007.00,1.37
4006.00,1.37
4005.00,1.37
4004.00,1.38
4003.00,1.38
4002.00,1.38
4001.00,1.38
4000.00,1.38
