创建为新数据集,样品 273 用户 Administrator 日期 星期日, 七月 22 2018
cm-1,%T
10000.00,1.42
9999.00,1.42
9998.00,1.42
9997.00,1.41
9996.00,1.41
9995.00,1.41
9994.00,1.41
9993.00,1.40
9992.00,1.40
9991.00,1.40
9990.00,1.40
9989.00,1.40
9988.00,1.40
9987.00,1.39
9986.00,1.39
9985.00,1.39
9984.00,1.39
9983.00,1.39
9982.00,1.39
9981.00,1.39
9980.00,1.39
9979.00,1.39
9978.00,1.38
9977.00,1.38
9976.00,1.38
9975.00,1.38
9974.00,1.38
9973.00,1.38
9972.00,1.38
9971.00,1.38
9970.00,1.38
9969.00,1.39
9968.00,1.39
9967.00,1.39
9966.00,1.40
9965.00,1.40
9964.00,1.40
9963.00,1.41
9962.00,1.41
9961.00,1.42
9960.00,1.42
9959.00,1.42
9958.00,1.42
9957.00,1.42
9956.00,1.42
9955.00,1.42
9954.00,1.42
9953.00,1.42
9952.00,1.41
9951.00,1.41
9950.00,1.40
9949.00,1.40
9948.00,1.40
9947.00,1.39
9946.00,1.39
9945.00,1.39
9944.00,1.38
9943.00,1.38
9942.00,1.38
9941.00,1.38
9940.00,1.38
9939.00,1.37
9938.00,1.37
9937.00,1.37
9936.00,1.37
9935.00,1.37
9934.00,1.37
9933.00,1.37
9932.00,1.37
9931.00,1.38
9930.00,1.38
9929.00,1.38
9928.00,1.38
9927.00,1.38
9926.00,1.38
9925.00,1.38
9924.00,1.39
9923.00,1.39
9922.00,1.39
9921.00,1.39
9920.00,1.39
9919.00,1.39
9918.00,1.39
9917.00,1.40
9916.00,1.40
9915.00,1.40
9914.00,1.40
9913.00,1.39
9912.00,1.39
9911.00,1.39
9910.00,1.39
9909.00,1.39
9908.00,1.39
9907.00,1.39
9906.00,1.38
9905.00,1.38
9904.00,1.38
9903.00,1.38
9902.00,1.38
9901.00,1.38
9900.00,1.38
9899.00,1.38
9898.00,1.38
9897.00,1.38
9896.00,1.38
9895.00,1.38
9894.00,1.38
9893.00,1.38
9892.00,1.38
9891.00,1.38
9890.00,1.38
9889.00,1.38
9888.00,1.39
9887.00,1.39
9886.00,1.39
9885.00,1.39
9884.00,1.40
9883.00,1.40
9882.00,1.40
9881.00,1.41
9880.00,1.41
9879.00,1.41
9878.00,1.41
9877.00,1.42
9876.00,1.42
9875.00,1.42
9874.00,1.42
9873.00,1.42
9872.00,1.42
9871.00,1.42
9870.00,1.42
9869.00,1.42
9868.00,1.42
9867.00,1.41
9866.00,1.41
9865.00,1.41
9864.00,1.41
9863.00,1.41
9862.00,1.40
9861.00,1.40
9860.00,1.40
9859.00,1.39
9858.00,1.39
9857.00,1.39
9856.00,1.39
9855.00,1.38
9854.00,1.38
9853.00,1.38
9852.00,1.37
9851.00,1.37
9850.00,1.37
9849.00,1.37
9848.00,1.37
9847.00,1.37
9846.00,1.36
9845.00,1.36
9844.00,1.36
9843.00,1.36
9842.00,1.36
9841.00,1.36
9840.00,1.36
9839.00,1.36
9838.00,1.36
9837.00,1.36
9836.00,1.36
9835.00,1.36
9834.00,1.36
9833.00,1.36
9832.00,1.36
9831.00,1.36
9830.00,1.36
9829.00,1.36
9828.00,1.36
9827.00,1.36
9826.00,1.36
9825.00,1.36
9824.00,1.36
9823.00,1.36
9822.00,1.35
9821.00,1.35
9820.00,1.35
9819.00,1.35
9818.00,1.35
9817.00,1.35
9816.00,1.35
9815.00,1.36
9814.00,1.36
9813.00,1.36
9812.00,1.36
9811.00,1.36
9810.00,1.36
9809.00,1.36
9808.00,1.36
9807.00,1.36
9806.00,1.36
9805.00,1.36
9804.00,1.36
9803.00,1.36
9802.00,1.36
9801.00,1.36
9800.00,1.36
9799.00,1.36
9798.00,1.36
9797.00,1.36
9796.00,1.36
9795.00,1.36
9794.00,1.37
9793.00,1.37
9792.00,1.37
9791.00,1.37
9790.00,1.37
9789.00,1.37
9788.00,1.37
9787.00,1.38
9786.00,1.38
9785.00,1.38
9784.00,1.38
9783.00,1.38
9782.00,1.39
9781.00,1.39
9780.00,1.39
9779.00,1.39
9778.00,1.39
9777.00,1.39
9776.00,1.39
9775.00,1.39
9774.00,1.39
9773.00,1.38
9772.00,1.38
9771.00,1.38
9770.00,1.38
9769.00,1.38
9768.00,1.38
9767.00,1.38
9766.00,1.38
9765.00,1.38
9764.00,1.37
9763.00,1.37
9762.00,1.37
9761.00,1.37
9760.00,1.37
9759.00,1.38
9758.00,1.38
9757.00,1.38
9756.00,1.38
9755.00,1.38
9754.00,1.38
9753.00,1.37
9752.00,1.37
9751.00,1.37
9750.00,1.37
9749.00,1.37
9748.00,1.37
9747.00,1.37
9746.00,1.37
9745.00,1.37
9744.00,1.37
9743.00,1.37
9742.00,1.37
9741.00,1.36
9740.00,1.36
9739.00,1.36
9738.00,1.36
9737.00,1.36
9736.00,1.36
9735.00,1.37
9734.00,1.37
9733.00,1.37
9732.00,1.37
9731.00,1.37
9730.00,1.37
9729.00,1.37
9728.00,1.37
9727.00,1.37
9726.00,1.37
9725.00,1.37
9724.00,1.38
9723.00,1.38
9722.00,1.38
9721.00,1.38
9720.00,1.38
9719.00,1.38
9718.00,1.39
9717.00,1.39
9716.00,1.39
9715.00,1.39
9714.00,1.39
9713.00,1.39
9712.00,1.39
9711.00,1.39
9710.00,1.39
9709.00,1.39
9708.00,1.39
9707.00,1.39
9706.00,1.39
9705.00,1.39
9704.00,1.39
9703.00,1.39
9702.00,1.39
9701.00,1.39
9700.00,1.39
9699.00,1.39
9698.00,1.39
9697.00,1.39
9696.00,1.39
9695.00,1.38
9694.00,1.38
9693.00,1.38
9692.00,1.38
9691.00,1.38
9690.00,1.38
9689.00,1.38
9688.00,1.38
9687.00,1.38
9686.00,1.38
9685.00,1.38
9684.00,1.38
9683.00,1.38
9682.00,1.38
9681.00,1.38
9680.00,1.38
9679.00,1.38
9678.00,1.38
9677.00,1.38
9676.00,1.38
9675.00,1.38
9674.00,1.38
9673.00,1.38
9672.00,1.38
9671.00,1.38
9670.00,1.38
9669.00,1.38
9668.00,1.38
9667.00,1.38
9666.00,1.38
9665.00,1.38
9664.00,1.38
9663.00,1.38
9662.00,1.38
9661.00,1.38
9660.00,1.38
9659.00,1.38
9658.00,1.38
9657.00,1.38
9656.00,1.39
9655.00,1.39
9654.00,1.38
9653.00,1.38
9652.00,1.38
9651.00,1.38
9650.00,1.38
9649.00,1.38
9648.00,1.38
9647.00,1.38
9646.00,1.37
9645.00,1.37
9644.00,1.37
9643.00,1.37
9642.00,1.37
9641.00,1.37
9640.00,1.37
9639.00,1.37
9638.00,1.38
9637.00,1.38
9636.00,1.38
9635.00,1.38
9634.00,1.39
9633.00,1.39
9632.00,1.39
9631.00,1.39
9630.00,1.40
9629.00,1.40
9628.00,1.40
9627.00,1.40
9626.00,1.40
9625.00,1.40
9624.00,1.40
9623.00,1.40
9622.00,1.40
9621.00,1.40
9620.00,1.39
9619.00,1.39
9618.00,1.39
9617.00,1.39
9616.00,1.38
9615.00,1.38
9614.00,1.38
9613.00,1.38
9612.00,1.37
9611.00,1.37
9610.00,1.37
9609.00,1.37
9608.00,1.37
9607.00,1.37
9606.00,1.37
9605.00,1.37
9604.00,1.37
9603.00,1.37
9602.00,1.37
9601.00,1.37
9600.00,1.37
9599.00,1.38
9598.00,1.38
9597.00,1.38
9596.00,1.39
9595.00,1.39
9594.00,1.39
9593.00,1.40
9592.00,1.40
9591.00,1.40
9590.00,1.41
9589.00,1.41
9588.00,1.41
9587.00,1.41
9586.00,1.42
9585.00,1.42
9584.00,1.42
9583.00,1.42
9582.00,1.42
9581.00,1.42
9580.00,1.42
9579.00,1.41
9578.00,1.41
9577.00,1.41
9576.00,1.41
9575.00,1.40
9574.00,1.40
9573.00,1.40
9572.00,1.40
9571.00,1.39
9570.00,1.39
9569.00,1.39
9568.00,1.39
9567.00,1.39
9566.00,1.38
9565.00,1.38
9564.00,1.38
9563.00,1.38
9562.00,1.38
9561.00,1.38
9560.00,1.38
9559.00,1.38
9558.00,1.38
9557.00,1.38
9556.00,1.39
9555.00,1.39
9554.00,1.39
9553.00,1.39
9552.00,1.39
9551.00,1.39
9550.00,1.39
9549.00,1.39
9548.00,1.39
9547.00,1.39
9546.00,1.39
9545.00,1.39
9544.00,1.39
9543.00,1.40
9542.00,1.40
9541.00,1.40
9540.00,1.40
9539.00,1.40
9538.00,1.40
9537.00,1.40
9536.00,1.40
9535.00,1.40
9534.00,1.40
9533.00,1.40
9532.00,1.40
9531.00,1.40
9530.00,1.40
9529.00,1.40
9528.00,1.40
9527.00,1.40
9526.00,1.40
9525.00,1.40
9524.00,1.40
9523.00,1.40
9522.00,1.40
9521.00,1.40
9520.00,1.40
9519.00,1.39
9518.00,1.39
9517.00,1.39
9516.00,1.39
9515.00,1.38
9514.00,1.38
9513.00,1.38
9512.00,1.37
9511.00,1.37
9510.00,1.37
9509.00,1.36
9508.00,1.36
9507.00,1.36
9506.00,1.36
9505.00,1.35
9504.00,1.35
9503.00,1.35
9502.00,1.35
9501.00,1.35
9500.00,1.36
9499.00,1.36
9498.00,1.36
9497.00,1.36
9496.00,1.36
9495.00,1.37
9494.00,1.37
9493.00,1.37
9492.00,1.37
9491.00,1.37
9490.00,1.38
9489.00,1.38
9488.00,1.38
9487.00,1.38
9486.00,1.38
9485.00,1.38
9484.00,1.38
9483.00,1.38
9482.00,1.38
9481.00,1.38
9480.00,1.38
9479.00,1.38
9478.00,1.38
9477.00,1.38
9476.00,1.38
9475.00,1.38
9474.00,1.38
9473.00,1.38
9472.00,1.38
9471.00,1.38
9470.00,1.38
9469.00,1.38
9468.00,1.38
9467.00,1.38
9466.00,1.38
9465.00,1.38
9464.00,1.39
9463.00,1.39
9462.00,1.39
9461.00,1.39
9460.00,1.39
9459.00,1.39
9458.00,1.39
9457.00,1.39
9456.00,1.39
9455.00,1.38
9454.00,1.38
9453.00,1.38
9452.00,1.38
9451.00,1.38
9450.00,1.38
9449.00,1.38
9448.00,1.37
9447.00,1.37
9446.00,1.37
9445.00,1.37
9444.00,1.37
9443.00,1.37
9442.00,1.37
9441.00,1.37
9440.00,1.37
9439.00,1.37
9438.00,1.38
9437.00,1.38
9436.00,1.38
9435.00,1.38
9434.00,1.39
9433.00,1.39
9432.00,1.39
9431.00,1.40
9430.00,1.40
9429.00,1.40
9428.00,1.41
9427.00,1.41
9426.00,1.41
9425.00,1.41
9424.00,1.41
9423.00,1.41
9422.00,1.41
9421.00,1.41
9420.00,1.41
9419.00,1.41
9418.00,1.41
9417.00,1.41
9416.00,1.40
9415.00,1.40
9414.00,1.40
9413.00,1.40
9412.00,1.39
9411.00,1.39
9410.00,1.39
9409.00,1.39
9408.00,1.38
9407.00,1.38
9406.00,1.38
9405.00,1.38
9404.00,1.38
9403.00,1.38
9402.00,1.37
9401.00,1.37
9400.00,1.37
9399.00,1.37
9398.00,1.37
9397.00,1.37
9396.00,1.38
9395.00,1.38
9394.00,1.38
9393.00,1.38
9392.00,1.38
9391.00,1.38
9390.00,1.38
9389.00,1.38
9388.00,1.38
9387.00,1.38
9386.00,1.38
9385.00,1.39
9384.00,1.39
9383.00,1.39
9382.00,1.39
9381.00,1.39
9380.00,1.39
9379.00,1.39
9378.00,1.39
9377.00,1.39
9376.00,1.39
9375.00,1.39
9374.00,1.39
9373.00,1.39
9372.00,1.39
9371.00,1.39
9370.00,1.39
9369.00,1.39
9368.00,1.38
9367.00,1.38
9366.00,1.38
9365.00,1.38
9364.00,1.38
9363.00,1.38
9362.00,1.38
9361.00,1.38
9360.00,1.38
9359.00,1.38
9358.00,1.38
9357.00,1.38
9356.00,1.38
9355.00,1.38
9354.00,1.38
9353.00,1.38
9352.00,1.38
9351.00,1.38
9350.00,1.38
9349.00,1.39
9348.00,1.39
9347.00,1.39
9346.00,1.39
9345.00,1.39
9344.00,1.39
9343.00,1.39
9342.00,1.40
9341.00,1.40
9340.00,1.40
9339.00,1.40
9338.00,1.40
9337.00,1.40
9336.00,1.40
9335.00,1.40
9334.00,1.40
9333.00,1.40
9332.00,1.40
9331.00,1.40
9330.00,1.39
9329.00,1.39
9328.00,1.39
9327.00,1.39
9326.00,1.39
9325.00,1.39
9324.00,1.38
9323.00,1.38
9322.00,1.38
9321.00,1.38
9320.00,1.38
9319.00,1.38
9318.00,1.38
9317.00,1.37
9316.00,1.37
9315.00,1.37
9314.00,1.37
9313.00,1.37
9312.00,1.37
9311.00,1.37
9310.00,1.37
9309.00,1.37
9308.00,1.37
9307.00,1.37
9306.00,1.37
9305.00,1.37
9304.00,1.38
9303.00,1.38
9302.00,1.38
9301.00,1.38
9300.00,1.38
9299.00,1.38
9298.00,1.38
9297.00,1.38
9296.00,1.38
9295.00,1.38
9294.00,1.38
9293.00,1.38
9292.00,1.38
9291.00,1.38
9290.00,1.38
9289.00,1.38
9288.00,1.38
9287.00,1.38
9286.00,1.38
9285.00,1.38
9284.00,1.38
9283.00,1.38
9282.00,1.38
9281.00,1.37
9280.00,1.37
9279.00,1.37
9278.00,1.37
9277.00,1.37
9276.00,1.37
9275.00,1.37
9274.00,1.37
9273.00,1.37
9272.00,1.37
9271.00,1.37
9270.00,1.37
9269.00,1.37
9268.00,1.38
9267.00,1.38
9266.00,1.38
9265.00,1.38
9264.00,1.38
9263.00,1.38
9262.00,1.38
9261.00,1.38
9260.00,1.39
9259.00,1.39
9258.00,1.39
9257.00,1.39
9256.00,1.39
9255.00,1.40
9254.00,1.40
9253.00,1.40
9252.00,1.40
9251.00,1.40
9250.00,1.40
9249.00,1.41
9248.00,1.41
9247.00,1.41
9246.00,1.41
9245.00,1.41
9244.00,1.41
9243.00,1.41
9242.00,1.41
9241.00,1.41
9240.00,1.41
9239.00,1.41
9238.00,1.41
9237.00,1.41
9236.00,1.41
9235.00,1.41
9234.00,1.40
9233.00,1.40
9232.00,1.40
9231.00,1.40
9230.00,1.40
9229.00,1.40
9228.00,1.40
9227.00,1.39
9226.00,1.39
9225.00,1.39
9224.00,1.39
9223.00,1.39
9222.00,1.39
9221.00,1.39
9220.00,1.39
9219.00,1.39
9218.00,1.40
9217.00,1.40
9216.00,1.40
9215.00,1.40
9214.00,1.40
9213.00,1.40
9212.00,1.40
9211.00,1.40
9210.00,1.40
9209.00,1.40
9208.00,1.40
9207.00,1.41
9206.00,1.41
9205.00,1.41
9204.00,1.41
9203.00,1.41
9202.00,1.41
9201.00,1.41
9200.00,1.41
9199.00,1.41
9198.00,1.41
9197.00,1.42
9196.00,1.42
9195.00,1.42
9194.00,1.42
9193.00,1.42
9192.00,1.42
9191.00,1.42
9190.00,1.42
9189.00,1.41
9188.00,1.41
9187.00,1.41
9186.00,1.41
9185.00,1.41
9184.00,1.41
9183.00,1.40
9182.00,1.40
9181.00,1.40
9180.00,1.40
9179.00,1.39
9178.00,1.39
9177.00,1.39
9176.00,1.39
9175.00,1.39
9174.00,1.39
9173.00,1.39
9172.00,1.39
9171.00,1.39
9170.00,1.39
9169.00,1.39
9168.00,1.39
9167.00,1.39
9166.00,1.39
9165.00,1.39
9164.00,1.39
9163.00,1.39
9162.00,1.39
9161.00,1.39
9160.00,1.39
9159.00,1.39
9158.00,1.39
9157.00,1.39
9156.00,1.39
9155.00,1.39
9154.00,1.39
9153.00,1.39
9152.00,1.39
9151.00,1.39
9150.00,1.38
9149.00,1.38
9148.00,1.38
9147.00,1.38
9146.00,1.38
9145.00,1.38
9144.00,1.38
9143.00,1.38
9142.00,1.38
9141.00,1.38
9140.00,1.38
9139.00,1.38
9138.00,1.38
9137.00,1.38
9136.00,1.38
9135.00,1.38
9134.00,1.39
9133.00,1.39
9132.00,1.39
9131.00,1.39
9130.00,1.39
9129.00,1.39
9128.00,1.39
9127.00,1.39
9126.00,1.39
9125.00,1.39
9124.00,1.39
9123.00,1.39
9122.00,1.39
9121.00,1.40
9120.00,1.40
9119.00,1.40
9118.00,1.40
9117.00,1.40
9116.00,1.40
9115.00,1.40
9114.00,1.40
9113.00,1.40
9112.00,1.40
9111.00,1.40
9110.00,1.40
9109.00,1.40
9108.00,1.41
9107.00,1.41
9106.00,1.41
9105.00,1.41
9104.00,1.41
9103.00,1.41
9102.00,1.42
9101.00,1.42
9100.00,1.42
9099.00,1.42
9098.00,1.42
9097.00,1.42
9096.00,1.42
9095.00,1.42
9094.00,1.42
9093.00,1.42
9092.00,1.42
9091.00,1.41
9090.00,1.41
9089.00,1.41
9088.00,1.41
9087.00,1.41
9086.00,1.41
9085.00,1.40
9084.00,1.40
9083.00,1.40
9082.00,1.40
9081.00,1.40
9080.00,1.40
9079.00,1.40
9078.00,1.40
9077.00,1.40
9076.00,1.40
9075.00,1.40
9074.00,1.40
9073.00,1.40
9072.00,1.40
9071.00,1.40
9070.00,1.40
9069.00,1.41
9068.00,1.41
9067.00,1.41
9066.00,1.41
9065.00,1.41
9064.00,1.41
9063.00,1.41
9062.00,1.41
9061.00,1.41
9060.00,1.41
9059.00,1.41
9058.00,1.41
9057.00,1.41
9056.00,1.41
9055.00,1.41
9054.00,1.41
9053.00,1.41
9052.00,1.41
9051.00,1.41
9050.00,1.41
9049.00,1.41
9048.00,1.41
9047.00,1.41
9046.00,1.41
9045.00,1.41
9044.00,1.41
9043.00,1.41
9042.00,1.41
9041.00,1.41
9040.00,1.41
9039.00,1.41
9038.00,1.41
9037.00,1.41
9036.00,1.41
9035.00,1.41
9034.00,1.41
9033.00,1.41
9032.00,1.41
9031.00,1.41
9030.00,1.41
9029.00,1.41
9028.00,1.41
9027.00,1.41
9026.00,1.41
9025.00,1.41
9024.00,1.41
9023.00,1.41
9022.00,1.41
9021.00,1.41
9020.00,1.41
9019.00,1.41
9018.00,1.41
9017.00,1.41
9016.00,1.40
9015.00,1.40
9014.00,1.40
9013.00,1.40
9012.00,1.40
9011.00,1.40
9010.00,1.40
9009.00,1.40
9008.00,1.40
9007.00,1.40
9006.00,1.40
9005.00,1.40
9004.00,1.40
9003.00,1.40
9002.00,1.40
9001.00,1.40
9000.00,1.40
8999.00,1.40
8998.00,1.40
8997.00,1.40
8996.00,1.40
8995.00,1.40
8994.00,1.40
8993.00,1.40
8992.00,1.40
8991.00,1.40
8990.00,1.39
8989.00,1.39
8988.00,1.39
8987.00,1.39
8986.00,1.39
8985.00,1.39
8984.00,1.38
8983.00,1.38
8982.00,1.38
8981.00,1.38
8980.00,1.38
8979.00,1.38
8978.00,1.38
8977.00,1.38
8976.00,1.38
8975.00,1.39
8974.00,1.39
8973.00,1.39
8972.00,1.39
8971.00,1.39
8970.00,1.40
8969.00,1.40
8968.00,1.40
8967.00,1.40
8966.00,1.41
8965.00,1.41
8964.00,1.41
8963.00,1.41
8962.00,1.41
8961.00,1.41
8960.00,1.41
8959.00,1.41
8958.00,1.41
8957.00,1.41
8956.00,1.41
8955.00,1.41
8954.00,1.41
8953.00,1.41
8952.00,1.41
8951.00,1.41
8950.00,1.41
8949.00,1.41
8948.00,1.41
8947.00,1.41
8946.00,1.41
8945.00,1.41
8944.00,1.41
8943.00,1.41
8942.00,1.41
8941.00,1.41
8940.00,1.40
8939.00,1.40
8938.00,1.40
8937.00,1.40
8936.00,1.40
8935.00,1.40
8934.00,1.40
8933.00,1.40
8932.00,1.40
8931.00,1.40
8930.00,1.39
8929.00,1.39
8928.00,1.39
8927.00,1.39
8926.00,1.39
8925.00,1.39
8924.00,1.40
8923.00,1.40
8922.00,1.40
8921.00,1.40
8920.00,1.40
8919.00,1.40
8918.00,1.40
8917.00,1.40
8916.00,1.40
8915.00,1.40
8914.00,1.40
8913.00,1.40
8912.00,1.41
8911.00,1.41
8910.00,1.41
8909.00,1.41
8908.00,1.41
8907.00,1.41
8906.00,1.41
8905.00,1.41
8904.00,1.41
8903.00,1.41
8902.00,1.41
8901.00,1.41
8900.00,1.41
8899.00,1.41
8898.00,1.41
8897.00,1.41
8896.00,1.41
8895.00,1.41
8894.00,1.41
8893.00,1.41
8892.00,1.41
8891.00,1.40
8890.00,1.40
8889.00,1.40
8888.00,1.40
8887.00,1.40
8886.00,1.40
8885.00,1.39
8884.00,1.39
8883.00,1.39
8882.00,1.39
8881.00,1.39
8880.00,1.39
8879.00,1.39
8878.00,1.39
8877.00,1.39
8876.00,1.39
8875.00,1.39
8874.00,1.39
8873.00,1.39
8872.00,1.39
8871.00,1.40
8870.00,1.40
8869.00,1.40
8868.00,1.40
8867.00,1.40
8866.00,1.40
8865.00,1.40
8864.00,1.40
8863.00,1.40
8862.00,1.41
8861.00,1.41
8860.00,1.41
8859.00,1.41
8858.00,1.41
8857.00,1.41
8856.00,1.41
8855.00,1.41
8854.00,1.41
8853.00,1.41
8852.00,1.41
8851.00,1.41
8850.00,1.41
8849.00,1.41
8848.00,1.41
8847.00,1.41
8846.00,1.41
8845.00,1.41
8844.00,1.41
8843.00,1.41
8842.00,1.41
8841.00,1.41
8840.00,1.42
8839.00,1.42
8838.00,1.42
8837.00,1.42
8836.00,1.42
8835.00,1.42
8834.00,1.42
8833.00,1.42
8832.00,1.42
8831.00,1.42
8830.00,1.41
8829.00,1.41
8828.00,1.41
8827.00,1.41
8826.00,1.41
8825.00,1.41
8824.00,1.41
8823.00,1.40
8822.00,1.40
8821.00,1.40
8820.00,1.40
8819.00,1.39
8818.00,1.39
8817.00,1.39
8816.00,1.39
8815.00,1.39
8814.00,1.39
8813.00,1.39
8812.00,1.38
8811.00,1.38
8810.00,1.38
8809.00,1.38
8808.00,1.38
8807.00,1.38
8806.00,1.38
8805.00,1.38
8804.00,1.38
8803.00,1.38
8802.00,1.38
8801.00,1.38
8800.00,1.38
8799.00,1.38
8798.00,1.38
8797.00,1.38
8796.00,1.38
8795.00,1.38
8794.00,1.37
8793.00,1.37
8792.00,1.37
8791.00,1.37
8790.00,1.37
8789.00,1.37
8788.00,1.37
8787.00,1.37
8786.00,1.37
8785.00,1.36
8784.00,1.36
8783.00,1.36
8782.00,1.36
8781.00,1.36
8780.00,1.36
8779.00,1.36
8778.00,1.36
8777.00,1.36
8776.00,1.35
8775.00,1.35
8774.00,1.35
8773.00,1.35
8772.00,1.35
8771.00,1.35
8770.00,1.35
8769.00,1.35
8768.00,1.34
8767.00,1.34
8766.00,1.34
8765.00,1.34
8764.00,1.34
8763.00,1.34
8762.00,1.34
8761.00,1.34
8760.00,1.34
8759.00,1.34
8758.00,1.34
8757.00,1.34
8756.00,1.34
8755.00,1.34
8754.00,1.34
8753.00,1.34
8752.00,1.34
8751.00,1.34
8750.00,1.34
8749.00,1.34
8748.00,1.34
8747.00,1.34
8746.00,1.34
8745.00,1.34
8744.00,1.34
8743.00,1.34
8742.00,1.34
8741.00,1.34
8740.00,1.34
8739.00,1.34
8738.00,1.34
8737.00,1.34
8736.00,1.34
8735.00,1.34
8734.00,1.34
8733.00,1.34
8732.00,1.34
8731.00,1.34
8730.00,1.34
8729.00,1.34
8728.00,1.34
8727.00,1.34
8726.00,1.34
8725.00,1.34
8724.00,1.34
8723.00,1.34
8722.00,1.35
8721.00,1.35
8720.00,1.35
8719.00,1.35
8718.00,1.35
8717.00,1.35
8716.00,1.35
8715.00,1.35
8714.00,1.35
8713.00,1.35
8712.00,1.35
8711.00,1.35
8710.00,1.35
8709.00,1.34
8708.00,1.34
8707.00,1.34
8706.00,1.34
8705.00,1.34
8704.00,1.34
8703.00,1.34
8702.00,1.34
8701.00,1.34
8700.00,1.33
8699.00,1.33
8698.00,1.33
8697.00,1.33
8696.00,1.33
8695.00,1.33
8694.00,1.33
8693.00,1.33
8692.00,1.33
8691.00,1.33
8690.00,1.33
8689.00,1.33
8688.00,1.33
8687.00,1.33
8686.00,1.33
8685.00,1.33
8684.00,1.33
8683.00,1.33
8682.00,1.33
8681.00,1.33
8680.00,1.33
8679.00,1.33
8678.00,1.33
8677.00,1.33
8676.00,1.33
8675.00,1.33
8674.00,1.33
8673.00,1.33
8672.00,1.33
8671.00,1.33
8670.00,1.33
8669.00,1.33
8668.00,1.33
8667.00,1.33
8666.00,1.33
8665.00,1.33
8664.00,1.33
8663.00,1.33
8662.00,1.33
8661.00,1.33
8660.00,1.33
8659.00,1.32
8658.00,1.32
8657.00,1.32
8656.00,1.32
8655.00,1.32
8654.00,1.32
8653.00,1.32
8652.00,1.32
8651.00,1.32
8650.00,1.32
8649.00,1.32
8648.00,1.32
8647.00,1.32
8646.00,1.32
8645.00,1.32
8644.00,1.32
8643.00,1.32
8642.00,1.32
8641.00,1.32
8640.00,1.32
8639.00,1.32
8638.00,1.32
8637.00,1.33
8636.00,1.33
8635.00,1.33
8634.00,1.33
8633.00,1.33
8632.00,1.33
8631.00,1.33
8630.00,1.33
8629.00,1.34
8628.00,1.34
8627.00,1.34
8626.00,1.34
8625.00,1.34
8624.00,1.34
8623.00,1.34
8622.00,1.34
8621.00,1.34
8620.00,1.34
8619.00,1.34
8618.00,1.34
8617.00,1.34
8616.00,1.34
8615.00,1.33
8614.00,1.33
8613.00,1.33
8612.00,1.33
8611.00,1.32
8610.00,1.32
8609.00,1.32
8608.00,1.32
8607.00,1.31
8606.00,1.31
8605.00,1.31
8604.00,1.31
8603.00,1.30
8602.00,1.30
8601.00,1.30
8600.00,1.30
8599.00,1.30
8598.00,1.30
8597.00,1.30
8596.00,1.30
8595.00,1.30
8594.00,1.30
8593.00,1.30
8592.00,1.30
8591.00,1.30
8590.00,1.30
8589.00,1.30
8588.00,1.30
8587.00,1.30
8586.00,1.30
8585.00,1.30
8584.00,1.30
8583.00,1.30
8582.00,1.30
8581.00,1.30
8580.00,1.30
8579.00,1.30
8578.00,1.30
8577.00,1.30
8576.00,1.30
8575.00,1.30
8574.00,1.30
8573.00,1.30
8572.00,1.30
8571.00,1.29
8570.00,1.29
8569.00,1.29
8568.00,1.29
8567.00,1.29
8566.00,1.29
8565.00,1.28
8564.00,1.28
8563.00,1.28
8562.00,1.28
8561.00,1.28
8560.00,1.28
8559.00,1.28
8558.00,1.28
8557.00,1.28
8556.00,1.28
8555.00,1.28
8554.00,1.28
8553.00,1.28
8552.00,1.29
8551.00,1.29
8550.00,1.29
8549.00,1.29
8548.00,1.29
8547.00,1.29
8546.00,1.29
8545.00,1.30
8544.00,1.30
8543.00,1.30
8542.00,1.30
8541.00,1.30
8540.00,1.30
8539.00,1.30
8538.00,1.30
8537.00,1.30
8536.00,1.29
8535.00,1.29
8534.00,1.29
8533.00,1.29
8532.00,1.29
8531.00,1.29
8530.00,1.29
8529.00,1.29
8528.00,1.29
8527.00,1.28
8526.00,1.28
8525.00,1.28
8524.00,1.28
8523.00,1.28
8522.00,1.28
8521.00,1.28
8520.00,1.27
8519.00,1.27
8518.00,1.27
8517.00,1.27
8516.00,1.27
8515.00,1.27
8514.00,1.27
8513.00,1.27
8512.00,1.27
8511.00,1.27
8510.00,1.26
8509.00,1.26
8508.00,1.26
8507.00,1.26
8506.00,1.26
8505.00,1.26
8504.00,1.26
8503.00,1.26
8502.00,1.26
8501.00,1.25
8500.00,1.25
8499.00,1.25
8498.00,1.25
8497.00,1.25
8496.00,1.25
8495.00,1.25
8494.00,1.25
8493.00,1.25
8492.00,1.24
8491.00,1.24
8490.00,1.24
8489.00,1.24
8488.00,1.24
8487.00,1.24
8486.00,1.24
8485.00,1.24
8484.00,1.24
8483.00,1.24
8482.00,1.23
8481.00,1.23
8480.00,1.23
8479.00,1.23
8478.00,1.23
8477.00,1.23
8476.00,1.23
8475.00,1.23
8474.00,1.23
8473.00,1.23
8472.00,1.23
8471.00,1.23
8470.00,1.22
8469.00,1.22
8468.00,1.22
8467.00,1.22
8466.00,1.22
8465.00,1.22
8464.00,1.23
8463.00,1.23
8462.00,1.23
8461.00,1.23
8460.00,1.23
8459.00,1.23
8458.00,1.23
8457.00,1.23
8456.00,1.22
8455.00,1.22
8454.00,1.22
8453.00,1.22
8452.00,1.22
8451.00,1.22
8450.00,1.22
8449.00,1.22
8448.00,1.22
8447.00,1.21
8446.00,1.21
8445.00,1.21
8444.00,1.21
8443.00,1.21
8442.00,1.21
8441.00,1.21
8440.00,1.20
8439.00,1.20
8438.00,1.20
8437.00,1.20
8436.00,1.20
8435.00,1.20
8434.00,1.20
8433.00,1.20
8432.00,1.20
8431.00,1.20
8430.00,1.20
8429.00,1.20
8428.00,1.20
8427.00,1.21
8426.00,1.21
8425.00,1.21
8424.00,1.21
8423.00,1.21
8422.00,1.21
8421.00,1.21
8420.00,1.21
8419.00,1.22
8418.00,1.22
8417.00,1.22
8416.00,1.22
8415.00,1.22
8414.00,1.22
8413.00,1.22
8412.00,1.22
8411.00,1.23
8410.00,1.23
8409.00,1.23
8408.00,1.23
8407.00,1.23
8406.00,1.23
8405.00,1.23
8404.00,1.23
8403.00,1.23
8402.00,1.23
8401.00,1.23
8400.00,1.23
8399.00,1.23
8398.00,1.23
8397.00,1.23
8396.00,1.23
8395.00,1.23
8394.00,1.24
8393.00,1.24
8392.00,1.24
8391.00,1.24
8390.00,1.24
8389.00,1.24
8388.00,1.24
8387.00,1.24
8386.00,1.24
8385.00,1.25
8384.00,1.25
8383.00,1.25
8382.00,1.25
8381.00,1.25
8380.00,1.25
8379.00,1.25
8378.00,1.25
8377.00,1.25
8376.00,1.25
8375.00,1.25
8374.00,1.25
8373.00,1.25
8372.00,1.25
8371.00,1.25
8370.00,1.26
8369.00,1.26
8368.00,1.26
8367.00,1.26
8366.00,1.26
8365.00,1.26
8364.00,1.26
8363.00,1.26
8362.00,1.26
8361.00,1.26
8360.00,1.26
8359.00,1.26
8358.00,1.26
8357.00,1.26
8356.00,1.26
8355.00,1.26
8354.00,1.26
8353.00,1.26
8352.00,1.26
8351.00,1.25
8350.00,1.25
8349.00,1.25
8348.00,1.25
8347.00,1.25
8346.00,1.25
8345.00,1.25
8344.00,1.25
8343.00,1.26
8342.00,1.26
8341.00,1.26
8340.00,1.26
8339.00,1.26
8338.00,1.26
8337.00,1.26
8336.00,1.26
8335.00,1.26
8334.00,1.26
8333.00,1.26
8332.00,1.26
8331.00,1.26
8330.00,1.26
8329.00,1.26
8328.00,1.26
8327.00,1.26
8326.00,1.26
8325.00,1.26
8324.00,1.26
8323.00,1.26
8322.00,1.26
8321.00,1.26
8320.00,1.26
8319.00,1.26
8318.00,1.26
8317.00,1.26
8316.00,1.26
8315.00,1.26
8314.00,1.27
8313.00,1.27
8312.00,1.27
8311.00,1.27
8310.00,1.27
8309.00,1.27
8308.00,1.27
8307.00,1.27
8306.00,1.27
8305.00,1.27
8304.00,1.27
8303.00,1.27
8302.00,1.27
8301.00,1.27
8300.00,1.27
8299.00,1.27
8298.00,1.27
8297.00,1.27
8296.00,1.26
8295.00,1.26
8294.00,1.26
8293.00,1.26
8292.00,1.26
8291.00,1.26
8290.00,1.26
8289.00,1.26
8288.00,1.27
8287.00,1.27
8286.00,1.27
8285.00,1.27
8284.00,1.27
8283.00,1.27
8282.00,1.27
8281.00,1.27
8280.00,1.27
8279.00,1.27
8278.00,1.28
8277.00,1.28
8276.00,1.28
8275.00,1.28
8274.00,1.28
8273.00,1.28
8272.00,1.28
8271.00,1.28
8270.00,1.28
8269.00,1.28
8268.00,1.28
8267.00,1.28
8266.00,1.28
8265.00,1.28
8264.00,1.28
8263.00,1.28
8262.00,1.28
8261.00,1.28
8260.00,1.28
8259.00,1.28
8258.00,1.28
8257.00,1.28
8256.00,1.28
8255.00,1.28
8254.00,1.28
8253.00,1.28
8252.00,1.28
8251.00,1.28
8250.00,1.28
8249.00,1.28
8248.00,1.28
8247.00,1.28
8246.00,1.28
8245.00,1.28
8244.00,1.28
8243.00,1.28
8242.00,1.29
8241.00,1.29
8240.00,1.29
8239.00,1.29
8238.00,1.29
8237.00,1.29
8236.00,1.29
8235.00,1.29
8234.00,1.29
8233.00,1.29
8232.00,1.29
8231.00,1.29
8230.00,1.29
8229.00,1.29
8228.00,1.29
8227.00,1.29
8226.00,1.29
8225.00,1.29
8224.00,1.29
8223.00,1.29
8222.00,1.29
8221.00,1.29
8220.00,1.29
8219.00,1.29
8218.00,1.29
8217.00,1.29
8216.00,1.29
8215.00,1.29
8214.00,1.29
8213.00,1.29
8212.00,1.29
8211.00,1.29
8210.00,1.30
8209.00,1.30
8208.00,1.30
8207.00,1.30
8206.00,1.30
8205.00,1.30
8204.00,1.30
8203.00,1.31
8202.00,1.31
8201.00,1.31
8200.00,1.31
8199.00,1.31
8198.00,1.31
8197.00,1.31
8196.00,1.31
8195.00,1.31
8194.00,1.31
8193.00,1.31
8192.00,1.31
8191.00,1.31
8190.00,1.31
8189.00,1.31
8188.00,1.31
8187.00,1.31
8186.00,1.31
8185.00,1.31
8184.00,1.31
8183.00,1.31
8182.00,1.31
8181.00,1.31
8180.00,1.31
8179.00,1.31
8178.00,1.31
8177.00,1.30
8176.00,1.30
8175.00,1.30
8174.00,1.30
8173.00,1.30
8172.00,1.30
8171.00,1.30
8170.00,1.30
8169.00,1.30
8168.00,1.30
8167.00,1.30
8166.00,1.30
8165.00,1.31
8164.00,1.31
8163.00,1.31
8162.00,1.31
8161.00,1.31
8160.00,1.31
8159.00,1.31
8158.00,1.31
8157.00,1.31
8156.00,1.32
8155.00,1.32
8154.00,1.32
8153.00,1.32
8152.00,1.32
8151.00,1.32
8150.00,1.33
8149.00,1.33
8148.00,1.33
8147.00,1.33
8146.00,1.33
8145.00,1.33
8144.00,1.33
8143.00,1.33
8142.00,1.33
8141.00,1.33
8140.00,1.33
8139.00,1.33
8138.00,1.33
8137.00,1.33
8136.00,1.33
8135.00,1.33
8134.00,1.33
8133.00,1.33
8132.00,1.33
8131.00,1.33
8130.00,1.33
8129.00,1.33
8128.00,1.33
8127.00,1.33
8126.00,1.33
8125.00,1.33
8124.00,1.33
8123.00,1.33
8122.00,1.33
8121.00,1.34
8120.00,1.34
8119.00,1.34
8118.00,1.34
8117.00,1.34
8116.00,1.34
8115.00,1.34
8114.00,1.34
8113.00,1.34
8112.00,1.34
8111.00,1.34
8110.00,1.34
8109.00,1.34
8108.00,1.34
8107.00,1.34
8106.00,1.34
8105.00,1.34
8104.00,1.34
8103.00,1.35
8102.00,1.35
8101.00,1.35
8100.00,1.35
8099.00,1.35
8098.00,1.35
8097.00,1.35
8096.00,1.35
8095.00,1.35
8094.00,1.35
8093.00,1.34
8092.00,1.34
8091.00,1.34
8090.00,1.34
8089.00,1.34
8088.00,1.34
8087.00,1.34
8086.00,1.34
8085.00,1.34
8084.00,1.34
8083.00,1.34
8082.00,1.34
8081.00,1.34
8080.00,1.34
8079.00,1.34
8078.00,1.34
8077.00,1.34
8076.00,1.34
8075.00,1.34
8074.00,1.34
8073.00,1.34
8072.00,1.34
8071.00,1.34
8070.00,1.34
8069.00,1.34
8068.00,1.35
8067.00,1.35
8066.00,1.35
8065.00,1.35
8064.00,1.35
8063.00,1.35
8062.00,1.35
8061.00,1.35
8060.00,1.35
8059.00,1.35
8058.00,1.35
8057.00,1.35
8056.00,1.35
8055.00,1.35
8054.00,1.35
8053.00,1.35
8052.00,1.35
8051.00,1.35
8050.00,1.35
8049.00,1.35
8048.00,1.35
8047.00,1.35
8046.00,1.35
8045.00,1.35
8044.00,1.35
8043.00,1.35
8042.00,1.35
8041.00,1.35
8040.00,1.34
8039.00,1.34
8038.00,1.34
8037.00,1.35
8036.00,1.35
8035.00,1.35
8034.00,1.35
8033.00,1.35
8032.00,1.35
8031.00,1.35
8030.00,1.35
8029.00,1.35
8028.00,1.35
8027.00,1.35
8026.00,1.36
8025.00,1.36
8024.00,1.36
8023.00,1.36
8022.00,1.36
8021.00,1.36
8020.00,1.36
8019.00,1.36
8018.00,1.36
8017.00,1.36
8016.00,1.36
8015.00,1.36
8014.00,1.36
8013.00,1.36
8012.00,1.37
8011.00,1.37
8010.00,1.37
8009.00,1.37
8008.00,1.37
8007.00,1.37
8006.00,1.37
8005.00,1.37
8004.00,1.37
8003.00,1.37
8002.00,1.37
8001.00,1.37
8000.00,1.37
7999.00,1.37
7998.00,1.37
7997.00,1.37
7996.00,1.37
7995.00,1.37
7994.00,1.38
7993.00,1.38
7992.00,1.38
7991.00,1.38
7990.00,1.38
7989.00,1.38
7988.00,1.38
7987.00,1.38
7986.00,1.37
7985.00,1.37
7984.00,1.37
7983.00,1.37
7982.00,1.37
7981.00,1.37
7980.00,1.37
7979.00,1.37
7978.00,1.37
7977.00,1.37
7976.00,1.37
7975.00,1.37
7974.00,1.37
7973.00,1.37
7972.00,1.37
7971.00,1.37
7970.00,1.37
7969.00,1.37
7968.00,1.37
7967.00,1.37
7966.00,1.37
7965.00,1.37
7964.00,1.37
7963.00,1.38
7962.00,1.38
7961.00,1.38
7960.00,1.38
7959.00,1.38
7958.00,1.38
7957.00,1.38
7956.00,1.38
7955.00,1.38
7954.00,1.38
7953.00,1.38
7952.00,1.38
7951.00,1.38
7950.00,1.38
7949.00,1.38
7948.00,1.38
7947.00,1.38
7946.00,1.38
7945.00,1.38
7944.00,1.38
7943.00,1.38
7942.00,1.38
7941.00,1.38
7940.00,1.38
7939.00,1.38
7938.00,1.38
7937.00,1.38
7936.00,1.38
7935.00,1.38
7934.00,1.38
7933.00,1.38
7932.00,1.38
7931.00,1.38
7930.00,1.38
7929.00,1.38
7928.00,1.38
7927.00,1.39
7926.00,1.39
7925.00,1.39
7924.00,1.39
7923.00,1.39
7922.00,1.39
7921.00,1.39
7920.00,1.39
7919.00,1.39
7918.00,1.39
7917.00,1.39
7916.00,1.39
7915.00,1.39
7914.00,1.39
7913.00,1.39
7912.00,1.39
7911.00,1.39
7910.00,1.39
7909.00,1.39
7908.00,1.39
7907.00,1.39
7906.00,1.39
7905.00,1.39
7904.00,1.39
7903.00,1.39
7902.00,1.39
7901.00,1.39
7900.00,1.39
7899.00,1.39
7898.00,1.39
7897.00,1.39
7896.00,1.39
7895.00,1.39
7894.00,1.39
7893.00,1.39
7892.00,1.39
7891.00,1.39
7890.00,1.39
7889.00,1.39
7888.00,1.39
7887.00,1.40
7886.00,1.40
7885.00,1.40
7884.00,1.40
7883.00,1.40
7882.00,1.40
7881.00,1.40
7880.00,1.40
7879.00,1.40
7878.00,1.40
7877.00,1.40
7876.00,1.40
7875.00,1.40
7874.00,1.40
7873.00,1.40
7872.00,1.40
7871.00,1.40
7870.00,1.40
7869.00,1.40
7868.00,1.40
7867.00,1.40
7866.00,1.40
7865.00,1.40
7864.00,1.41
7863.00,1.41
7862.00,1.41
7861.00,1.41
7860.00,1.41
7859.00,1.41
7858.00,1.41
7857.00,1.41
7856.00,1.41
7855.00,1.41
7854.00,1.41
7853.00,1.41
7852.00,1.41
7851.00,1.41
7850.00,1.41
7849.00,1.41
7848.00,1.41
7847.00,1.40
7846.00,1.40
7845.00,1.40
7844.00,1.40
7843.00,1.40
7842.00,1.40
7841.00,1.40
7840.00,1.40
7839.00,1.40
7838.00,1.40
7837.00,1.40
7836.00,1.40
7835.00,1.40
7834.00,1.40
7833.00,1.40
7832.00,1.40
7831.00,1.40
7830.00,1.40
7829.00,1.40
7828.00,1.40
7827.00,1.40
7826.00,1.40
7825.00,1.40
7824.00,1.40
7823.00,1.40
7822.00,1.40
7821.00,1.40
7820.00,1.40
7819.00,1.40
7818.00,1.40
7817.00,1.40
7816.00,1.40
7815.00,1.40
7814.00,1.40
7813.00,1.40
7812.00,1.40
7811.00,1.40
7810.00,1.40
7809.00,1.40
7808.00,1.40
7807.00,1.40
7806.00,1.40
7805.00,1.40
7804.00,1.40
7803.00,1.40
7802.00,1.40
7801.00,1.40
7800.00,1.40
7799.00,1.41
7798.00,1.41
7797.00,1.41
7796.00,1.41
7795.00,1.41
7794.00,1.41
7793.00,1.41
7792.00,1.41
7791.00,1.41
7790.00,1.41
7789.00,1.41
7788.00,1.41
7787.00,1.41
7786.00,1.41
7785.00,1.41
7784.00,1.41
7783.00,1.41
7782.00,1.41
7781.00,1.40
7780.00,1.40
7779.00,1.40
7778.00,1.40
7777.00,1.40
7776.00,1.40
7775.00,1.40
7774.00,1.40
7773.00,1.40
7772.00,1.40
7771.00,1.40
7770.00,1.40
7769.00,1.40
7768.00,1.40
7767.00,1.40
7766.00,1.40
7765.00,1.40
7764.00,1.40
7763.00,1.40
7762.00,1.40
7761.00,1.40
7760.00,1.40
7759.00,1.40
7758.00,1.40
7757.00,1.40
7756.00,1.40
7755.00,1.40
7754.00,1.40
7753.00,1.40
7752.00,1.40
7751.00,1.40
7750.00,1.40
7749.00,1.40
7748.00,1.40
7747.00,1.40
7746.00,1.40
7745.00,1.40
7744.00,1.40
7743.00,1.40
7742.00,1.40
7741.00,1.40
7740.00,1.40
7739.00,1.40
7738.00,1.40
7737.00,1.40
7736.00,1.41
7735.00,1.41
7734.00,1.41
7733.00,1.41
7732.00,1.41
7731.00,1.41
7730.00,1.41
7729.00,1.42
7728.00,1.42
7727.00,1.42
7726.00,1.42
7725.00,1.42
7724.00,1.42
7723.00,1.42
7722.00,1.42
7721.00,1.42
7720.00,1.42
7719.00,1.42
7718.00,1.42
7717.00,1.42
7716.00,1.42
7715.00,1.42
7714.00,1.42
7713.00,1.42
7712.00,1.41
7711.00,1.41
7710.00,1.41
7709.00,1.41
7708.00,1.41
7707.00,1.41
7706.00,1.41
7705.00,1.41
7704.00,1.41
7703.00,1.41
7702.00,1.41
7701.00,1.41
7700.00,1.41
7699.00,1.41
7698.00,1.41
7697.00,1.41
7696.00,1.41
7695.00,1.41
7694.00,1.42
7693.00,1.42
7692.00,1.42
7691.00,1.42
7690.00,1.42
7689.00,1.42
7688.00,1.42
7687.00,1.42
7686.00,1.42
7685.00,1.42
7684.00,1.41
7683.00,1.41
7682.00,1.41
7681.00,1.41
7680.00,1.41
7679.00,1.41
7678.00,1.41
7677.00,1.41
7676.00,1.41
7675.00,1.41
7674.00,1.41
7673.00,1.41
7672.00,1.40
7671.00,1.40
7670.00,1.40
7669.00,1.40
7668.00,1.40
7667.00,1.40
7666.00,1.40
7665.00,1.40
7664.00,1.40
7663.00,1.40
7662.00,1.40
7661.00,1.40
7660.00,1.40
7659.00,1.40
7658.00,1.40
7657.00,1.40
7656.00,1.40
7655.00,1.40
7654.00,1.41
7653.00,1.41
7652.00,1.41
7651.00,1.41
7650.00,1.41
7649.00,1.41
7648.00,1.41
7647.00,1.41
7646.00,1.41
7645.00,1.41
7644.00,1.41
7643.00,1.41
7642.00,1.41
7641.00,1.41
7640.00,1.41
7639.00,1.41
7638.00,1.41
7637.00,1.41
7636.00,1.41
7635.00,1.42
7634.00,1.42
7633.00,1.42
7632.00,1.42
7631.00,1.42
7630.00,1.42
7629.00,1.42
7628.00,1.42
7627.00,1.42
7626.00,1.42
7625.00,1.42
7624.00,1.42
7623.00,1.42
7622.00,1.42
7621.00,1.42
7620.00,1.42
7619.00,1.42
7618.00,1.42
7617.00,1.42
7616.00,1.42
7615.00,1.42
7614.00,1.42
7613.00,1.42
7612.00,1.42
7611.00,1.42
7610.00,1.42
7609.00,1.42
7608.00,1.42
7607.00,1.42
7606.00,1.42
7605.00,1.42
7604.00,1.42
7603.00,1.42
7602.00,1.41
7601.00,1.41
7600.00,1.41
7599.00,1.41
7598.00,1.41
7597.00,1.41
7596.00,1.41
7595.00,1.41
7594.00,1.41
7593.00,1.41
7592.00,1.41
7591.00,1.41
7590.00,1.41
7589.00,1.41
7588.00,1.41
7587.00,1.41
7586.00,1.41
7585.00,1.41
7584.00,1.41
7583.00,1.41
7582.00,1.41
7581.00,1.41
7580.00,1.41
7579.00,1.41
7578.00,1.41
7577.00,1.41
7576.00,1.41
7575.00,1.41
7574.00,1.41
7573.00,1.41
7572.00,1.41
7571.00,1.41
7570.00,1.41
7569.00,1.41
7568.00,1.41
7567.00,1.41
7566.00,1.41
7565.00,1.41
7564.00,1.41
7563.00,1.41
7562.00,1.41
7561.00,1.41
7560.00,1.41
7559.00,1.41
7558.00,1.41
7557.00,1.41
7556.00,1.41
7555.00,1.41
7554.00,1.41
7553.00,1.41
7552.00,1.41
7551.00,1.41
7550.00,1.41
7549.00,1.41
7548.00,1.41
7547.00,1.41
7546.00,1.41
7545.00,1.41
7544.00,1.40
7543.00,1.40
7542.00,1.40
7541.00,1.40
7540.00,1.40
7539.00,1.40
7538.00,1.40
7537.00,1.40
7536.00,1.40
7535.00,1.40
7534.00,1.40
7533.00,1.40
7532.00,1.40
7531.00,1.40
7530.00,1.40
7529.00,1.40
7528.00,1.40
7527.00,1.40
7526.00,1.39
7525.00,1.39
7524.00,1.39
7523.00,1.39
7522.00,1.39
7521.00,1.39
7520.00,1.39
7519.00,1.39
7518.00,1.39
7517.00,1.39
7516.00,1.38
7515.00,1.38
7514.00,1.38
7513.00,1.38
7512.00,1.38
7511.00,1.38
7510.00,1.38
7509.00,1.38
7508.00,1.38
7507.00,1.38
7506.00,1.37
7505.00,1.37
7504.00,1.37
7503.00,1.37
7502.00,1.37
7501.00,1.37
7500.00,1.37
7499.00,1.37
7498.00,1.37
7497.00,1.37
7496.00,1.37
7495.00,1.37
7494.00,1.37
7493.00,1.37
7492.00,1.37
7491.00,1.37
7490.00,1.37
7489.00,1.37
7488.00,1.37
7487.00,1.37
7486.00,1.37
7485.00,1.37
7484.00,1.37
7483.00,1.37
7482.00,1.37
7481.00,1.37
7480.00,1.37
7479.00,1.37
7478.00,1.37
7477.00,1.37
7476.00,1.37
7475.00,1.37
7474.00,1.36
7473.00,1.36
7472.00,1.36
7471.00,1.36
7470.00,1.36
7469.00,1.36
7468.00,1.36
7467.00,1.36
7466.00,1.36
7465.00,1.36
7464.00,1.36
7463.00,1.36
7462.00,1.35
7461.00,1.35
7460.00,1.35
7459.00,1.35
7458.00,1.35
7457.00,1.35
7456.00,1.35
7455.00,1.35
7454.00,1.35
7453.00,1.35
7452.00,1.35
7451.00,1.35
7450.00,1.35
7449.00,1.35
7448.00,1.35
7447.00,1.35
7446.00,1.35
7445.00,1.35
7444.00,1.35
7443.00,1.35
7442.00,1.35
7441.00,1.35
7440.00,1.35
7439.00,1.35
7438.00,1.35
7437.00,1.35
7436.00,1.35
7435.00,1.35
7434.00,1.35
7433.00,1.35
7432.00,1.35
7431.00,1.35
7430.00,1.34
7429.00,1.34
7428.00,1.34
7427.00,1.34
7426.00,1.34
7425.00,1.34
7424.00,1.34
7423.00,1.34
7422.00,1.33
7421.00,1.33
7420.00,1.33
7419.00,1.33
7418.00,1.33
7417.00,1.33
7416.00,1.33
7415.00,1.33
7414.00,1.33
7413.00,1.32
7412.00,1.32
7411.00,1.32
7410.00,1.32
7409.00,1.32
7408.00,1.32
7407.00,1.32
7406.00,1.32
7405.00,1.32
7404.00,1.32
7403.00,1.32
7402.00,1.32
7401.00,1.32
7400.00,1.32
7399.00,1.32
7398.00,1.31
7397.00,1.31
7396.00,1.31
7395.00,1.31
7394.00,1.31
7393.00,1.30
7392.00,1.30
7391.00,1.30
7390.00,1.30
7389.00,1.30
7388.00,1.29
7387.00,1.29
7386.00,1.29
7385.00,1.29
7384.00,1.29
7383.00,1.29
7382.00,1.29
7381.00,1.28
7380.00,1.28
7379.00,1.28
7378.00,1.28
7377.00,1.28
7376.00,1.28
7375.00,1.28
7374.00,1.28
7373.00,1.28
7372.00,1.28
7371.00,1.28
7370.00,1.28
7369.00,1.28
7368.00,1.28
7367.00,1.28
7366.00,1.27
7365.00,1.27
7364.00,1.27
7363.00,1.27
7362.00,1.27
7361.00,1.27
7360.00,1.27
7359.00,1.27
7358.00,1.27
7357.00,1.27
7356.00,1.27
7355.00,1.27
7354.00,1.26
7353.00,1.26
7352.00,1.26
7351.00,1.26
7350.00,1.26
7349.00,1.26
7348.00,1.26
7347.00,1.26
7346.00,1.26
7345.00,1.26
7344.00,1.26
7343.00,1.26
7342.00,1.26
7341.00,1.26
7340.00,1.26
7339.00,1.26
7338.00,1.26
7337.00,1.26
7336.00,1.26
7335.00,1.26
7334.00,1.26
7333.00,1.26
7332.00,1.26
7331.00,1.26
7330.00,1.26
7329.00,1.26
7328.00,1.26
7327.00,1.26
7326.00,1.26
7325.00,1.26
7324.00,1.26
7323.00,1.26
7322.00,1.26
7321.00,1.26
7320.00,1.26
7319.00,1.26
7318.00,1.25
7317.00,1.25
7316.00,1.25
7315.00,1.25
7314.00,1.25
7313.00,1.25
7312.00,1.25
7311.00,1.25
7310.00,1.25
7309.00,1.25
7308.00,1.25
7307.00,1.25
7306.00,1.25
7305.00,1.24
7304.00,1.24
7303.00,1.24
7302.00,1.24
7301.00,1.24
7300.00,1.24
7299.00,1.23
7298.00,1.23
7297.00,1.23
7296.00,1.23
7295.00,1.23
7294.00,1.23
7293.00,1.23
7292.00,1.22
7291.00,1.22
7290.00,1.22
7289.00,1.22
7288.00,1.22
7287.00,1.22
7286.00,1.22
7285.00,1.22
7284.00,1.21
7283.00,1.21
7282.00,1.21
7281.00,1.21
7280.00,1.21
7279.00,1.21
7278.00,1.21
7277.00,1.21
7276.00,1.21
7275.00,1.20
7274.00,1.20
7273.00,1.20
7272.00,1.20
7271.00,1.20
7270.00,1.20
7269.00,1.20
7268.00,1.20
7267.00,1.19
7266.00,1.19
7265.00,1.19
7264.00,1.19
7263.00,1.19
7262.00,1.19
7261.00,1.19
7260.00,1.18
7259.00,1.18
7258.00,1.18
7257.00,1.18
7256.00,1.17
7255.00,1.17
7254.00,1.17
7253.00,1.17
7252.00,1.16
7251.00,1.16
7250.00,1.16
7249.00,1.15
7248.00,1.15
7247.00,1.15
7246.00,1.14
7245.00,1.14
7244.00,1.14
7243.00,1.13
7242.00,1.13
7241.00,1.13
7240.00,1.13
7239.00,1.12
7238.00,1.12
7237.00,1.12
7236.00,1.11
7235.00,1.11
7234.00,1.11
7233.00,1.11
7232.00,1.10
7231.00,1.10
7230.00,1.10
7229.00,1.10
7228.00,1.10
7227.00,1.09
7226.00,1.09
7225.00,1.09
7224.00,1.09
7223.00,1.08
7222.00,1.08
7221.00,1.08
7220.00,1.07
7219.00,1.07
7218.00,1.07
7217.00,1.07
7216.00,1.06
7215.00,1.06
7214.00,1.06
7213.00,1.05
7212.00,1.05
7211.00,1.04
7210.00,1.04
7209.00,1.04
7208.00,1.03
7207.00,1.03
7206.00,1.03
7205.00,1.02
7204.00,1.02
7203.00,1.02
7202.00,1.01
7201.00,1.01
7200.00,1.00
7199.00,1.00
7198.00,1.00
7197.00,0.99
7196.00,0.99
7195.00,0.99
7194.00,0.99
7193.00,0.98
7192.00,0.98
7191.00,0.98
7190.00,0.97
7189.00,0.97
7188.00,0.97
7187.00,0.96
7186.00,0.96
7185.00,0.96
7184.00,0.95
7183.00,0.95
7182.00,0.95
7181.00,0.94
7180.00,0.94
7179.00,0.94
7178.00,0.93
7177.00,0.93
7176.00,0.93
7175.00,0.92
7174.00,0.92
7173.00,0.92
7172.00,0.91
7171.00,0.91
7170.00,0.91
7169.00,0.90
7168.00,0.90
7167.00,0.90
7166.00,0.90
7165.00,0.89
7164.00,0.89
7163.00,0.89
7162.00,0.89
7161.00,0.88
7160.00,0.88
7159.00,0.88
7158.00,0.88
7157.00,0.88
7156.00,0.87
7155.00,0.87
7154.00,0.87
7153.00,0.87
7152.00,0.87
7151.00,0.86
7150.00,0.86
7149.00,0.86
7148.00,0.86
7147.00,0.85
7146.00,0.85
7145.00,0.85
7144.00,0.85
7143.00,0.84
7142.00,0.84
7141.00,0.84
7140.00,0.84
7139.00,0.83
7138.00,0.83
7137.00,0.83
7136.00,0.82
7135.00,0.82
7134.00,0.82
7133.00,0.82
7132.00,0.81
7131.00,0.81
7130.00,0.81
7129.00,0.81
7128.00,0.80
7127.00,0.80
7126.00,0.80
7125.00,0.80
7124.00,0.79
7123.00,0.79
7122.00,0.79
7121.00,0.79
7120.00,0.78
7119.00,0.78
7118.00,0.78
7117.00,0.78
7116.00,0.78
7115.00,0.77
7114.00,0.77
7113.00,0.77
7112.00,0.77
7111.00,0.76
7110.00,0.76
7109.00,0.76
7108.00,0.76
7107.00,0.76
7106.00,0.75
7105.00,0.75
7104.00,0.75
7103.00,0.75
7102.00,0.75
7101.00,0.74
7100.00,0.74
7099.00,0.74
7098.00,0.74
7097.00,0.74
7096.00,0.74
7095.00,0.73
7094.00,0.73
7093.00,0.73
7092.00,0.73
7091.00,0.73
7090.00,0.73
7089.00,0.73
7088.00,0.73
7087.00,0.73
7086.00,0.73
7085.00,0.73
7084.00,0.73
7083.00,0.73
7082.00,0.73
7081.00,0.72
7080.00,0.72
7079.00,0.72
7078.00,0.72
7077.00,0.72
7076.00,0.72
7075.00,0.72
7074.00,0.72
7073.00,0.72
7072.00,0.72
7071.00,0.72
7070.00,0.72
7069.00,0.71
7068.00,0.71
7067.00,0.71
7066.00,0.71
7065.00,0.71
7064.00,0.71
7063.00,0.71
7062.00,0.71
7061.00,0.71
7060.00,0.70
7059.00,0.70
7058.00,0.70
7057.00,0.70
7056.00,0.70
7055.00,0.70
7054.00,0.70
7053.00,0.70
7052.00,0.70
7051.00,0.70
7050.00,0.70
7049.00,0.70
7048.00,0.70
7047.00,0.69
7046.00,0.69
7045.00,0.69
7044.00,0.69
7043.00,0.69
7042.00,0.69
7041.00,0.68
7040.00,0.68
7039.00,0.68
7038.00,0.68
7037.00,0.68
7036.00,0.68
7035.00,0.68
7034.00,0.68
7033.00,0.68
7032.00,0.68
7031.00,0.68
7030.00,0.68
7029.00,0.68
7028.00,0.68
7027.00,0.68
7026.00,0.68
7025.00,0.68
7024.00,0.68
7023.00,0.68
7022.00,0.68
7021.00,0.68
7020.00,0.68
7019.00,0.68
7018.00,0.68
7017.00,0.68
7016.00,0.68
7015.00,0.68
7014.00,0.68
7013.00,0.68
7012.00,0.68
7011.00,0.67
7010.00,0.67
7009.00,0.67
7008.00,0.67
7007.00,0.67
7006.00,0.67
7005.00,0.67
7004.00,0.67
7003.00,0.66
7002.00,0.66
7001.00,0.66
7000.00,0.66
6999.00,0.66
6998.00,0.66
6997.00,0.66
6996.00,0.66
6995.00,0.66
6994.00,0.66
6993.00,0.66
6992.00,0.66
6991.00,0.66
6990.00,0.66
6989.00,0.66
6988.00,0.66
6987.00,0.66
6986.00,0.66
6985.00,0.66
6984.00,0.66
6983.00,0.66
6982.00,0.66
6981.00,0.66
6980.00,0.66
6979.00,0.66
6978.00,0.66
6977.00,0.66
6976.00,0.66
6975.00,0.66
6974.00,0.66
6973.00,0.66
6972.00,0.66
6971.00,0.66
6970.00,0.66
6969.00,0.66
6968.00,0.66
6967.00,0.66
6966.00,0.66
6965.00,0.66
6964.00,0.66
6963.00,0.66
6962.00,0.66
6961.00,0.66
6960.00,0.66
6959.00,0.66
6958.00,0.66
6957.00,0.66
6956.00,0.66
6955.00,0.66
6954.00,0.66
6953.00,0.65
6952.00,0.65
6951.00,0.65
6950.00,0.65
6949.00,0.65
6948.00,0.65
6947.00,0.65
6946.00,0.65
6945.00,0.65
6944.00,0.65
6943.00,0.65
6942.00,0.65
6941.00,0.65
6940.00,0.65
6939.00,0.65
6938.00,0.65
6937.00,0.66
6936.00,0.66
6935.00,0.66
6934.00,0.66
6933.00,0.66
6932.00,0.66
6931.00,0.66
6930.00,0.66
6929.00,0.66
6928.00,0.66
6927.00,0.66
6926.00,0.66
6925.00,0.66
6924.00,0.66
6923.00,0.66
6922.00,0.66
6921.00,0.66
6920.00,0.66
6919.00,0.66
6918.00,0.66
6917.00,0.66
6916.00,0.66
6915.00,0.66
6914.00,0.65
6913.00,0.65
6912.00,0.65
6911.00,0.65
6910.00,0.65
6909.00,0.65
6908.00,0.65
6907.00,0.65
6906.00,0.65
6905.00,0.65
6904.00,0.65
6903.00,0.65
6902.00,0.65
6901.00,0.65
6900.00,0.65
6899.00,0.65
6898.00,0.65
6897.00,0.65
6896.00,0.65
6895.00,0.65
6894.00,0.65
6893.00,0.65
6892.00,0.65
6891.00,0.65
6890.00,0.65
6889.00,0.65
6888.00,0.65
6887.00,0.65
6886.00,0.65
6885.00,0.65
6884.00,0.65
6883.00,0.65
6882.00,0.65
6881.00,0.65
6880.00,0.65
6879.00,0.65
6878.00,0.65
6877.00,0.65
6876.00,0.65
6875.00,0.65
6874.00,0.65
6873.00,0.65
6872.00,0.65
6871.00,0.65
6870.00,0.65
6869.00,0.65
6868.00,0.65
6867.00,0.65
6866.00,0.65
6865.00,0.65
6864.00,0.65
6863.00,0.65
6862.00,0.65
6861.00,0.65
6860.00,0.65
6859.00,0.65
6858.00,0.65
6857.00,0.65
6856.00,0.65
6855.00,0.65
6854.00,0.65
6853.00,0.65
6852.00,0.65
6851.00,0.65
6850.00,0.65
6849.00,0.65
6848.00,0.65
6847.00,0.65
6846.00,0.65
6845.00,0.65
6844.00,0.65
6843.00,0.65
6842.00,0.66
6841.00,0.66
6840.00,0.66
6839.00,0.66
6838.00,0.66
6837.00,0.66
6836.00,0.66
6835.00,0.66
6834.00,0.66
6833.00,0.66
6832.00,0.66
6831.00,0.66
6830.00,0.66
6829.00,0.66
6828.00,0.66
6827.00,0.66
6826.00,0.66
6825.00,0.66
6824.00,0.66
6823.00,0.66
6822.00,0.66
6821.00,0.66
6820.00,0.66
6819.00,0.66
6818.00,0.66
6817.00,0.66
6816.00,0.66
6815.00,0.66
6814.00,0.66
6813.00,0.66
6812.00,0.66
6811.00,0.66
6810.00,0.66
6809.00,0.66
6808.00,0.66
6807.00,0.66
6806.00,0.66
6805.00,0.66
6804.00,0.66
6803.00,0.66
6802.00,0.66
6801.00,0.66
6800.00,0.66
6799.00,0.66
6798.00,0.66
6797.00,0.66
6796.00,0.66
6795.00,0.66
6794.00,0.66
6793.00,0.66
6792.00,0.66
6791.00,0.67
6790.00,0.67
6789.00,0.67
6788.00,0.67
6787.00,0.67
6786.00,0.67
6785.00,0.67
6784.00,0.67
6783.00,0.67
6782.00,0.67
6781.00,0.67
6780.00,0.67
6779.00,0.68
6778.00,0.68
6777.00,0.68
6776.00,0.68
6775.00,0.68
6774.00,0.68
6773.00,0.68
6772.00,0.68
6771.00,0.68
6770.00,0.68
6769.00,0.68
6768.00,0.68
6767.00,0.68
6766.00,0.68
6765.00,0.68
6764.00,0.68
6763.00,0.68
6762.00,0.68
6761.00,0.68
6760.00,0.68
6759.00,0.68
6758.00,0.68
6757.00,0.68
6756.00,0.68
6755.00,0.68
6754.00,0.68
6753.00,0.68
6752.00,0.68
6751.00,0.68
6750.00,0.68
6749.00,0.68
6748.00,0.68
6747.00,0.69
6746.00,0.69
6745.00,0.69
6744.00,0.69
6743.00,0.69
6742.00,0.69
6741.00,0.69
6740.00,0.69
6739.00,0.69
6738.00,0.69
6737.00,0.69
6736.00,0.69
6735.00,0.70
6734.00,0.70
6733.00,0.70
6732.00,0.70
6731.00,0.70
6730.00,0.70
6729.00,0.70
6728.00,0.70
6727.00,0.70
6726.00,0.70
6725.00,0.71
6724.00,0.71
6723.00,0.71
6722.00,0.71
6721.00,0.71
6720.00,0.71
6719.00,0.71
6718.00,0.71
6717.00,0.71
6716.00,0.71
6715.00,0.71
6714.00,0.71
6713.00,0.71
6712.00,0.71
6711.00,0.71
6710.00,0.71
6709.00,0.71
6708.00,0.71
6707.00,0.71
6706.00,0.71
6705.00,0.71
6704.00,0.71
6703.00,0.71
6702.00,0.71
6701.00,0.71
6700.00,0.72
6699.00,0.72
6698.00,0.72
6697.00,0.72
6696.00,0.72
6695.00,0.72
6694.00,0.72
6693.00,0.72
6692.00,0.72
6691.00,0.72
6690.00,0.72
6689.00,0.72
6688.00,0.72
6687.00,0.73
6686.00,0.73
6685.00,0.73
6684.00,0.73
6683.00,0.73
6682.00,0.73
6681.00,0.73
6680.00,0.73
6679.00,0.73
6678.00,0.73
6677.00,0.73
6676.00,0.73
6675.00,0.73
6674.00,0.74
6673.00,0.74
6672.00,0.74
6671.00,0.74
6670.00,0.74
6669.00,0.74
6668.00,0.74
6667.00,0.74
6666.00,0.74
6665.00,0.74
6664.00,0.74
6663.00,0.74
6662.00,0.74
6661.00,0.74
6660.00,0.74
6659.00,0.74
6658.00,0.74
6657.00,0.74
6656.00,0.74
6655.00,0.74
6654.00,0.74
6653.00,0.74
6652.00,0.74
6651.00,0.74
6650.00,0.74
6649.00,0.74
6648.00,0.75
6647.00,0.75
6646.00,0.75
6645.00,0.75
6644.00,0.75
6643.00,0.75
6642.00,0.76
6641.00,0.76
6640.00,0.76
6639.00,0.76
6638.00,0.76
6637.00,0.76
6636.00,0.76
6635.00,0.76
6634.00,0.77
6633.00,0.77
6632.00,0.77
6631.00,0.77
6630.00,0.77
6629.00,0.77
6628.00,0.77
6627.00,0.77
6626.00,0.77
6625.00,0.77
6624.00,0.77
6623.00,0.77
6622.00,0.77
6621.00,0.77
6620.00,0.77
6619.00,0.77
6618.00,0.77
6617.00,0.77
6616.00,0.78
6615.00,0.78
6614.00,0.78
6613.00,0.78
6612.00,0.78
6611.00,0.78
6610.00,0.78
6609.00,0.78
6608.00,0.78
6607.00,0.79
6606.00,0.79
6605.00,0.79
6604.00,0.79
6603.00,0.79
6602.00,0.79
6601.00,0.79
6600.00,0.79
6599.00,0.79
6598.00,0.79
6597.00,0.79
6596.00,0.79
6595.00,0.79
6594.00,0.79
6593.00,0.79
6592.00,0.79
6591.00,0.79
6590.00,0.79
6589.00,0.79
6588.00,0.79
6587.00,0.79
6586.00,0.79
6585.00,0.79
6584.00,0.80
6583.00,0.80
6582.00,0.80
6581.00,0.80
6580.00,0.80
6579.00,0.80
6578.00,0.80
6577.00,0.80
6576.00,0.81
6575.00,0.81
6574.00,0.81
6573.00,0.81
6572.00,0.81
6571.00,0.81
6570.00,0.81
6569.00,0.81
6568.00,0.81
6567.00,0.82
6566.00,0.82
6565.00,0.82
6564.00,0.82
6563.00,0.82
6562.00,0.82
6561.00,0.82
6560.00,0.82
6559.00,0.82
6558.00,0.82
6557.00,0.82
6556.00,0.82
6555.00,0.82
6554.00,0.83
6553.00,0.83
6552.00,0.83
6551.00,0.83
6550.00,0.83
6549.00,0.83
6548.00,0.83
6547.00,0.83
6546.00,0.83
6545.00,0.83
6544.00,0.83
6543.00,0.83
6542.00,0.83
6541.00,0.83
6540.00,0.83
6539.00,0.83
6538.00,0.83
6537.00,0.83
6536.00,0.83
6535.00,0.83
6534.00,0.83
6533.00,0.83
6532.00,0.83
6531.00,0.83
6530.00,0.83
6529.00,0.83
6528.00,0.84
6527.00,0.84
6526.00,0.84
6525.00,0.84
6524.00,0.84
6523.00,0.84
6522.00,0.84
6521.00,0.84
6520.00,0.84
6519.00,0.84
6518.00,0.85
6517.00,0.85
6516.00,0.85
6515.00,0.85
6514.00,0.85
6513.00,0.85
6512.00,0.85
6511.00,0.85
6510.00,0.85
6509.00,0.85
6508.00,0.85
6507.00,0.85
6506.00,0.85
6505.00,0.86
6504.00,0.86
6503.00,0.86
6502.00,0.86
6501.00,0.86
6500.00,0.86
6499.00,0.86
6498.00,0.86
6497.00,0.86
6496.00,0.86
6495.00,0.86
6494.00,0.86
6493.00,0.86
6492.00,0.87
6491.00,0.87
6490.00,0.87
6489.00,0.87
6488.00,0.87
6487.00,0.87
6486.00,0.87
6485.00,0.87
6484.00,0.87
6483.00,0.87
6482.00,0.88
6481.00,0.88
6480.00,0.88
6479.00,0.88
6478.00,0.88
6477.00,0.88
6476.00,0.88
6475.00,0.88
6474.00,0.88
6473.00,0.88
6472.00,0.88
6471.00,0.88
6470.00,0.88
6469.00,0.88
6468.00,0.88
6467.00,0.88
6466.00,0.88
6465.00,0.89
6464.00,0.89
6463.00,0.89
6462.00,0.89
6461.00,0.89
6460.00,0.89
6459.00,0.89
6458.00,0.89
6457.00,0.89
6456.00,0.89
6455.00,0.89
6454.00,0.89
6453.00,0.89
6452.00,0.89
6451.00,0.89
6450.00,0.89
6449.00,0.89
6448.00,0.89
6447.00,0.89
6446.00,0.89
6445.00,0.89
6444.00,0.89
6443.00,0.89
6442.00,0.89
6441.00,0.89
6440.00,0.89
6439.00,0.89
6438.00,0.90
6437.00,0.90
6436.00,0.90
6435.00,0.90
6434.00,0.90
6433.00,0.90
6432.00,0.90
6431.00,0.90
6430.00,0.90
6429.00,0.90
6428.00,0.90
6427.00,0.90
6426.00,0.90
6425.00,0.90
6424.00,0.90
6423.00,0.90
6422.00,0.91
6421.00,0.91
6420.00,0.91
6419.00,0.91
6418.00,0.91
6417.00,0.91
6416.00,0.91
6415.00,0.91
6414.00,0.92
6413.00,0.92
6412.00,0.92
6411.00,0.92
6410.00,0.92
6409.00,0.92
6408.00,0.92
6407.00,0.92
6406.00,0.92
6405.00,0.92
6404.00,0.92
6403.00,0.92
6402.00,0.92
6401.00,0.92
6400.00,0.92
6399.00,0.92
6398.00,0.92
6397.00,0.92
6396.00,0.92
6395.00,0.92
6394.00,0.92
6393.00,0.92
6392.00,0.92
6391.00,0.92
6390.00,0.92
6389.00,0.92
6388.00,0.92
6387.00,0.93
6386.00,0.93
6385.00,0.93
6384.00,0.93
6383.00,0.93
6382.00,0.93
6381.00,0.93
6380.00,0.93
6379.00,0.93
6378.00,0.93
6377.00,0.93
6376.00,0.93
6375.00,0.94
6374.00,0.94
6373.00,0.94
6372.00,0.94
6371.00,0.94
6370.00,0.94
6369.00,0.94
6368.00,0.94
6367.00,0.94
6366.00,0.94
6365.00,0.94
6364.00,0.94
6363.00,0.95
6362.00,0.95
6361.00,0.95
6360.00,0.95
6359.00,0.95
6358.00,0.95
6357.00,0.95
6356.00,0.95
6355.00,0.95
6354.00,0.95
6353.00,0.95
6352.00,0.96
6351.00,0.96
6350.00,0.96
6349.00,0.96
6348.00,0.96
6347.00,0.96
6346.00,0.96
6345.00,0.96
6344.00,0.96
6343.00,0.96
6342.00,0.96
6341.00,0.96
6340.00,0.96
6339.00,0.96
6338.00,0.96
6337.00,0.96
6336.00,0.96
6335.00,0.96
6334.00,0.96
6333.00,0.96
6332.00,0.96
6331.00,0.96
6330.00,0.96
6329.00,0.96
6328.00,0.97
6327.00,0.97
6326.00,0.97
6325.00,0.97
6324.00,0.97
6323.00,0.97
6322.00,0.97
6321.00,0.97
6320.00,0.97
6319.00,0.97
6318.00,0.97
6317.00,0.98
6316.00,0.98
6315.00,0.98
6314.00,0.98
6313.00,0.98
6312.00,0.98
6311.00,0.99
6310.00,0.99
6309.00,0.99
6308.00,0.99
6307.00,0.99
6306.00,1.00
6305.00,1.00
6304.00,1.00
6303.00,1.00
6302.00,1.00
6301.00,1.00
6300.00,1.01
6299.00,1.01
6298.00,1.01
6297.00,1.01
6296.00,1.01
6295.00,1.01
6294.00,1.01
6293.00,1.01
6292.00,1.01
6291.00,1.01
6290.00,1.01
6289.00,1.01
6288.00,1.01
6287.00,1.01
6286.00,1.01
6285.00,1.01
6284.00,1.01
6283.00,1.01
6282.00,1.01
6281.00,1.01
6280.00,1.01
6279.00,1.01
6278.00,1.01
6277.00,1.02
6276.00,1.02
6275.00,1.02
6274.00,1.02
6273.00,1.02
6272.00,1.02
6271.00,1.03
6270.00,1.03
6269.00,1.03
6268.00,1.03
6267.00,1.03
6266.00,1.04
6265.00,1.04
6264.00,1.04
6263.00,1.04
6262.00,1.04
6261.00,1.04
6260.00,1.04
6259.00,1.05
6258.00,1.05
6257.00,1.05
6256.00,1.05
6255.00,1.05
6254.00,1.05
6253.00,1.05
6252.00,1.05
6251.00,1.05
6250.00,1.05
6249.00,1.05
6248.00,1.05
6247.00,1.06
6246.00,1.06
6245.00,1.06
6244.00,1.06
6243.00,1.06
6242.00,1.06
6241.00,1.06
6240.00,1.06
6239.00,1.06
6238.00,1.06
6237.00,1.06
6236.00,1.06
6235.00,1.06
6234.00,1.06
6233.00,1.07
6232.00,1.07
6231.00,1.07
6230.00,1.07
6229.00,1.07
6228.00,1.07
6227.00,1.07
6226.00,1.08
6225.00,1.08
6224.00,1.08
6223.00,1.08
6222.00,1.08
6221.00,1.09
6220.00,1.09
6219.00,1.09
6218.00,1.09
6217.00,1.09
6216.00,1.10
6215.00,1.10
6214.00,1.10
6213.00,1.10
6212.00,1.10
6211.00,1.10
6210.00,1.10
6209.00,1.11
6208.00,1.11
6207.00,1.11
6206.00,1.11
6205.00,1.11
6204.00,1.11
6203.00,1.12
6202.00,1.12
6201.00,1.12
6200.00,1.12
6199.00,1.12
6198.00,1.12
6197.00,1.12
6196.00,1.12
6195.00,1.13
6194.00,1.13
6193.00,1.13
6192.00,1.13
6191.00,1.13
6190.00,1.13
6189.00,1.13
6188.00,1.13
6187.00,1.13
6186.00,1.13
6185.00,1.13
6184.00,1.13
6183.00,1.13
6182.00,1.13
6181.00,1.13
6180.00,1.13
6179.00,1.13
6178.00,1.13
6177.00,1.14
6176.00,1.14
6175.00,1.14
6174.00,1.14
6173.00,1.14
6172.00,1.14
6171.00,1.14
6170.00,1.15
6169.00,1.15
6168.00,1.15
6167.00,1.15
6166.00,1.15
6165.00,1.16
6164.00,1.16
6163.00,1.16
6162.00,1.16
6161.00,1.16
6160.00,1.17
6159.00,1.17
6158.00,1.17
6157.00,1.17
6156.00,1.17
6155.00,1.17
6154.00,1.18
6153.00,1.18
6152.00,1.18
6151.00,1.18
6150.00,1.18
6149.00,1.18
6148.00,1.18
6147.00,1.19
6146.00,1.19
6145.00,1.19
6144.00,1.19
6143.00,1.19
6142.00,1.19
6141.00,1.19
6140.00,1.19
6139.00,1.20
6138.00,1.20
6137.00,1.20
6136.00,1.20
6135.00,1.20
6134.00,1.20
6133.00,1.20
6132.00,1.20
6131.00,1.21
6130.00,1.21
6129.00,1.21
6128.00,1.21
6127.00,1.21
6126.00,1.21
6125.00,1.21
6124.00,1.22
6123.00,1.22
6122.00,1.22
6121.00,1.22
6120.00,1.22
6119.00,1.22
6118.00,1.22
6117.00,1.22
6116.00,1.23
6115.00,1.23
6114.00,1.23
6113.00,1.23
6112.00,1.23
6111.00,1.23
6110.00,1.23
6109.00,1.24
6108.00,1.24
6107.00,1.24
6106.00,1.24
6105.00,1.24
6104.00,1.24
6103.00,1.25
6102.00,1.25
6101.00,1.25
6100.00,1.25
6099.00,1.25
6098.00,1.25
6097.00,1.26
6096.00,1.26
6095.00,1.26
6094.00,1.26
6093.00,1.26
6092.00,1.26
6091.00,1.26
6090.00,1.26
6089.00,1.26
6088.00,1.27
6087.00,1.27
6086.00,1.27
6085.00,1.27
6084.00,1.27
6083.00,1.27
6082.00,1.27
6081.00,1.27
6080.00,1.27
6079.00,1.28
6078.00,1.28
6077.00,1.28
6076.00,1.28
6075.00,1.28
6074.00,1.28
6073.00,1.28
6072.00,1.28
6071.00,1.28
6070.00,1.28
6069.00,1.28
6068.00,1.28
6067.00,1.29
6066.00,1.29
6065.00,1.29
6064.00,1.29
6063.00,1.29
6062.00,1.29
6061.00,1.29
6060.00,1.29
6059.00,1.29
6058.00,1.29
6057.00,1.29
6056.00,1.29
6055.00,1.30
6054.00,1.30
6053.00,1.30
6052.00,1.30
6051.00,1.30
6050.00,1.30
6049.00,1.30
6048.00,1.30
6047.00,1.30
6046.00,1.30
6045.00,1.30
6044.00,1.30
6043.00,1.31
6042.00,1.31
6041.00,1.31
6040.00,1.31
6039.00,1.31
6038.00,1.31
6037.00,1.32
6036.00,1.32
6035.00,1.32
6034.00,1.32
6033.00,1.32
6032.00,1.32
6031.00,1.33
6030.00,1.33
6029.00,1.33
6028.00,1.33
6027.00,1.33
6026.00,1.33
6025.00,1.33
6024.00,1.33
6023.00,1.33
6022.00,1.33
6021.00,1.33
6020.00,1.33
6019.00,1.33
6018.00,1.33
6017.00,1.33
6016.00,1.32
6015.00,1.32
6014.00,1.32
6013.00,1.32
6012.00,1.32
6011.00,1.32
6010.00,1.32
6009.00,1.32
6008.00,1.32
6007.00,1.32
6006.00,1.32
6005.00,1.32
6004.00,1.32
6003.00,1.32
6002.00,1.32
6001.00,1.32
6000.00,1.32
5999.00,1.32
5998.00,1.32
5997.00,1.32
5996.00,1.32
5995.00,1.32
5994.00,1.32
5993.00,1.31
5992.00,1.31
5991.00,1.31
5990.00,1.31
5989.00,1.31
5988.00,1.31
5987.00,1.30
5986.00,1.30
5985.00,1.30
5984.00,1.30
5983.00,1.29
5982.00,1.29
5981.00,1.29
5980.00,1.28
5979.00,1.28
5978.00,1.28
5977.00,1.27
5976.00,1.27
5975.00,1.26
5974.00,1.26
5973.00,1.25
5972.00,1.25
5971.00,1.24
5970.00,1.24
5969.00,1.23
5968.00,1.23
5967.00,1.22
5966.00,1.21
5965.00,1.21
5964.00,1.20
5963.00,1.20
5962.00,1.19
5961.00,1.18
5960.00,1.18
5959.00,1.17
5958.00,1.16
5957.00,1.16
5956.00,1.15
5955.00,1.15
5954.00,1.14
5953.00,1.14
5952.00,1.13
5951.00,1.13
5950.00,1.12
5949.00,1.12
5948.00,1.12
5947.00,1.11
5946.00,1.11
5945.00,1.11
5944.00,1.10
5943.00,1.10
5942.00,1.10
5941.00,1.10
5940.00,1.10
5939.00,1.09
5938.00,1.09
5937.00,1.09
5936.00,1.09
5935.00,1.09
5934.00,1.09
5933.00,1.09
5932.00,1.09
5931.00,1.08
5930.00,1.08
5929.00,1.08
5928.00,1.08
5927.00,1.08
5926.00,1.08
5925.00,1.08
5924.00,1.07
5923.00,1.07
5922.00,1.07
5921.00,1.07
5920.00,1.07
5919.00,1.07
5918.00,1.06
5917.00,1.06
5916.00,1.06
5915.00,1.06
5914.00,1.06
5913.00,1.05
5912.00,1.05
5911.00,1.05
5910.00,1.05
5909.00,1.05
5908.00,1.05
5907.00,1.05
5906.00,1.05
5905.00,1.05
5904.00,1.05
5903.00,1.05
5902.00,1.05
5901.00,1.05
5900.00,1.05
5899.00,1.05
5898.00,1.05
5897.00,1.05
5896.00,1.05
5895.00,1.05
5894.00,1.05
5893.00,1.06
5892.00,1.06
5891.00,1.06
5890.00,1.06
5889.00,1.06
5888.00,1.06
5887.00,1.07
5886.00,1.07
5885.00,1.07
5884.00,1.07
5883.00,1.08
5882.00,1.08
5881.00,1.08
5880.00,1.08
5879.00,1.08
5878.00,1.09
5877.00,1.09
5876.00,1.09
5875.00,1.09
5874.00,1.10
5873.00,1.10
5872.00,1.10
5871.00,1.10
5870.00,1.10
5869.00,1.11
5868.00,1.11
5867.00,1.11
5866.00,1.11
5865.00,1.11
5864.00,1.11
5863.00,1.11
5862.00,1.12
5861.00,1.12
5860.00,1.12
5859.00,1.12
5858.00,1.12
5857.00,1.12
5856.00,1.12
5855.00,1.12
5854.00,1.12
5853.00,1.13
5852.00,1.13
5851.00,1.13
5850.00,1.13
5849.00,1.13
5848.00,1.13
5847.00,1.13
5846.00,1.13
5845.00,1.13
5844.00,1.13
5843.00,1.13
5842.00,1.13
5841.00,1.13
5840.00,1.13
5839.00,1.13
5838.00,1.13
5837.00,1.13
5836.00,1.13
5835.00,1.13
5834.00,1.13
5833.00,1.13
5832.00,1.13
5831.00,1.13
5830.00,1.13
5829.00,1.13
5828.00,1.13
5827.00,1.13
5826.00,1.13
5825.00,1.13
5824.00,1.13
5823.00,1.13
5822.00,1.13
5821.00,1.13
5820.00,1.13
5819.00,1.13
5818.00,1.13
5817.00,1.13
5816.00,1.13
5815.00,1.13
5814.00,1.13
5813.00,1.13
5812.00,1.13
5811.00,1.13
5810.00,1.13
5809.00,1.13
5808.00,1.13
5807.00,1.13
5806.00,1.13
5805.00,1.13
5804.00,1.13
5803.00,1.13
5802.00,1.13
5801.00,1.13
5800.00,1.12
5799.00,1.12
5798.00,1.12
5797.00,1.12
5796.00,1.12
5795.00,1.12
5794.00,1.12
5793.00,1.12
5792.00,1.11
5791.00,1.11
5790.00,1.11
5789.00,1.11
5788.00,1.11
5787.00,1.11
5786.00,1.10
5785.00,1.10
5784.00,1.10
5783.00,1.10
5782.00,1.10
5781.00,1.10
5780.00,1.10
5779.00,1.09
5778.00,1.09
5777.00,1.09
5776.00,1.09
5775.00,1.09
5774.00,1.09
5773.00,1.09
5772.00,1.09
5771.00,1.09
5770.00,1.09
5769.00,1.09
5768.00,1.09
5767.00,1.09
5766.00,1.09
5765.00,1.10
5764.00,1.10
5763.00,1.10
5762.00,1.10
5761.00,1.10
5760.00,1.10
5759.00,1.11
5758.00,1.11
5757.00,1.11
5756.00,1.11
5755.00,1.11
5754.00,1.12
5753.00,1.12
5752.00,1.12
5751.00,1.13
5750.00,1.13
5749.00,1.13
5748.00,1.13
5747.00,1.14
5746.00,1.14
5745.00,1.14
5744.00,1.15
5743.00,1.15
5742.00,1.15
5741.00,1.15
5740.00,1.16
5739.00,1.16
5738.00,1.16
5737.00,1.16
5736.00,1.17
5735.00,1.17
5734.00,1.17
5733.00,1.17
5732.00,1.17
5731.00,1.18
5730.00,1.18
5729.00,1.18
5728.00,1.18
5727.00,1.18
5726.00,1.18
5725.00,1.19
5724.00,1.19
5723.00,1.19
5722.00,1.19
5721.00,1.19
5720.00,1.19
5719.00,1.19
5718.00,1.19
5717.00,1.19
5716.00,1.19
5715.00,1.19
5714.00,1.19
5713.00,1.19
5712.00,1.19
5711.00,1.19
5710.00,1.19
5709.00,1.19
5708.00,1.19
5707.00,1.19
5706.00,1.19
5705.00,1.19
5704.00,1.18
5703.00,1.18
5702.00,1.18
5701.00,1.18
5700.00,1.18
5699.00,1.18
5698.00,1.18
5697.00,1.18
5696.00,1.18
5695.00,1.17
5694.00,1.17
5693.00,1.17
5692.00,1.17
5691.00,1.17
5690.00,1.17
5689.00,1.16
5688.00,1.16
5687.00,1.16
5686.00,1.16
5685.00,1.16
5684.00,1.16
5683.00,1.16
5682.00,1.15
5681.00,1.15
5680.00,1.15
5679.00,1.15
5678.00,1.15
5677.00,1.15
5676.00,1.15
5675.00,1.15
5674.00,1.15
5673.00,1.15
5672.00,1.15
5671.00,1.15
5670.00,1.15
5669.00,1.15
5668.00,1.15
5667.00,1.15
5666.00,1.15
5665.00,1.15
5664.00,1.15
5663.00,1.15
5662.00,1.15
5661.00,1.15
5660.00,1.16
5659.00,1.16
5658.00,1.16
5657.00,1.16
5656.00,1.16
5655.00,1.16
5654.00,1.16
5653.00,1.17
5652.00,1.17
5651.00,1.17
5650.00,1.17
5649.00,1.17
5648.00,1.17
5647.00,1.18
5646.00,1.18
5645.00,1.18
5644.00,1.18
5643.00,1.18
5642.00,1.19
5641.00,1.19
5640.00,1.19
5639.00,1.19
5638.00,1.19
5637.00,1.20
5636.00,1.20
5635.00,1.20
5634.00,1.20
5633.00,1.20
5632.00,1.20
5631.00,1.20
5630.00,1.21
5629.00,1.21
5628.00,1.21
5627.00,1.21
5626.00,1.21
5625.00,1.21
5624.00,1.22
5623.00,1.22
5622.00,1.22
5621.00,1.22
5620.00,1.22
5619.00,1.22
5618.00,1.23
5617.00,1.23
5616.00,1.23
5615.00,1.23
5614.00,1.23
5613.00,1.23
5612.00,1.23
5611.00,1.24
5610.00,1.24
5609.00,1.24
5608.00,1.24
5607.00,1.24
5606.00,1.24
5605.00,1.24
5604.00,1.25
5603.00,1.25
5602.00,1.25
5601.00,1.25
5600.00,1.25
5599.00,1.25
5598.00,1.26
5597.00,1.26
5596.00,1.26
5595.00,1.26
5594.00,1.26
5593.00,1.26
5592.00,1.27
5591.00,1.27
5590.00,1.27
5589.00,1.27
5588.00,1.27
5587.00,1.27
5586.00,1.28
5585.00,1.28
5584.00,1.28
5583.00,1.28
5582.00,1.28
5581.00,1.28
5580.00,1.28
5579.00,1.28
5578.00,1.28
5577.00,1.29
5576.00,1.29
5575.00,1.29
5574.00,1.29
5573.00,1.29
5572.00,1.29
5571.00,1.29
5570.00,1.29
5569.00,1.29
5568.00,1.30
5567.00,1.30
5566.00,1.30
5565.00,1.30
5564.00,1.30
5563.00,1.30
5562.00,1.30
5561.00,1.30
5560.00,1.31
5559.00,1.31
5558.00,1.31
5557.00,1.31
5556.00,1.31
5555.00,1.31
5554.00,1.32
5553.00,1.32
5552.00,1.32
5551.00,1.32
5550.00,1.32
5549.00,1.32
5548.00,1.32
5547.00,1.33
5546.00,1.33
5545.00,1.33
5544.00,1.33
5543.00,1.33
5542.00,1.33
5541.00,1.33
5540.00,1.34
5539.00,1.34
5538.00,1.34
5537.00,1.34
5536.00,1.34
5535.00,1.34
5534.00,1.34
5533.00,1.34
5532.00,1.34
5531.00,1.35
5530.00,1.35
5529.00,1.35
5528.00,1.35
5527.00,1.35
5526.00,1.35
5525.00,1.35
5524.00,1.35
5523.00,1.35
5522.00,1.35
5521.00,1.35
5520.00,1.35
5519.00,1.35
5518.00,1.35
5517.00,1.35
5516.00,1.35
5515.00,1.35
5514.00,1.36
5513.00,1.36
5512.00,1.36
5511.00,1.36
5510.00,1.36
5509.00,1.36
5508.00,1.36
5507.00,1.36
5506.00,1.36
5505.00,1.36
5504.00,1.36
5503.00,1.36
5502.00,1.36
5501.00,1.36
5500.00,1.36
5499.00,1.36
5498.00,1.37
5497.00,1.37
5496.00,1.37
5495.00,1.37
5494.00,1.37
5493.00,1.37
5492.00,1.37
5491.00,1.37
5490.00,1.37
5489.00,1.37
5488.00,1.38
5487.00,1.38
5486.00,1.38
5485.00,1.38
5484.00,1.38
5483.00,1.38
5482.00,1.38
5481.00,1.39
5480.00,1.39
5479.00,1.39
5478.00,1.39
5477.00,1.39
5476.00,1.39
5475.00,1.39
5474.00,1.40
5473.00,1.40
5472.00,1.40
5471.00,1.40
5470.00,1.40
5469.00,1.40
5468.00,1.40
5467.00,1.40
5466.00,1.41
5465.00,1.41
5464.00,1.41
5463.00,1.41
5462.00,1.41
5461.00,1.41
5460.00,1.41
5459.00,1.41
5458.00,1.41
5457.00,1.41
5456.00,1.42
5455.00,1.42
5454.00,1.42
5453.00,1.42
5452.00,1.42
5451.00,1.42
5450.00,1.42
5449.00,1.42
5448.00,1.42
5447.00,1.42
5446.00,1.42
5445.00,1.42
5444.00,1.42
5443.00,1.42
5442.00,1.42
5441.00,1.42
5440.00,1.42
5439.00,1.42
5438.00,1.42
5437.00,1.42
5436.00,1.42
5435.00,1.42
5434.00,1.42
5433.00,1.42
5432.00,1.42
5431.00,1.42
5430.00,1.42
5429.00,1.42
5428.00,1.42
5427.00,1.42
5426.00,1.42
5425.00,1.42
5424.00,1.42
5423.00,1.42
5422.00,1.42
5421.00,1.42
5420.00,1.42
5419.00,1.42
5418.00,1.42
5417.00,1.42
5416.00,1.41
5415.00,1.41
5414.00,1.41
5413.00,1.41
5412.00,1.41
5411.00,1.41
5410.00,1.41
5409.00,1.41
5408.00,1.41
5407.00,1.41
5406.00,1.41
5405.00,1.41
5404.00,1.41
5403.00,1.41
5402.00,1.41
5401.00,1.41
5400.00,1.41
5399.00,1.41
5398.00,1.41
5397.00,1.41
5396.00,1.41
5395.00,1.41
5394.00,1.41
5393.00,1.40
5392.00,1.40
5391.00,1.40
5390.00,1.40
5389.00,1.40
5388.00,1.39
5387.00,1.39
5386.00,1.39
5385.00,1.39
5384.00,1.38
5383.00,1.38
5382.00,1.38
5381.00,1.37
5380.00,1.37
5379.00,1.36
5378.00,1.36
5377.00,1.36
5376.00,1.35
5375.00,1.35
5374.00,1.34
5373.00,1.34
5372.00,1.33
5371.00,1.33
5370.00,1.33
5369.00,1.32
5368.00,1.32
5367.00,1.31
5366.00,1.31
5365.00,1.30
5364.00,1.30
5363.00,1.29
5362.00,1.29
5361.00,1.28
5360.00,1.28
5359.00,1.27
5358.00,1.26
5357.00,1.26
5356.00,1.25
5355.00,1.24
5354.00,1.23
5353.00,1.23
5352.00,1.22
5351.00,1.21
5350.00,1.20
5349.00,1.19
5348.00,1.18
5347.00,1.17
5346.00,1.16
5345.00,1.16
5344.00,1.15
5343.00,1.14
5342.00,1.13
5341.00,1.12
5340.00,1.11
5339.00,1.11
5338.00,1.10
5337.00,1.09
5336.00,1.08
5335.00,1.08
5334.00,1.07
5333.00,1.06
5332.00,1.06
5331.00,1.05
5330.00,1.04
5329.00,1.03
5328.00,1.03
5327.00,1.02
5326.00,1.01
5325.00,1.01
5324.00,1.00
5323.00,0.99
5322.00,0.99
5321.00,0.98
5320.00,0.98
5319.00,0.97
5318.00,0.96
5317.00,0.96
5316.00,0.95
5315.00,0.95
5314.00,0.94
5313.00,0.94
5312.00,0.93
5311.00,0.93
5310.00,0.92
5309.00,0.92
5308.00,0.91
5307.00,0.91
5306.00,0.91
5305.00,0.90
5304.00,0.90
5303.00,0.90
5302.00,0.89
5301.00,0.89
5300.00,0.89
5299.00,0.89
5298.00,0.89
5297.00,0.89
5296.00,0.88
5295.00,0.88
5294.00,0.88
5293.00,0.88
5292.00,0.88
5291.00,0.88
5290.00,0.88
5289.00,0.88
5288.00,0.88
5287.00,0.88
5286.00,0.88
5285.00,0.88
5284.00,0.88
5283.00,0.88
5282.00,0.88
5281.00,0.88
5280.00,0.88
5279.00,0.88
5278.00,0.88
5277.00,0.88
5276.00,0.88
5275.00,0.88
5274.00,0.88
5273.00,0.88
5272.00,0.88
5271.00,0.88
5270.00,0.87
5269.00,0.87
5268.00,0.87
5267.00,0.87
5266.00,0.87
5265.00,0.87
5264.00,0.87
5263.00,0.87
5262.00,0.87
5261.00,0.87
5260.00,0.87
5259.00,0.87
5258.00,0.87
5257.00,0.87
5256.00,0.86
5255.00,0.86
5254.00,0.86
5253.00,0.86
5252.00,0.86
5251.00,0.86
5250.00,0.86
5249.00,0.86
5248.00,0.86
5247.00,0.86
5246.00,0.86
5245.00,0.86
5244.00,0.87
5243.00,0.87
5242.00,0.87
5241.00,0.87
5240.00,0.87
5239.00,0.87
5238.00,0.87
5237.00,0.87
5236.00,0.87
5235.00,0.87
5234.00,0.87
5233.00,0.88
5232.00,0.88
5231.00,0.88
5230.00,0.88
5229.00,0.88
5228.00,0.88
5227.00,0.88
5226.00,0.88
5225.00,0.88
5224.00,0.88
5223.00,0.88
5222.00,0.88
5221.00,0.88
5220.00,0.88
5219.00,0.88
5218.00,0.88
5217.00,0.88
5216.00,0.88
5215.00,0.88
5214.00,0.88
5213.00,0.88
5212.00,0.88
5211.00,0.88
5210.00,0.88
5209.00,0.88
5208.00,0.88
5207.00,0.88
5206.00,0.88
5205.00,0.88
5204.00,0.88
5203.00,0.88
5202.00,0.88
5201.00,0.88
5200.00,0.88
5199.00,0.88
5198.00,0.88
5197.00,0.88
5196.00,0.88
5195.00,0.88
5194.00,0.88
5193.00,0.88
5192.00,0.89
5191.00,0.89
5190.00,0.89
5189.00,0.89
5188.00,0.89
5187.00,0.89
5186.00,0.89
5185.00,0.89
5184.00,0.89
5183.00,0.89
5182.00,0.89
5181.00,0.89
5180.00,0.89
5179.00,0.90
5178.00,0.90
5177.00,0.90
5176.00,0.90
5175.00,0.90
5174.00,0.90
5173.00,0.90
5172.00,0.90
5171.00,0.90
5170.00,0.90
5169.00,0.90
5168.00,0.90
5167.00,0.90
5166.00,0.90
5165.00,0.90
5164.00,0.90
5163.00,0.90
5162.00,0.90
5161.00,0.90
5160.00,0.90
5159.00,0.90
5158.00,0.90
5157.00,0.90
5156.00,0.90
5155.00,0.90
5154.00,0.90
5153.00,0.90
5152.00,0.90
5151.00,0.90
5150.00,0.91
5149.00,0.91
5148.00,0.91
5147.00,0.91
5146.00,0.91
5145.00,0.91
5144.00,0.91
5143.00,0.91
5142.00,0.91
5141.00,0.91
5140.00,0.91
5139.00,0.91
5138.00,0.91
5137.00,0.92
5136.00,0.92
5135.00,0.92
5134.00,0.92
5133.00,0.92
5132.00,0.92
5131.00,0.92
5130.00,0.92
5129.00,0.92
5128.00,0.92
5127.00,0.92
5126.00,0.92
5125.00,0.92
5124.00,0.92
5123.00,0.92
5122.00,0.92
5121.00,0.92
5120.00,0.92
5119.00,0.92
5118.00,0.92
5117.00,0.92
5116.00,0.92
5115.00,0.92
5114.00,0.92
5113.00,0.92
5112.00,0.92
5111.00,0.92
5110.00,0.92
5109.00,0.92
5108.00,0.92
5107.00,0.92
5106.00,0.92
5105.00,0.92
5104.00,0.92
5103.00,0.92
5102.00,0.92
5101.00,0.92
5100.00,0.92
5099.00,0.92
5098.00,0.92
5097.00,0.92
5096.00,0.93
5095.00,0.93
5094.00,0.93
5093.00,0.93
5092.00,0.93
5091.00,0.93
5090.00,0.93
5089.00,0.93
5088.00,0.93
5087.00,0.93
5086.00,0.93
5085.00,0.93
5084.00,0.93
5083.00,0.94
5082.00,0.94
5081.00,0.94
5080.00,0.94
5079.00,0.94
5078.00,0.94
5077.00,0.94
5076.00,0.94
5075.00,0.94
5074.00,0.94
5073.00,0.94
5072.00,0.94
5071.00,0.94
5070.00,0.94
5069.00,0.94
5068.00,0.94
5067.00,0.94
5066.00,0.94
5065.00,0.94
5064.00,0.94
5063.00,0.94
5062.00,0.94
5061.00,0.94
5060.00,0.94
5059.00,0.94
5058.00,0.94
5057.00,0.94
5056.00,0.94
5055.00,0.95
5054.00,0.95
5053.00,0.95
5052.00,0.95
5051.00,0.95
5050.00,0.95
5049.00,0.95
5048.00,0.95
5047.00,0.95
5046.00,0.95
5045.00,0.95
5044.00,0.95
5043.00,0.95
5042.00,0.95
5041.00,0.95
5040.00,0.95
5039.00,0.95
5038.00,0.95
5037.00,0.95
5036.00,0.95
5035.00,0.95
5034.00,0.95
5033.00,0.95
5032.00,0.95
5031.00,0.96
5030.00,0.96
5029.00,0.96
5028.00,0.96
5027.00,0.96
5026.00,0.96
5025.00,0.96
5024.00,0.96
5023.00,0.96
5022.00,0.96
5021.00,0.96
5020.00,0.96
5019.00,0.96
5018.00,0.96
5017.00,0.97
5016.00,0.97
5015.00,0.97
5014.00,0.97
5013.00,0.97
5012.00,0.97
5011.00,0.97
5010.00,0.97
5009.00,0.97
5008.00,0.97
5007.00,0.97
5006.00,0.97
5005.00,0.97
5004.00,0.97
5003.00,0.97
5002.00,0.97
5001.00,0.97
5000.00,0.98
4999.00,0.98
4998.00,0.98
4997.00,0.98
4996.00,0.98
4995.00,0.98
4994.00,0.98
4993.00,0.98
4992.00,0.98
4991.00,0.98
4990.00,0.98
4989.00,0.98
4988.00,0.98
4987.00,0.98
4986.00,0.98
4985.00,0.98
4984.00,0.98
4983.00,0.98
4982.00,0.98
4981.00,0.98
4980.00,0.98
4979.00,0.98
4978.00,0.98
4977.00,0.98
4976.00,0.98
4975.00,0.98
4974.00,0.98
4973.00,0.98
4972.00,0.98
4971.00,0.98
4970.00,0.98
4969.00,0.99
4968.00,0.99
4967.00,0.99
4966.00,0.99
4965.00,0.99
4964.00,0.99
4963.00,0.99
4962.00,0.99
4961.00,0.99
4960.00,0.99
4959.00,0.99
4958.00,0.99
4957.00,0.99
4956.00,0.99
4955.00,0.99
4954.00,0.99
4953.00,0.99
4952.00,1.00
4951.00,1.00
4950.00,1.00
4949.00,1.00
4948.00,1.00
4947.00,1.00
4946.00,1.00
4945.00,1.00
4944.00,1.00
4943.00,1.00
4942.00,1.00
4941.00,1.00
4940.00,1.00
4939.00,1.00
4938.00,1.00
4937.00,1.00
4936.00,1.00
4935.00,1.00
4934.00,1.00
4933.00,1.00
4932.00,1.00
4931.00,1.00
4930.00,1.00
4929.00,1.01
4928.00,1.01
4927.00,1.01
4926.00,1.01
4925.00,1.01
4924.00,1.01
4923.00,1.01
4922.00,1.01
4921.00,1.01
4920.00,1.01
4919.00,1.01
4918.00,1.01
4917.00,1.01
4916.00,1.01
4915.00,1.02
4914.00,1.02
4913.00,1.02
4912.00,1.02
4911.00,1.02
4910.00,1.02
4909.00,1.02
4908.00,1.02
4907.00,1.02
4906.00,1.02
4905.00,1.02
4904.00,1.02
4903.00,1.03
4902.00,1.03
4901.00,1.03
4900.00,1.03
4899.00,1.03
4898.00,1.03
4897.00,1.03
4896.00,1.03
4895.00,1.03
4894.00,1.03
4893.00,1.03
4892.00,1.03
4891.00,1.03
4890.00,1.03
4889.00,1.03
4888.00,1.03
4887.00,1.03
4886.00,1.03
4885.00,1.03
4884.00,1.03
4883.00,1.03
4882.00,1.03
4881.00,1.03
4880.00,1.03
4879.00,1.03
4878.00,1.03
4877.00,1.03
4876.00,1.04
4875.00,1.04
4874.00,1.04
4873.00,1.04
4872.00,1.04
4871.00,1.04
4870.00,1.04
4869.00,1.04
4868.00,1.04
4867.00,1.04
4866.00,1.04
4865.00,1.04
4864.00,1.04
4863.00,1.04
4862.00,1.04
4861.00,1.04
4860.00,1.04
4859.00,1.04
4858.00,1.04
4857.00,1.04
4856.00,1.04
4855.00,1.04
4854.00,1.04
4853.00,1.04
4852.00,1.04
4851.00,1.04
4850.00,1.04
4849.00,1.04
4848.00,1.04
4847.00,1.04
4846.00,1.05
4845.00,1.05
4844.00,1.05
4843.00,1.05
4842.00,1.05
4841.00,1.05
4840.00,1.05
4839.00,1.05
4838.00,1.05
4837.00,1.05
4836.00,1.05
4835.00,1.05
4834.00,1.05
4833.00,1.05
4832.00,1.06
4831.00,1.06
4830.00,1.06
4829.00,1.06
4828.00,1.06
4827.00,1.06
4826.00,1.06
4825.00,1.06
4824.00,1.06
4823.00,1.06
4822.00,1.06
4821.00,1.06
4820.00,1.06
4819.00,1.07
4818.00,1.07
4817.00,1.07
4816.00,1.07
4815.00,1.07
4814.00,1.07
4813.00,1.07
4812.00,1.07
4811.00,1.07
4810.00,1.07
4809.00,1.07
4808.00,1.07
4807.00,1.07
4806.00,1.07
4805.00,1.07
4804.00,1.07
4803.00,1.07
4802.00,1.07
4801.00,1.07
4800.00,1.07
4799.00,1.07
4798.00,1.07
4797.00,1.07
4796.00,1.07
4795.00,1.07
4794.00,1.07
4793.00,1.08
4792.00,1.08
4791.00,1.08
4790.00,1.08
4789.00,1.08
4788.00,1.08
4787.00,1.08
4786.00,1.08
4785.00,1.08
4784.00,1.08
4783.00,1.08
4782.00,1.08
4781.00,1.09
4780.00,1.09
4779.00,1.09
4778.00,1.09
4777.00,1.09
4776.00,1.09
4775.00,1.09
4774.00,1.09
4773.00,1.09
4772.00,1.09
4771.00,1.09
4770.00,1.09
4769.00,1.09
4768.00,1.09
4767.00,1.09
4766.00,1.09
4765.00,1.09
4764.00,1.10
4763.00,1.10
4762.00,1.10
4761.00,1.10
4760.00,1.10
4759.00,1.10
4758.00,1.10
4757.00,1.10
4756.00,1.10
4755.00,1.10
4754.00,1.10
4753.00,1.10
4752.00,1.10
4751.00,1.11
4750.00,1.11
4749.00,1.11
4748.00,1.11
4747.00,1.11
4746.00,1.11
4745.00,1.11
4744.00,1.11
4743.00,1.11
4742.00,1.12
4741.00,1.12
4740.00,1.12
4739.00,1.12
4738.00,1.12
4737.00,1.12
4736.00,1.12
4735.00,1.12
4734.00,1.13
4733.00,1.13
4732.00,1.13
4731.00,1.13
4730.00,1.13
4729.00,1.13
4728.00,1.13
4727.00,1.13
4726.00,1.13
4725.00,1.13
4724.00,1.13
4723.00,1.14
4722.00,1.14
4721.00,1.14
4720.00,1.14
4719.00,1.14
4718.00,1.14
4717.00,1.14
4716.00,1.14
4715.00,1.14
4714.00,1.14
4713.00,1.14
4712.00,1.14
4711.00,1.14
4710.00,1.15
4709.00,1.15
4708.00,1.15
4707.00,1.15
4706.00,1.15
4705.00,1.15
4704.00,1.15
4703.00,1.15
4702.00,1.15
4701.00,1.15
4700.00,1.15
4699.00,1.15
4698.00,1.15
4697.00,1.15
4696.00,1.15
4695.00,1.16
4694.00,1.16
4693.00,1.16
4692.00,1.16
4691.00,1.16
4690.00,1.16
4689.00,1.16
4688.00,1.16
4687.00,1.16
4686.00,1.16
4685.00,1.16
4684.00,1.16
4683.00,1.16
4682.00,1.17
4681.00,1.17
4680.00,1.17
4679.00,1.17
4678.00,1.17
4677.00,1.17
4676.00,1.17
4675.00,1.18
4674.00,1.18
4673.00,1.18
4672.00,1.18
4671.00,1.18
4670.00,1.18
4669.00,1.19
4668.00,1.19
4667.00,1.19
4666.00,1.19
4665.00,1.19
4664.00,1.19
4663.00,1.19
4662.00,1.20
4661.00,1.20
4660.00,1.20
4659.00,1.20
4658.00,1.20
4657.00,1.20
4656.00,1.20
4655.00,1.20
4654.00,1.20
4653.00,1.20
4652.00,1.20
4651.00,1.20
4650.00,1.20
4649.00,1.20
4648.00,1.21
4647.00,1.21
4646.00,1.21
4645.00,1.21
4644.00,1.21
4643.00,1.21
4642.00,1.21
4641.00,1.21
4640.00,1.21
4639.00,1.21
4638.00,1.22
4637.00,1.22
4636.00,1.22
4635.00,1.22
4634.00,1.22
4633.00,1.22
4632.00,1.22
4631.00,1.22
4630.00,1.22
4629.00,1.22
4628.00,1.22
4627.00,1.23
4626.00,1.23
4625.00,1.23
4624.00,1.23
4623.00,1.23
4622.00,1.23
4621.00,1.23
4620.00,1.23
4619.00,1.23
4618.00,1.23
4617.00,1.23
4616.00,1.23
4615.00,1.23
4614.00,1.23
4613.00,1.23
4612.00,1.23
4611.00,1.23
4610.00,1.23
4609.00,1.23
4608.00,1.23
4607.00,1.23
4606.00,1.23
4605.00,1.23
4604.00,1.23
4603.00,1.23
4602.00,1.23
4601.00,1.24
4600.00,1.24
4599.00,1.24
4598.00,1.24
4597.00,1.24
4596.00,1.24
4595.00,1.24
4594.00,1.24
4593.00,1.24
4592.00,1.24
4591.00,1.24
4590.00,1.24
4589.00,1.24
4588.00,1.24
4587.00,1.24
4586.00,1.24
4585.00,1.25
4584.00,1.25
4583.00,1.25
4582.00,1.25
4581.00,1.25
4580.00,1.25
4579.00,1.25
4578.00,1.25
4577.00,1.25
4576.00,1.25
4575.00,1.25
4574.00,1.26
4573.00,1.26
4572.00,1.26
4571.00,1.26
4570.00,1.26
4569.00,1.26
4568.00,1.26
4567.00,1.26
4566.00,1.26
4565.00,1.26
4564.00,1.26
4563.00,1.26
4562.00,1.26
4561.00,1.26
4560.00,1.26
4559.00,1.26
4558.00,1.26
4557.00,1.26
4556.00,1.27
4555.00,1.27
4554.00,1.27
4553.00,1.27
4552.00,1.27
4551.00,1.27
4550.00,1.27
4549.00,1.27
4548.00,1.27
4547.00,1.27
4546.00,1.28
4545.00,1.28
4544.00,1.28
4543.00,1.28
4542.00,1.28
4541.00,1.28
4540.00,1.28
4539.00,1.28
4538.00,1.28
4537.00,1.28
4536.00,1.28
4535.00,1.28
4534.00,1.28
4533.00,1.28
4532.00,1.28
4531.00,1.28
4530.00,1.28
4529.00,1.28
4528.00,1.28
4527.00,1.28
4526.00,1.28
4525.00,1.28
4524.00,1.28
4523.00,1.28
4522.00,1.28
4521.00,1.28
4520.00,1.28
4519.00,1.28
4518.00,1.28
4517.00,1.28
4516.00,1.28
4515.00,1.28
4514.00,1.28
4513.00,1.28
4512.00,1.28
4511.00,1.28
4510.00,1.28
4509.00,1.28
4508.00,1.28
4507.00,1.28
4506.00,1.28
4505.00,1.28
4504.00,1.28
4503.00,1.28
4502.00,1.29
4501.00,1.29
4500.00,1.29
4499.00,1.29
4498.00,1.29
4497.00,1.29
4496.00,1.29
4495.00,1.29
4494.00,1.29
4493.00,1.29
4492.00,1.29
4491.00,1.29
4490.00,1.29
4489.00,1.29
4488.00,1.29
4487.00,1.29
4486.00,1.28
4485.00,1.28
4484.00,1.28
4483.00,1.28
4482.00,1.28
4481.00,1.28
4480.00,1.28
4479.00,1.28
4478.00,1.27
4477.00,1.27
4476.00,1.27
4475.00,1.27
4474.00,1.27
4473.00,1.27
4472.00,1.27
4471.00,1.26
4470.00,1.26
4469.00,1.26
4468.00,1.26
4467.00,1.26
4466.00,1.26
4465.00,1.26
4464.00,1.26
4463.00,1.25
4462.00,1.25
4461.00,1.25
4460.00,1.25
4459.00,1.25
4458.00,1.25
4457.00,1.25
4456.00,1.25
4455.00,1.24
4454.00,1.24
4453.00,1.24
4452.00,1.24
4451.00,1.24
4450.00,1.24
4449.00,1.24
4448.00,1.24
4447.00,1.23
4446.00,1.23
4445.00,1.23
4444.00,1.23
4443.00,1.23
4442.00,1.23
4441.00,1.23
4440.00,1.22
4439.00,1.22
4438.00,1.22
4437.00,1.22
4436.00,1.22
4435.00,1.22
4434.00,1.22
4433.00,1.21
4432.00,1.21
4431.00,1.21
4430.00,1.21
4429.00,1.21
4428.00,1.21
4427.00,1.21
4426.00,1.21
4425.00,1.21
4424.00,1.21
4423.00,1.21
4422.00,1.21
4421.00,1.21
4420.00,1.21
4419.00,1.21
4418.00,1.21
4417.00,1.21
4416.00,1.21
4415.00,1.21
4414.00,1.21
4413.00,1.21
4412.00,1.21
4411.00,1.21
4410.00,1.21
4409.00,1.21
4408.00,1.21
4407.00,1.21
4406.00,1.22
4405.00,1.22
4404.00,1.22
4403.00,1.22
4402.00,1.22
4401.00,1.22
4400.00,1.22
4399.00,1.22
4398.00,1.22
4397.00,1.22
4396.00,1.22
4395.00,1.22
4394.00,1.22
4393.00,1.22
4392.00,1.22
4391.00,1.22
4390.00,1.22
4389.00,1.22
4388.00,1.22
4387.00,1.22
4386.00,1.22
4385.00,1.23
4384.00,1.23
4383.00,1.23
4382.00,1.23
4381.00,1.23
4380.00,1.23
4379.00,1.23
4378.00,1.23
4377.00,1.23
4376.00,1.23
4375.00,1.24
4374.00,1.24
4373.00,1.24
4372.00,1.24
4371.00,1.24
4370.00,1.24
4369.00,1.24
4368.00,1.24
4367.00,1.24
4366.00,1.24
4365.00,1.24
4364.00,1.24
4363.00,1.24
4362.00,1.24
4361.00,1.24
4360.00,1.24
4359.00,1.24
4358.00,1.24
4357.00,1.24
4356.00,1.24
4355.00,1.24
4354.00,1.24
4353.00,1.24
4352.00,1.24
4351.00,1.24
4350.00,1.24
4349.00,1.25
4348.00,1.25
4347.00,1.25
4346.00,1.25
4345.00,1.25
4344.00,1.25
4343.00,1.25
4342.00,1.25
4341.00,1.25
4340.00,1.25
4339.00,1.25
4338.00,1.25
4337.00,1.25
4336.00,1.25
4335.00,1.25
4334.00,1.25
4333.00,1.25
4332.00,1.25
4331.00,1.25
4330.00,1.25
4329.00,1.25
4328.00,1.25
4327.00,1.25
4326.00,1.25
4325.00,1.25
4324.00,1.25
4323.00,1.25
4322.00,1.25
4321.00,1.25
4320.00,1.25
4319.00,1.25
4318.00,1.25
4317.00,1.25
4316.00,1.26
4315.00,1.26
4314.00,1.26
4313.00,1.26
4312.00,1.26
4311.00,1.26
4310.00,1.26
4309.00,1.26
4308.00,1.26
4307.00,1.26
4306.00,1.26
4305.00,1.26
4304.00,1.26
4303.00,1.26
4302.00,1.27
4301.00,1.27
4300.00,1.27
4299.00,1.27
4298.00,1.27
4297.00,1.27
4296.00,1.27
4295.00,1.27
4294.00,1.27
4293.00,1.27
4292.00,1.28
4291.00,1.28
4290.00,1.28
4289.00,1.28
4288.00,1.28
4287.00,1.29
4286.00,1.29
4285.00,1.29
4284.00,1.29
4283.00,1.29
4282.00,1.29
4281.00,1.30
4280.00,1.30
4279.00,1.30
4278.00,1.30
4277.00,1.30
4276.00,1.30
4275.00,1.30
4274.00,1.30
4273.00,1.30
4272.00,1.30
4271.00,1.30
4270.00,1.30
4269.00,1.30
4268.00,1.30
4267.00,1.30
4266.00,1.30
4265.00,1.30
4264.00,1.30
4263.00,1.30
4262.00,1.30
4261.00,1.30
4260.00,1.30
4259.00,1.30
4258.00,1.30
4257.00,1.30
4256.00,1.30
4255.00,1.30
4254.00,1.30
4253.00,1.30
4252.00,1.30
4251.00,1.30
4250.00,1.30
4249.00,1.30
4248.00,1.30
4247.00,1.30
4246.00,1.30
4245.00,1.30
4244.00,1.30
4243.00,1.30
4242.00,1.30
4241.00,1.30
4240.00,1.30
4239.00,1.30
4238.00,1.30
4237.00,1.30
4236.00,1.30
4235.00,1.30
4234.00,1.30
4233.00,1.30
4232.00,1.30
4231.00,1.30
4230.00,1.30
4229.00,1.30
4228.00,1.30
4227.00,1.30
4226.00,1.30
4225.00,1.30
4224.00,1.30
4223.00,1.30
4222.00,1.30
4221.00,1.30
4220.00,1.30
4219.00,1.30
4218.00,1.30
4217.00,1.30
4216.00,1.30
4215.00,1.30
4214.00,1.31
4213.00,1.31
4212.00,1.31
4211.00,1.31
4210.00,1.31
4209.00,1.31
4208.00,1.31
4207.00,1.32
4206.00,1.32
4205.00,1.32
4204.00,1.32
4203.00,1.32
4202.00,1.33
4201.00,1.33
4200.00,1.33
4199.00,1.33
4198.00,1.33
4197.00,1.33
4196.00,1.33
4195.00,1.34
4194.00,1.34
4193.00,1.34
4192.00,1.34
4191.00,1.34
4190.00,1.34
4189.00,1.34
4188.00,1.34
4187.00,1.34
4186.00,1.34
4185.00,1.34
4184.00,1.34
4183.00,1.34
4182.00,1.34
4181.00,1.34
4180.00,1.34
4179.00,1.34
4178.00,1.34
4177.00,1.34
4176.00,1.34
4175.00,1.34
4174.00,1.34
4173.00,1.34
4172.00,1.34
4171.00,1.34
4170.00,1.34
4169.00,1.34
4168.00,1.34
4167.00,1.34
4166.00,1.34
4165.00,1.34
4164.00,1.34
4163.00,1.34
4162.00,1.34
4161.00,1.35
4160.00,1.35
4159.00,1.35
4158.00,1.35
4157.00,1.35
4156.00,1.35
4155.00,1.35
4154.00,1.35
4153.00,1.35
4152.00,1.35
4151.00,1.36
4150.00,1.36
4149.00,1.36
4148.00,1.36
4147.00,1.36
4146.00,1.36
4145.00,1.36
4144.00,1.37
4143.00,1.37
4142.00,1.37
4141.00,1.37
4140.00,1.37
4139.00,1.37
4138.00,1.37
4137.00,1.37
4136.00,1.37
4135.00,1.37
4134.00,1.37
4133.00,1.37
4132.00,1.37
4131.00,1.37
4130.00,1.37
4129.00,1.37
4128.00,1.37
4127.00,1.37
4126.00,1.36
4125.00,1.36
4124.00,1.36
4123.00,1.36
4122.00,1.36
4121.00,1.36
4120.00,1.36
4119.00,1.36
4118.00,1.36
4117.00,1.36
4116.00,1.36
4115.00,1.36
4114.00,1.36
4113.00,1.36
4112.00,1.36
4111.00,1.36
4110.00,1.36
4109.00,1.37
4108.00,1.37
4107.00,1.37
4106.00,1.37
4105.00,1.37
4104.00,1.37
4103.00,1.37
4102.00,1.37
4101.00,1.37
4100.00,1.37
4099.00,1.37
4098.00,1.37
4097.00,1.38
4096.00,1.38
4095.00,1.38
4094.00,1.38
4093.00,1.38
4092.00,1.38
4091.00,1.38
4090.00,1.38
4089.00,1.38
4088.00,1.39
4087.00,1.39
4086.00,1.39
4085.00,1.39
4084.00,1.39
4083.00,1.39
4082.00,1.39
4081.00,1.39
4080.00,1.39
4079.00,1.39
4078.00,1.39
4077.00,1.39
4076.00,1.39
4075.00,1.39
4074.00,1.39
4073.00,1.39
4072.00,1.39
4071.00,1.39
4070.00,1.39
4069.00,1.39
4068.00,1.38
4067.00,1.38
4066.00,1.38
4065.00,1.38
4064.00,1.38
4063.00,1.38
4062.00,1.38
4061.00,1.38
4060.00,1.38
4059.00,1.38
4058.00,1.38
4057.00,1.38
4056.00,1.38
4055.00,1.38
4054.00,1.38
4053.00,1.39
4052.00,1.39
4051.00,1.39
4050.00,1.39
4049.00,1.39
4048.00,1.39
4047.00,1.39
4046.00,1.39
4045.00,1.39
4044.00,1.39
4043.00,1.40
4042.00,1.40
4041.00,1.40
4040.00,1.40
4039.00,1.40
4038.00,1.40
4037.00,1.40
4036.00,1.41
4035.00,1.41
4034.00,1.41
4033.00,1.41
4032.00,1.41
4031.00,1.41
4030.00,1.41
4029.00,1.41
4028.00,1.41
4027.00,1.41
4026.00,1.41
4025.00,1.41
4024.00,1.42
4023.00,1.42
4022.00,1.42
4021.00,1.42
4020.00,1.42
4019.00,1.42
4018.00,1.42
4017.00,1.42
4016.00,1.42
4015.00,1.42
4014.00,1.42
4013.00,1.42
4012.00,1.42
4011.00,1.42
4010.00,1.42
4009.00,1.42
4008.00,1.42
4007.00,1.42
4006.00,1.42
4005.00,1.42
4004.00,1.42
4003.00,1.42
4002.00,1.42
4001.00,1.42
4000.00,1.42
