创建为新数据集,样品 276 用户 Administrator 日期 星期日, 七月 22 2018
cm-1,%T
10000.00,1.37
9999.00,1.37
9998.00,1.37
9997.00,1.37
9996.00,1.37
9995.00,1.37
9994.00,1.37
9993.00,1.36
9992.00,1.36
9991.00,1.36
9990.00,1.36
9989.00,1.36
9988.00,1.36
9987.00,1.36
9986.00,1.37
9985.00,1.37
9984.00,1.37
9983.00,1.37
9982.00,1.37
9981.00,1.37
9980.00,1.37
9979.00,1.37
9978.00,1.37
9977.00,1.37
9976.00,1.37
9975.00,1.37
9974.00,1.37
9973.00,1.37
9972.00,1.37
9971.00,1.37
9970.00,1.37
9969.00,1.37
9968.00,1.37
9967.00,1.37
9966.00,1.37
9965.00,1.37
9964.00,1.37
9963.00,1.37
9962.00,1.37
9961.00,1.37
9960.00,1.37
9959.00,1.37
9958.00,1.37
9957.00,1.37
9956.00,1.37
9955.00,1.37
9954.00,1.37
9953.00,1.37
9952.00,1.37
9951.00,1.37
9950.00,1.37
9949.00,1.37
9948.00,1.37
9947.00,1.37
9946.00,1.37
9945.00,1.37
9944.00,1.37
9943.00,1.37
9942.00,1.37
9941.00,1.37
9940.00,1.37
9939.00,1.37
9938.00,1.37
9937.00,1.37
9936.00,1.37
9935.00,1.37
9934.00,1.37
9933.00,1.37
9932.00,1.37
9931.00,1.36
9930.00,1.36
9929.00,1.36
9928.00,1.36
9927.00,1.36
9926.00,1.36
9925.00,1.36
9924.00,1.36
9923.00,1.36
9922.00,1.36
9921.00,1.36
9920.00,1.35
9919.00,1.35
9918.00,1.35
9917.00,1.35
9916.00,1.35
9915.00,1.35
9914.00,1.35
9913.00,1.35
9912.00,1.35
9911.00,1.35
9910.00,1.35
9909.00,1.35
9908.00,1.35
9907.00,1.35
9906.00,1.35
9905.00,1.36
9904.00,1.36
9903.00,1.36
9902.00,1.36
9901.00,1.36
9900.00,1.36
9899.00,1.37
9898.00,1.37
9897.00,1.37
9896.00,1.37
9895.00,1.38
9894.00,1.38
9893.00,1.38
9892.00,1.38
9891.00,1.38
9890.00,1.39
9889.00,1.39
9888.00,1.39
9887.00,1.39
9886.00,1.38
9885.00,1.38
9884.00,1.38
9883.00,1.38
9882.00,1.37
9881.00,1.37
9880.00,1.37
9879.00,1.36
9878.00,1.36
9877.00,1.36
9876.00,1.35
9875.00,1.35
9874.00,1.35
9873.00,1.34
9872.00,1.34
9871.00,1.34
9870.00,1.34
9869.00,1.34
9868.00,1.33
9867.00,1.33
9866.00,1.33
9865.00,1.34
9864.00,1.34
9863.00,1.34
9862.00,1.34
9861.00,1.34
9860.00,1.34
9859.00,1.35
9858.00,1.35
9857.00,1.35
9856.00,1.35
9855.00,1.36
9854.00,1.36
9853.00,1.36
9852.00,1.36
9851.00,1.36
9850.00,1.36
9849.00,1.36
9848.00,1.36
9847.00,1.36
9846.00,1.36
9845.00,1.36
9844.00,1.36
9843.00,1.36
9842.00,1.36
9841.00,1.36
9840.00,1.36
9839.00,1.36
9838.00,1.36
9837.00,1.36
9836.00,1.37
9835.00,1.37
9834.00,1.37
9833.00,1.37
9832.00,1.37
9831.00,1.37
9830.00,1.37
9829.00,1.37
9828.00,1.37
9827.00,1.37
9826.00,1.37
9825.00,1.37
9824.00,1.37
9823.00,1.37
9822.00,1.37
9821.00,1.37
9820.00,1.37
9819.00,1.36
9818.00,1.36
9817.00,1.36
9816.00,1.36
9815.00,1.36
9814.00,1.36
9813.00,1.36
9812.00,1.36
9811.00,1.36
9810.00,1.36
9809.00,1.36
9808.00,1.36
9807.00,1.36
9806.00,1.36
9805.00,1.36
9804.00,1.36
9803.00,1.36
9802.00,1.36
9801.00,1.35
9800.00,1.35
9799.00,1.35
9798.00,1.35
9797.00,1.35
9796.00,1.35
9795.00,1.35
9794.00,1.35
9793.00,1.35
9792.00,1.35
9791.00,1.35
9790.00,1.35
9789.00,1.34
9788.00,1.34
9787.00,1.34
9786.00,1.34
9785.00,1.34
9784.00,1.34
9783.00,1.34
9782.00,1.33
9781.00,1.33
9780.00,1.33
9779.00,1.33
9778.00,1.33
9777.00,1.33
9776.00,1.33
9775.00,1.33
9774.00,1.33
9773.00,1.33
9772.00,1.33
9771.00,1.33
9770.00,1.33
9769.00,1.33
9768.00,1.33
9767.00,1.34
9766.00,1.34
9765.00,1.34
9764.00,1.34
9763.00,1.34
9762.00,1.34
9761.00,1.34
9760.00,1.34
9759.00,1.35
9758.00,1.35
9757.00,1.35
9756.00,1.35
9755.00,1.35
9754.00,1.35
9753.00,1.35
9752.00,1.35
9751.00,1.35
9750.00,1.35
9749.00,1.35
9748.00,1.35
9747.00,1.35
9746.00,1.36
9745.00,1.36
9744.00,1.36
9743.00,1.36
9742.00,1.36
9741.00,1.36
9740.00,1.37
9739.00,1.37
9738.00,1.37
9737.00,1.37
9736.00,1.37
9735.00,1.37
9734.00,1.37
9733.00,1.37
9732.00,1.37
9731.00,1.37
9730.00,1.36
9729.00,1.36
9728.00,1.36
9727.00,1.36
9726.00,1.36
9725.00,1.36
9724.00,1.36
9723.00,1.35
9722.00,1.35
9721.00,1.35
9720.00,1.35
9719.00,1.35
9718.00,1.35
9717.00,1.35
9716.00,1.35
9715.00,1.35
9714.00,1.35
9713.00,1.35
9712.00,1.35
9711.00,1.34
9710.00,1.34
9709.00,1.34
9708.00,1.34
9707.00,1.34
9706.00,1.34
9705.00,1.34
9704.00,1.34
9703.00,1.34
9702.00,1.34
9701.00,1.34
9700.00,1.34
9699.00,1.34
9698.00,1.34
9697.00,1.34
9696.00,1.34
9695.00,1.34
9694.00,1.34
9693.00,1.34
9692.00,1.34
9691.00,1.34
9690.00,1.34
9689.00,1.35
9688.00,1.35
9687.00,1.35
9686.00,1.35
9685.00,1.35
9684.00,1.35
9683.00,1.36
9682.00,1.36
9681.00,1.36
9680.00,1.36
9679.00,1.36
9678.00,1.36
9677.00,1.37
9676.00,1.37
9675.00,1.37
9674.00,1.37
9673.00,1.36
9672.00,1.36
9671.00,1.36
9670.00,1.36
9669.00,1.36
9668.00,1.36
9667.00,1.35
9666.00,1.35
9665.00,1.35
9664.00,1.35
9663.00,1.35
9662.00,1.34
9661.00,1.34
9660.00,1.34
9659.00,1.34
9658.00,1.34
9657.00,1.34
9656.00,1.34
9655.00,1.34
9654.00,1.34
9653.00,1.34
9652.00,1.34
9651.00,1.35
9650.00,1.35
9649.00,1.35
9648.00,1.35
9647.00,1.35
9646.00,1.35
9645.00,1.35
9644.00,1.35
9643.00,1.35
9642.00,1.35
9641.00,1.35
9640.00,1.35
9639.00,1.35
9638.00,1.35
9637.00,1.35
9636.00,1.35
9635.00,1.35
9634.00,1.34
9633.00,1.34
9632.00,1.34
9631.00,1.34
9630.00,1.34
9629.00,1.34
9628.00,1.33
9627.00,1.33
9626.00,1.33
9625.00,1.33
9624.00,1.33
9623.00,1.33
9622.00,1.33
9621.00,1.33
9620.00,1.33
9619.00,1.33
9618.00,1.33
9617.00,1.33
9616.00,1.33
9615.00,1.33
9614.00,1.33
9613.00,1.34
9612.00,1.34
9611.00,1.34
9610.00,1.34
9609.00,1.35
9608.00,1.35
9607.00,1.35
9606.00,1.36
9605.00,1.36
9604.00,1.36
9603.00,1.36
9602.00,1.36
9601.00,1.37
9600.00,1.37
9599.00,1.37
9598.00,1.37
9597.00,1.37
9596.00,1.37
9595.00,1.37
9594.00,1.37
9593.00,1.37
9592.00,1.37
9591.00,1.37
9590.00,1.37
9589.00,1.37
9588.00,1.37
9587.00,1.37
9586.00,1.37
9585.00,1.37
9584.00,1.37
9583.00,1.37
9582.00,1.37
9581.00,1.36
9580.00,1.36
9579.00,1.36
9578.00,1.36
9577.00,1.36
9576.00,1.36
9575.00,1.36
9574.00,1.36
9573.00,1.36
9572.00,1.36
9571.00,1.36
9570.00,1.36
9569.00,1.36
9568.00,1.36
9567.00,1.36
9566.00,1.36
9565.00,1.36
9564.00,1.36
9563.00,1.36
9562.00,1.36
9561.00,1.37
9560.00,1.37
9559.00,1.37
9558.00,1.37
9557.00,1.37
9556.00,1.37
9555.00,1.37
9554.00,1.37
9553.00,1.37
9552.00,1.37
9551.00,1.37
9550.00,1.37
9549.00,1.37
9548.00,1.37
9547.00,1.37
9546.00,1.37
9545.00,1.37
9544.00,1.37
9543.00,1.37
9542.00,1.37
9541.00,1.37
9540.00,1.37
9539.00,1.37
9538.00,1.37
9537.00,1.37
9536.00,1.37
9535.00,1.37
9534.00,1.37
9533.00,1.37
9532.00,1.37
9531.00,1.37
9530.00,1.37
9529.00,1.37
9528.00,1.37
9527.00,1.37
9526.00,1.37
9525.00,1.37
9524.00,1.37
9523.00,1.37
9522.00,1.37
9521.00,1.37
9520.00,1.37
9519.00,1.37
9518.00,1.37
9517.00,1.37
9516.00,1.37
9515.00,1.37
9514.00,1.37
9513.00,1.37
9512.00,1.37
9511.00,1.37
9510.00,1.37
9509.00,1.37
9508.00,1.37
9507.00,1.36
9506.00,1.36
9505.00,1.36
9504.00,1.36
9503.00,1.36
9502.00,1.36
9501.00,1.36
9500.00,1.36
9499.00,1.36
9498.00,1.37
9497.00,1.37
9496.00,1.37
9495.00,1.37
9494.00,1.37
9493.00,1.37
9492.00,1.37
9491.00,1.37
9490.00,1.37
9489.00,1.37
9488.00,1.37
9487.00,1.37
9486.00,1.37
9485.00,1.37
9484.00,1.37
9483.00,1.37
9482.00,1.36
9481.00,1.36
9480.00,1.36
9479.00,1.36
9478.00,1.35
9477.00,1.35
9476.00,1.35
9475.00,1.35
9474.00,1.35
9473.00,1.35
9472.00,1.34
9471.00,1.34
9470.00,1.34
9469.00,1.34
9468.00,1.34
9467.00,1.35
9466.00,1.35
9465.00,1.35
9464.00,1.35
9463.00,1.35
9462.00,1.35
9461.00,1.35
9460.00,1.36
9459.00,1.36
9458.00,1.36
9457.00,1.36
9456.00,1.36
9455.00,1.36
9454.00,1.36
9453.00,1.35
9452.00,1.35
9451.00,1.35
9450.00,1.35
9449.00,1.35
9448.00,1.34
9447.00,1.34
9446.00,1.34
9445.00,1.34
9444.00,1.34
9443.00,1.34
9442.00,1.33
9441.00,1.33
9440.00,1.33
9439.00,1.33
9438.00,1.33
9437.00,1.33
9436.00,1.33
9435.00,1.33
9434.00,1.33
9433.00,1.33
9432.00,1.33
9431.00,1.33
9430.00,1.33
9429.00,1.33
9428.00,1.33
9427.00,1.33
9426.00,1.33
9425.00,1.33
9424.00,1.33
9423.00,1.33
9422.00,1.33
9421.00,1.33
9420.00,1.33
9419.00,1.33
9418.00,1.34
9417.00,1.34
9416.00,1.34
9415.00,1.34
9414.00,1.34
9413.00,1.34
9412.00,1.34
9411.00,1.34
9410.00,1.34
9409.00,1.34
9408.00,1.34
9407.00,1.34
9406.00,1.34
9405.00,1.34
9404.00,1.34
9403.00,1.34
9402.00,1.34
9401.00,1.34
9400.00,1.34
9399.00,1.34
9398.00,1.34
9397.00,1.34
9396.00,1.34
9395.00,1.34
9394.00,1.34
9393.00,1.34
9392.00,1.34
9391.00,1.35
9390.00,1.35
9389.00,1.35
9388.00,1.35
9387.00,1.35
9386.00,1.35
9385.00,1.36
9384.00,1.36
9383.00,1.36
9382.00,1.36
9381.00,1.36
9380.00,1.36
9379.00,1.36
9378.00,1.36
9377.00,1.36
9376.00,1.36
9375.00,1.36
9374.00,1.35
9373.00,1.35
9372.00,1.35
9371.00,1.35
9370.00,1.35
9369.00,1.34
9368.00,1.34
9367.00,1.34
9366.00,1.34
9365.00,1.34
9364.00,1.34
9363.00,1.34
9362.00,1.34
9361.00,1.34
9360.00,1.34
9359.00,1.34
9358.00,1.34
9357.00,1.34
9356.00,1.34
9355.00,1.34
9354.00,1.34
9353.00,1.34
9352.00,1.34
9351.00,1.34
9350.00,1.34
9349.00,1.34
9348.00,1.34
9347.00,1.34
9346.00,1.34
9345.00,1.34
9344.00,1.34
9343.00,1.34
9342.00,1.34
9341.00,1.35
9340.00,1.35
9339.00,1.35
9338.00,1.35
9337.00,1.35
9336.00,1.35
9335.00,1.35
9334.00,1.35
9333.00,1.35
9332.00,1.35
9331.00,1.36
9330.00,1.36
9329.00,1.36
9328.00,1.36
9327.00,1.36
9326.00,1.36
9325.00,1.36
9324.00,1.37
9323.00,1.37
9322.00,1.37
9321.00,1.37
9320.00,1.37
9319.00,1.37
9318.00,1.37
9317.00,1.37
9316.00,1.36
9315.00,1.36
9314.00,1.36
9313.00,1.36
9312.00,1.36
9311.00,1.36
9310.00,1.36
9309.00,1.36
9308.00,1.36
9307.00,1.36
9306.00,1.36
9305.00,1.36
9304.00,1.36
9303.00,1.36
9302.00,1.36
9301.00,1.36
9300.00,1.36
9299.00,1.35
9298.00,1.35
9297.00,1.35
9296.00,1.35
9295.00,1.35
9294.00,1.34
9293.00,1.34
9292.00,1.34
9291.00,1.34
9290.00,1.33
9289.00,1.33
9288.00,1.33
9287.00,1.33
9286.00,1.33
9285.00,1.33
9284.00,1.33
9283.00,1.33
9282.00,1.33
9281.00,1.33
9280.00,1.33
9279.00,1.33
9278.00,1.33
9277.00,1.34
9276.00,1.34
9275.00,1.34
9274.00,1.34
9273.00,1.35
9272.00,1.35
9271.00,1.35
9270.00,1.35
9269.00,1.36
9268.00,1.36
9267.00,1.36
9266.00,1.36
9265.00,1.36
9264.00,1.36
9263.00,1.36
9262.00,1.36
9261.00,1.36
9260.00,1.36
9259.00,1.36
9258.00,1.36
9257.00,1.36
9256.00,1.36
9255.00,1.36
9254.00,1.36
9253.00,1.36
9252.00,1.36
9251.00,1.36
9250.00,1.36
9249.00,1.36
9248.00,1.36
9247.00,1.36
9246.00,1.36
9245.00,1.36
9244.00,1.36
9243.00,1.36
9242.00,1.36
9241.00,1.36
9240.00,1.36
9239.00,1.36
9238.00,1.36
9237.00,1.36
9236.00,1.35
9235.00,1.35
9234.00,1.35
9233.00,1.35
9232.00,1.35
9231.00,1.35
9230.00,1.35
9229.00,1.35
9228.00,1.35
9227.00,1.35
9226.00,1.35
9225.00,1.35
9224.00,1.35
9223.00,1.35
9222.00,1.35
9221.00,1.35
9220.00,1.35
9219.00,1.35
9218.00,1.35
9217.00,1.35
9216.00,1.35
9215.00,1.35
9214.00,1.35
9213.00,1.35
9212.00,1.35
9211.00,1.35
9210.00,1.35
9209.00,1.35
9208.00,1.35
9207.00,1.35
9206.00,1.35
9205.00,1.35
9204.00,1.35
9203.00,1.35
9202.00,1.35
9201.00,1.35
9200.00,1.36
9199.00,1.36
9198.00,1.36
9197.00,1.36
9196.00,1.36
9195.00,1.36
9194.00,1.36
9193.00,1.36
9192.00,1.36
9191.00,1.36
9190.00,1.36
9189.00,1.36
9188.00,1.36
9187.00,1.36
9186.00,1.36
9185.00,1.36
9184.00,1.36
9183.00,1.36
9182.00,1.36
9181.00,1.35
9180.00,1.35
9179.00,1.35
9178.00,1.35
9177.00,1.35
9176.00,1.35
9175.00,1.35
9174.00,1.35
9173.00,1.35
9172.00,1.35
9171.00,1.35
9170.00,1.35
9169.00,1.35
9168.00,1.36
9167.00,1.36
9166.00,1.36
9165.00,1.36
9164.00,1.36
9163.00,1.36
9162.00,1.37
9161.00,1.37
9160.00,1.37
9159.00,1.37
9158.00,1.37
9157.00,1.37
9156.00,1.37
9155.00,1.37
9154.00,1.37
9153.00,1.37
9152.00,1.37
9151.00,1.37
9150.00,1.37
9149.00,1.37
9148.00,1.37
9147.00,1.37
9146.00,1.36
9145.00,1.36
9144.00,1.36
9143.00,1.36
9142.00,1.36
9141.00,1.36
9140.00,1.36
9139.00,1.35
9138.00,1.35
9137.00,1.35
9136.00,1.35
9135.00,1.35
9134.00,1.34
9133.00,1.34
9132.00,1.34
9131.00,1.34
9130.00,1.34
9129.00,1.34
9128.00,1.34
9127.00,1.34
9126.00,1.34
9125.00,1.34
9124.00,1.34
9123.00,1.34
9122.00,1.34
9121.00,1.34
9120.00,1.34
9119.00,1.34
9118.00,1.35
9117.00,1.35
9116.00,1.35
9115.00,1.35
9114.00,1.35
9113.00,1.35
9112.00,1.35
9111.00,1.35
9110.00,1.35
9109.00,1.35
9108.00,1.35
9107.00,1.35
9106.00,1.35
9105.00,1.35
9104.00,1.34
9103.00,1.34
9102.00,1.34
9101.00,1.34
9100.00,1.34
9099.00,1.34
9098.00,1.34
9097.00,1.33
9096.00,1.33
9095.00,1.33
9094.00,1.33
9093.00,1.33
9092.00,1.33
9091.00,1.33
9090.00,1.33
9089.00,1.33
9088.00,1.33
9087.00,1.33
9086.00,1.33
9085.00,1.33
9084.00,1.33
9083.00,1.33
9082.00,1.33
9081.00,1.33
9080.00,1.33
9079.00,1.33
9078.00,1.33
9077.00,1.33
9076.00,1.33
9075.00,1.33
9074.00,1.33
9073.00,1.33
9072.00,1.33
9071.00,1.33
9070.00,1.33
9069.00,1.33
9068.00,1.34
9067.00,1.34
9066.00,1.34
9065.00,1.34
9064.00,1.34
9063.00,1.34
9062.00,1.34
9061.00,1.34
9060.00,1.34
9059.00,1.34
9058.00,1.34
9057.00,1.34
9056.00,1.34
9055.00,1.34
9054.00,1.34
9053.00,1.35
9052.00,1.35
9051.00,1.35
9050.00,1.35
9049.00,1.35
9048.00,1.35
9047.00,1.35
9046.00,1.35
9045.00,1.35
9044.00,1.35
9043.00,1.35
9042.00,1.36
9041.00,1.36
9040.00,1.36
9039.00,1.36
9038.00,1.36
9037.00,1.36
9036.00,1.36
9035.00,1.37
9034.00,1.37
9033.00,1.37
9032.00,1.37
9031.00,1.37
9030.00,1.37
9029.00,1.37
9028.00,1.37
9027.00,1.37
9026.00,1.37
9025.00,1.37
9024.00,1.37
9023.00,1.37
9022.00,1.37
9021.00,1.37
9020.00,1.37
9019.00,1.37
9018.00,1.36
9017.00,1.36
9016.00,1.36
9015.00,1.36
9014.00,1.36
9013.00,1.36
9012.00,1.36
9011.00,1.36
9010.00,1.35
9009.00,1.35
9008.00,1.35
9007.00,1.35
9006.00,1.35
9005.00,1.35
9004.00,1.35
9003.00,1.35
9002.00,1.35
9001.00,1.35
9000.00,1.35
8999.00,1.35
8998.00,1.35
8997.00,1.35
8996.00,1.35
8995.00,1.35
8994.00,1.35
8993.00,1.35
8992.00,1.35
8991.00,1.35
8990.00,1.35
8989.00,1.35
8988.00,1.35
8987.00,1.35
8986.00,1.35
8985.00,1.35
8984.00,1.35
8983.00,1.35
8982.00,1.35
8981.00,1.35
8980.00,1.35
8979.00,1.35
8978.00,1.35
8977.00,1.35
8976.00,1.35
8975.00,1.36
8974.00,1.36
8973.00,1.36
8972.00,1.36
8971.00,1.36
8970.00,1.36
8969.00,1.36
8968.00,1.36
8967.00,1.36
8966.00,1.36
8965.00,1.36
8964.00,1.36
8963.00,1.36
8962.00,1.36
8961.00,1.36
8960.00,1.36
8959.00,1.36
8958.00,1.36
8957.00,1.36
8956.00,1.36
8955.00,1.36
8954.00,1.36
8953.00,1.36
8952.00,1.36
8951.00,1.36
8950.00,1.36
8949.00,1.36
8948.00,1.36
8947.00,1.36
8946.00,1.36
8945.00,1.36
8944.00,1.36
8943.00,1.36
8942.00,1.36
8941.00,1.36
8940.00,1.36
8939.00,1.36
8938.00,1.36
8937.00,1.36
8936.00,1.36
8935.00,1.36
8934.00,1.36
8933.00,1.36
8932.00,1.36
8931.00,1.36
8930.00,1.36
8929.00,1.36
8928.00,1.36
8927.00,1.36
8926.00,1.36
8925.00,1.36
8924.00,1.36
8923.00,1.36
8922.00,1.36
8921.00,1.36
8920.00,1.36
8919.00,1.36
8918.00,1.36
8917.00,1.37
8916.00,1.37
8915.00,1.37
8914.00,1.37
8913.00,1.37
8912.00,1.37
8911.00,1.37
8910.00,1.37
8909.00,1.37
8908.00,1.37
8907.00,1.37
8906.00,1.37
8905.00,1.37
8904.00,1.36
8903.00,1.36
8902.00,1.36
8901.00,1.36
8900.00,1.36
8899.00,1.36
8898.00,1.36
8897.00,1.36
8896.00,1.36
8895.00,1.35
8894.00,1.35
8893.00,1.35
8892.00,1.35
8891.00,1.35
8890.00,1.35
8889.00,1.35
8888.00,1.35
8887.00,1.35
8886.00,1.35
8885.00,1.35
8884.00,1.35
8883.00,1.35
8882.00,1.35
8881.00,1.35
8880.00,1.35
8879.00,1.35
8878.00,1.35
8877.00,1.35
8876.00,1.35
8875.00,1.35
8874.00,1.35
8873.00,1.35
8872.00,1.35
8871.00,1.35
8870.00,1.35
8869.00,1.35
8868.00,1.35
8867.00,1.35
8866.00,1.35
8865.00,1.35
8864.00,1.35
8863.00,1.35
8862.00,1.35
8861.00,1.35
8860.00,1.35
8859.00,1.35
8858.00,1.35
8857.00,1.35
8856.00,1.35
8855.00,1.35
8854.00,1.35
8853.00,1.35
8852.00,1.35
8851.00,1.35
8850.00,1.35
8849.00,1.35
8848.00,1.35
8847.00,1.35
8846.00,1.35
8845.00,1.35
8844.00,1.35
8843.00,1.35
8842.00,1.34
8841.00,1.34
8840.00,1.34
8839.00,1.34
8838.00,1.34
8837.00,1.34
8836.00,1.34
8835.00,1.34
8834.00,1.34
8833.00,1.34
8832.00,1.33
8831.00,1.33
8830.00,1.33
8829.00,1.33
8828.00,1.33
8827.00,1.33
8826.00,1.33
8825.00,1.33
8824.00,1.33
8823.00,1.33
8822.00,1.33
8821.00,1.33
8820.00,1.33
8819.00,1.34
8818.00,1.34
8817.00,1.34
8816.00,1.34
8815.00,1.34
8814.00,1.33
8813.00,1.33
8812.00,1.33
8811.00,1.33
8810.00,1.33
8809.00,1.33
8808.00,1.33
8807.00,1.33
8806.00,1.33
8805.00,1.33
8804.00,1.33
8803.00,1.33
8802.00,1.33
8801.00,1.33
8800.00,1.33
8799.00,1.33
8798.00,1.33
8797.00,1.33
8796.00,1.33
8795.00,1.33
8794.00,1.33
8793.00,1.33
8792.00,1.33
8791.00,1.33
8790.00,1.33
8789.00,1.33
8788.00,1.33
8787.00,1.33
8786.00,1.33
8785.00,1.33
8784.00,1.33
8783.00,1.33
8782.00,1.33
8781.00,1.33
8780.00,1.33
8779.00,1.33
8778.00,1.33
8777.00,1.33
8776.00,1.33
8775.00,1.33
8774.00,1.33
8773.00,1.33
8772.00,1.33
8771.00,1.33
8770.00,1.33
8769.00,1.33
8768.00,1.33
8767.00,1.33
8766.00,1.33
8765.00,1.33
8764.00,1.33
8763.00,1.32
8762.00,1.32
8761.00,1.32
8760.00,1.32
8759.00,1.32
8758.00,1.32
8757.00,1.32
8756.00,1.32
8755.00,1.32
8754.00,1.32
8753.00,1.31
8752.00,1.31
8751.00,1.31
8750.00,1.31
8749.00,1.31
8748.00,1.31
8747.00,1.31
8746.00,1.31
8745.00,1.31
8744.00,1.31
8743.00,1.31
8742.00,1.31
8741.00,1.31
8740.00,1.31
8739.00,1.31
8738.00,1.31
8737.00,1.31
8736.00,1.31
8735.00,1.31
8734.00,1.31
8733.00,1.31
8732.00,1.31
8731.00,1.31
8730.00,1.31
8729.00,1.31
8728.00,1.31
8727.00,1.31
8726.00,1.31
8725.00,1.30
8724.00,1.30
8723.00,1.30
8722.00,1.30
8721.00,1.30
8720.00,1.30
8719.00,1.30
8718.00,1.30
8717.00,1.29
8716.00,1.29
8715.00,1.29
8714.00,1.29
8713.00,1.29
8712.00,1.29
8711.00,1.29
8710.00,1.29
8709.00,1.29
8708.00,1.29
8707.00,1.28
8706.00,1.28
8705.00,1.28
8704.00,1.28
8703.00,1.28
8702.00,1.28
8701.00,1.29
8700.00,1.29
8699.00,1.29
8698.00,1.29
8697.00,1.29
8696.00,1.29
8695.00,1.29
8694.00,1.29
8693.00,1.29
8692.00,1.29
8691.00,1.29
8690.00,1.29
8689.00,1.29
8688.00,1.29
8687.00,1.29
8686.00,1.29
8685.00,1.29
8684.00,1.29
8683.00,1.29
8682.00,1.29
8681.00,1.29
8680.00,1.29
8679.00,1.29
8678.00,1.29
8677.00,1.29
8676.00,1.29
8675.00,1.29
8674.00,1.29
8673.00,1.29
8672.00,1.29
8671.00,1.29
8670.00,1.29
8669.00,1.29
8668.00,1.29
8667.00,1.29
8666.00,1.29
8665.00,1.29
8664.00,1.29
8663.00,1.29
8662.00,1.29
8661.00,1.29
8660.00,1.29
8659.00,1.29
8658.00,1.29
8657.00,1.29
8656.00,1.29
8655.00,1.29
8654.00,1.29
8653.00,1.29
8652.00,1.29
8651.00,1.29
8650.00,1.29
8649.00,1.29
8648.00,1.28
8647.00,1.28
8646.00,1.28
8645.00,1.28
8644.00,1.28
8643.00,1.28
8642.00,1.28
8641.00,1.27
8640.00,1.27
8639.00,1.27
8638.00,1.27
8637.00,1.27
8636.00,1.27
8635.00,1.27
8634.00,1.27
8633.00,1.27
8632.00,1.27
8631.00,1.27
8630.00,1.27
8629.00,1.27
8628.00,1.27
8627.00,1.27
8626.00,1.27
8625.00,1.27
8624.00,1.27
8623.00,1.27
8622.00,1.27
8621.00,1.27
8620.00,1.27
8619.00,1.27
8618.00,1.27
8617.00,1.27
8616.00,1.27
8615.00,1.27
8614.00,1.27
8613.00,1.27
8612.00,1.27
8611.00,1.27
8610.00,1.27
8609.00,1.27
8608.00,1.27
8607.00,1.27
8606.00,1.27
8605.00,1.27
8604.00,1.27
8603.00,1.27
8602.00,1.27
8601.00,1.27
8600.00,1.27
8599.00,1.27
8598.00,1.27
8597.00,1.27
8596.00,1.27
8595.00,1.27
8594.00,1.27
8593.00,1.27
8592.00,1.27
8591.00,1.27
8590.00,1.27
8589.00,1.27
8588.00,1.27
8587.00,1.27
8586.00,1.27
8585.00,1.27
8584.00,1.26
8583.00,1.26
8582.00,1.26
8581.00,1.26
8580.00,1.26
8579.00,1.26
8578.00,1.26
8577.00,1.26
8576.00,1.26
8575.00,1.26
8574.00,1.25
8573.00,1.25
8572.00,1.25
8571.00,1.25
8570.00,1.25
8569.00,1.25
8568.00,1.25
8567.00,1.25
8566.00,1.25
8565.00,1.25
8564.00,1.25
8563.00,1.25
8562.00,1.25
8561.00,1.26
8560.00,1.26
8559.00,1.26
8558.00,1.26
8557.00,1.26
8556.00,1.26
8555.00,1.26
8554.00,1.26
8553.00,1.26
8552.00,1.26
8551.00,1.26
8550.00,1.26
8549.00,1.26
8548.00,1.26
8547.00,1.26
8546.00,1.26
8545.00,1.26
8544.00,1.26
8543.00,1.25
8542.00,1.25
8541.00,1.25
8540.00,1.25
8539.00,1.25
8538.00,1.25
8537.00,1.25
8536.00,1.25
8535.00,1.25
8534.00,1.24
8533.00,1.24
8532.00,1.24
8531.00,1.24
8530.00,1.24
8529.00,1.25
8528.00,1.25
8527.00,1.25
8526.00,1.25
8525.00,1.25
8524.00,1.25
8523.00,1.25
8522.00,1.25
8521.00,1.25
8520.00,1.25
8519.00,1.25
8518.00,1.25
8517.00,1.25
8516.00,1.25
8515.00,1.25
8514.00,1.25
8513.00,1.25
8512.00,1.25
8511.00,1.24
8510.00,1.24
8509.00,1.24
8508.00,1.24
8507.00,1.24
8506.00,1.23
8505.00,1.23
8504.00,1.23
8503.00,1.23
8502.00,1.23
8501.00,1.22
8500.00,1.22
8499.00,1.22
8498.00,1.22
8497.00,1.22
8496.00,1.22
8495.00,1.22
8494.00,1.22
8493.00,1.22
8492.00,1.22
8491.00,1.22
8490.00,1.22
8489.00,1.22
8488.00,1.22
8487.00,1.23
8486.00,1.23
8485.00,1.23
8484.00,1.23
8483.00,1.23
8482.00,1.23
8481.00,1.23
8480.00,1.23
8479.00,1.23
8478.00,1.23
8477.00,1.23
8476.00,1.23
8475.00,1.23
8474.00,1.23
8473.00,1.23
8472.00,1.23
8471.00,1.23
8470.00,1.23
8469.00,1.23
8468.00,1.23
8467.00,1.23
8466.00,1.23
8465.00,1.23
8464.00,1.23
8463.00,1.23
8462.00,1.23
8461.00,1.23
8460.00,1.22
8459.00,1.22
8458.00,1.22
8457.00,1.22
8456.00,1.22
8455.00,1.22
8454.00,1.21
8453.00,1.21
8452.00,1.21
8451.00,1.21
8450.00,1.21
8449.00,1.20
8448.00,1.20
8447.00,1.20
8446.00,1.20
8445.00,1.20
8444.00,1.20
8443.00,1.20
8442.00,1.20
8441.00,1.20
8440.00,1.20
8439.00,1.20
8438.00,1.20
8437.00,1.20
8436.00,1.20
8435.00,1.20
8434.00,1.20
8433.00,1.20
8432.00,1.20
8431.00,1.20
8430.00,1.20
8429.00,1.20
8428.00,1.20
8427.00,1.20
8426.00,1.20
8425.00,1.21
8424.00,1.21
8423.00,1.21
8422.00,1.21
8421.00,1.21
8420.00,1.21
8419.00,1.21
8418.00,1.22
8417.00,1.22
8416.00,1.22
8415.00,1.22
8414.00,1.22
8413.00,1.22
8412.00,1.22
8411.00,1.22
8410.00,1.22
8409.00,1.22
8408.00,1.22
8407.00,1.22
8406.00,1.22
8405.00,1.22
8404.00,1.22
8403.00,1.22
8402.00,1.22
8401.00,1.22
8400.00,1.22
8399.00,1.22
8398.00,1.22
8397.00,1.23
8396.00,1.23
8395.00,1.23
8394.00,1.23
8393.00,1.23
8392.00,1.23
8391.00,1.23
8390.00,1.23
8389.00,1.23
8388.00,1.24
8387.00,1.24
8386.00,1.24
8385.00,1.24
8384.00,1.24
8383.00,1.24
8382.00,1.24
8381.00,1.24
8380.00,1.24
8379.00,1.24
8378.00,1.24
8377.00,1.24
8376.00,1.24
8375.00,1.24
8374.00,1.24
8373.00,1.24
8372.00,1.24
8371.00,1.24
8370.00,1.24
8369.00,1.24
8368.00,1.24
8367.00,1.24
8366.00,1.24
8365.00,1.24
8364.00,1.24
8363.00,1.23
8362.00,1.23
8361.00,1.24
8360.00,1.24
8359.00,1.24
8358.00,1.24
8357.00,1.24
8356.00,1.24
8355.00,1.24
8354.00,1.24
8353.00,1.24
8352.00,1.24
8351.00,1.24
8350.00,1.24
8349.00,1.24
8348.00,1.24
8347.00,1.24
8346.00,1.24
8345.00,1.24
8344.00,1.24
8343.00,1.24
8342.00,1.24
8341.00,1.24
8340.00,1.24
8339.00,1.24
8338.00,1.24
8337.00,1.24
8336.00,1.24
8335.00,1.24
8334.00,1.24
8333.00,1.24
8332.00,1.24
8331.00,1.24
8330.00,1.24
8329.00,1.24
8328.00,1.24
8327.00,1.24
8326.00,1.24
8325.00,1.24
8324.00,1.24
8323.00,1.24
8322.00,1.24
8321.00,1.24
8320.00,1.24
8319.00,1.24
8318.00,1.25
8317.00,1.25
8316.00,1.25
8315.00,1.25
8314.00,1.25
8313.00,1.25
8312.00,1.25
8311.00,1.25
8310.00,1.25
8309.00,1.25
8308.00,1.25
8307.00,1.25
8306.00,1.25
8305.00,1.26
8304.00,1.26
8303.00,1.26
8302.00,1.26
8301.00,1.26
8300.00,1.26
8299.00,1.26
8298.00,1.26
8297.00,1.26
8296.00,1.26
8295.00,1.26
8294.00,1.26
8293.00,1.26
8292.00,1.26
8291.00,1.26
8290.00,1.25
8289.00,1.25
8288.00,1.25
8287.00,1.25
8286.00,1.25
8285.00,1.25
8284.00,1.25
8283.00,1.25
8282.00,1.25
8281.00,1.25
8280.00,1.25
8279.00,1.25
8278.00,1.25
8277.00,1.25
8276.00,1.25
8275.00,1.25
8274.00,1.25
8273.00,1.25
8272.00,1.25
8271.00,1.25
8270.00,1.25
8269.00,1.26
8268.00,1.26
8267.00,1.26
8266.00,1.26
8265.00,1.26
8264.00,1.26
8263.00,1.26
8262.00,1.26
8261.00,1.26
8260.00,1.26
8259.00,1.26
8258.00,1.27
8257.00,1.27
8256.00,1.27
8255.00,1.27
8254.00,1.27
8253.00,1.27
8252.00,1.27
8251.00,1.27
8250.00,1.27
8249.00,1.27
8248.00,1.27
8247.00,1.27
8246.00,1.27
8245.00,1.27
8244.00,1.27
8243.00,1.27
8242.00,1.27
8241.00,1.28
8240.00,1.28
8239.00,1.28
8238.00,1.28
8237.00,1.28
8236.00,1.28
8235.00,1.28
8234.00,1.27
8233.00,1.27
8232.00,1.27
8231.00,1.27
8230.00,1.27
8229.00,1.27
8228.00,1.27
8227.00,1.27
8226.00,1.27
8225.00,1.27
8224.00,1.27
8223.00,1.27
8222.00,1.27
8221.00,1.27
8220.00,1.27
8219.00,1.27
8218.00,1.27
8217.00,1.28
8216.00,1.28
8215.00,1.28
8214.00,1.28
8213.00,1.28
8212.00,1.28
8211.00,1.28
8210.00,1.28
8209.00,1.28
8208.00,1.28
8207.00,1.28
8206.00,1.28
8205.00,1.28
8204.00,1.28
8203.00,1.28
8202.00,1.28
8201.00,1.28
8200.00,1.28
8199.00,1.28
8198.00,1.28
8197.00,1.28
8196.00,1.28
8195.00,1.28
8194.00,1.28
8193.00,1.28
8192.00,1.28
8191.00,1.27
8190.00,1.27
8189.00,1.27
8188.00,1.27
8187.00,1.27
8186.00,1.27
8185.00,1.27
8184.00,1.27
8183.00,1.27
8182.00,1.27
8181.00,1.27
8180.00,1.27
8179.00,1.27
8178.00,1.27
8177.00,1.27
8176.00,1.27
8175.00,1.27
8174.00,1.27
8173.00,1.27
8172.00,1.27
8171.00,1.27
8170.00,1.27
8169.00,1.27
8168.00,1.27
8167.00,1.27
8166.00,1.27
8165.00,1.27
8164.00,1.27
8163.00,1.27
8162.00,1.27
8161.00,1.28
8160.00,1.28
8159.00,1.28
8158.00,1.28
8157.00,1.29
8156.00,1.29
8155.00,1.29
8154.00,1.29
8153.00,1.30
8152.00,1.30
8151.00,1.30
8150.00,1.30
8149.00,1.30
8148.00,1.31
8147.00,1.31
8146.00,1.31
8145.00,1.31
8144.00,1.31
8143.00,1.31
8142.00,1.31
8141.00,1.31
8140.00,1.31
8139.00,1.31
8138.00,1.31
8137.00,1.31
8136.00,1.31
8135.00,1.31
8134.00,1.31
8133.00,1.31
8132.00,1.31
8131.00,1.31
8130.00,1.30
8129.00,1.30
8128.00,1.30
8127.00,1.30
8126.00,1.30
8125.00,1.31
8124.00,1.31
8123.00,1.31
8122.00,1.31
8121.00,1.31
8120.00,1.31
8119.00,1.31
8118.00,1.31
8117.00,1.31
8116.00,1.31
8115.00,1.31
8114.00,1.31
8113.00,1.31
8112.00,1.31
8111.00,1.31
8110.00,1.31
8109.00,1.31
8108.00,1.31
8107.00,1.30
8106.00,1.30
8105.00,1.30
8104.00,1.30
8103.00,1.30
8102.00,1.30
8101.00,1.30
8100.00,1.30
8099.00,1.30
8098.00,1.30
8097.00,1.30
8096.00,1.30
8095.00,1.30
8094.00,1.30
8093.00,1.30
8092.00,1.31
8091.00,1.31
8090.00,1.31
8089.00,1.31
8088.00,1.31
8087.00,1.31
8086.00,1.31
8085.00,1.31
8084.00,1.31
8083.00,1.31
8082.00,1.31
8081.00,1.31
8080.00,1.31
8079.00,1.31
8078.00,1.31
8077.00,1.31
8076.00,1.31
8075.00,1.31
8074.00,1.31
8073.00,1.31
8072.00,1.31
8071.00,1.31
8070.00,1.31
8069.00,1.31
8068.00,1.31
8067.00,1.31
8066.00,1.31
8065.00,1.31
8064.00,1.31
8063.00,1.31
8062.00,1.31
8061.00,1.31
8060.00,1.31
8059.00,1.31
8058.00,1.31
8057.00,1.32
8056.00,1.32
8055.00,1.32
8054.00,1.32
8053.00,1.32
8052.00,1.32
8051.00,1.32
8050.00,1.32
8049.00,1.32
8048.00,1.32
8047.00,1.32
8046.00,1.32
8045.00,1.32
8044.00,1.32
8043.00,1.32
8042.00,1.32
8041.00,1.32
8040.00,1.32
8039.00,1.32
8038.00,1.32
8037.00,1.32
8036.00,1.32
8035.00,1.32
8034.00,1.32
8033.00,1.32
8032.00,1.32
8031.00,1.32
8030.00,1.32
8029.00,1.32
8028.00,1.32
8027.00,1.32
8026.00,1.32
8025.00,1.32
8024.00,1.32
8023.00,1.32
8022.00,1.32
8021.00,1.32
8020.00,1.32
8019.00,1.32
8018.00,1.32
8017.00,1.32
8016.00,1.32
8015.00,1.32
8014.00,1.32
8013.00,1.32
8012.00,1.32
8011.00,1.32
8010.00,1.32
8009.00,1.32
8008.00,1.32
8007.00,1.32
8006.00,1.32
8005.00,1.32
8004.00,1.32
8003.00,1.32
8002.00,1.32
8001.00,1.32
8000.00,1.32
7999.00,1.32
7998.00,1.32
7997.00,1.32
7996.00,1.32
7995.00,1.32
7994.00,1.32
7993.00,1.32
7992.00,1.32
7991.00,1.32
7990.00,1.32
7989.00,1.33
7988.00,1.33
7987.00,1.33
7986.00,1.33
7985.00,1.33
7984.00,1.33
7983.00,1.33
7982.00,1.33
7981.00,1.33
7980.00,1.33
7979.00,1.34
7978.00,1.34
7977.00,1.34
7976.00,1.34
7975.00,1.34
7974.00,1.34
7973.00,1.34
7972.00,1.34
7971.00,1.34
7970.00,1.34
7969.00,1.34
7968.00,1.34
7967.00,1.34
7966.00,1.34
7965.00,1.34
7964.00,1.34
7963.00,1.34
7962.00,1.34
7961.00,1.34
7960.00,1.34
7959.00,1.34
7958.00,1.34
7957.00,1.34
7956.00,1.34
7955.00,1.34
7954.00,1.34
7953.00,1.34
7952.00,1.34
7951.00,1.34
7950.00,1.34
7949.00,1.34
7948.00,1.34
7947.00,1.34
7946.00,1.34
7945.00,1.34
7944.00,1.34
7943.00,1.34
7942.00,1.34
7941.00,1.34
7940.00,1.34
7939.00,1.34
7938.00,1.34
7937.00,1.34
7936.00,1.34
7935.00,1.34
7934.00,1.34
7933.00,1.34
7932.00,1.34
7931.00,1.34
7930.00,1.34
7929.00,1.35
7928.00,1.35
7927.00,1.35
7926.00,1.35
7925.00,1.35
7924.00,1.35
7923.00,1.35
7922.00,1.35
7921.00,1.35
7920.00,1.35
7919.00,1.35
7918.00,1.35
7917.00,1.35
7916.00,1.35
7915.00,1.35
7914.00,1.35
7913.00,1.35
7912.00,1.35
7911.00,1.35
7910.00,1.34
7909.00,1.34
7908.00,1.34
7907.00,1.34
7906.00,1.34
7905.00,1.34
7904.00,1.34
7903.00,1.34
7902.00,1.34
7901.00,1.34
7900.00,1.34
7899.00,1.34
7898.00,1.34
7897.00,1.34
7896.00,1.34
7895.00,1.34
7894.00,1.34
7893.00,1.34
7892.00,1.34
7891.00,1.34
7890.00,1.35
7889.00,1.35
7888.00,1.35
7887.00,1.35
7886.00,1.35
7885.00,1.35
7884.00,1.35
7883.00,1.35
7882.00,1.35
7881.00,1.35
7880.00,1.35
7879.00,1.35
7878.00,1.35
7877.00,1.35
7876.00,1.35
7875.00,1.35
7874.00,1.35
7873.00,1.35
7872.00,1.35
7871.00,1.35
7870.00,1.35
7869.00,1.35
7868.00,1.35
7867.00,1.35
7866.00,1.35
7865.00,1.35
7864.00,1.35
7863.00,1.35
7862.00,1.35
7861.00,1.35
7860.00,1.35
7859.00,1.36
7858.00,1.36
7857.00,1.36
7856.00,1.36
7855.00,1.36
7854.00,1.36
7853.00,1.36
7852.00,1.36
7851.00,1.36
7850.00,1.36
7849.00,1.36
7848.00,1.36
7847.00,1.36
7846.00,1.36
7845.00,1.36
7844.00,1.36
7843.00,1.36
7842.00,1.36
7841.00,1.36
7840.00,1.36
7839.00,1.36
7838.00,1.36
7837.00,1.36
7836.00,1.36
7835.00,1.36
7834.00,1.36
7833.00,1.36
7832.00,1.36
7831.00,1.36
7830.00,1.35
7829.00,1.36
7828.00,1.36
7827.00,1.36
7826.00,1.36
7825.00,1.36
7824.00,1.36
7823.00,1.36
7822.00,1.36
7821.00,1.36
7820.00,1.36
7819.00,1.36
7818.00,1.36
7817.00,1.36
7816.00,1.36
7815.00,1.36
7814.00,1.36
7813.00,1.37
7812.00,1.37
7811.00,1.37
7810.00,1.37
7809.00,1.37
7808.00,1.37
7807.00,1.37
7806.00,1.37
7805.00,1.37
7804.00,1.37
7803.00,1.37
7802.00,1.37
7801.00,1.37
7800.00,1.37
7799.00,1.37
7798.00,1.37
7797.00,1.37
7796.00,1.37
7795.00,1.37
7794.00,1.37
7793.00,1.37
7792.00,1.37
7791.00,1.37
7790.00,1.37
7789.00,1.37
7788.00,1.37
7787.00,1.37
7786.00,1.37
7785.00,1.37
7784.00,1.37
7783.00,1.37
7782.00,1.37
7781.00,1.37
7780.00,1.37
7779.00,1.37
7778.00,1.37
7777.00,1.37
7776.00,1.37
7775.00,1.37
7774.00,1.37
7773.00,1.37
7772.00,1.37
7771.00,1.37
7770.00,1.37
7769.00,1.37
7768.00,1.37
7767.00,1.37
7766.00,1.37
7765.00,1.37
7764.00,1.37
7763.00,1.37
7762.00,1.37
7761.00,1.37
7760.00,1.37
7759.00,1.37
7758.00,1.37
7757.00,1.37
7756.00,1.37
7755.00,1.37
7754.00,1.37
7753.00,1.37
7752.00,1.37
7751.00,1.37
7750.00,1.37
7749.00,1.37
7748.00,1.37
7747.00,1.37
7746.00,1.37
7745.00,1.37
7744.00,1.37
7743.00,1.37
7742.00,1.37
7741.00,1.37
7740.00,1.37
7739.00,1.37
7738.00,1.37
7737.00,1.37
7736.00,1.37
7735.00,1.37
7734.00,1.37
7733.00,1.37
7732.00,1.37
7731.00,1.37
7730.00,1.37
7729.00,1.37
7728.00,1.37
7727.00,1.37
7726.00,1.37
7725.00,1.37
7724.00,1.37
7723.00,1.37
7722.00,1.37
7721.00,1.37
7720.00,1.37
7719.00,1.37
7718.00,1.37
7717.00,1.37
7716.00,1.37
7715.00,1.37
7714.00,1.37
7713.00,1.37
7712.00,1.37
7711.00,1.37
7710.00,1.37
7709.00,1.37
7708.00,1.37
7707.00,1.37
7706.00,1.37
7705.00,1.37
7704.00,1.37
7703.00,1.37
7702.00,1.37
7701.00,1.37
7700.00,1.37
7699.00,1.37
7698.00,1.37
7697.00,1.37
7696.00,1.37
7695.00,1.37
7694.00,1.37
7693.00,1.37
7692.00,1.37
7691.00,1.37
7690.00,1.37
7689.00,1.37
7688.00,1.37
7687.00,1.37
7686.00,1.37
7685.00,1.37
7684.00,1.37
7683.00,1.37
7682.00,1.37
7681.00,1.37
7680.00,1.37
7679.00,1.37
7678.00,1.37
7677.00,1.37
7676.00,1.37
7675.00,1.37
7674.00,1.37
7673.00,1.37
7672.00,1.37
7671.00,1.37
7670.00,1.37
7669.00,1.37
7668.00,1.37
7667.00,1.37
7666.00,1.37
7665.00,1.37
7664.00,1.37
7663.00,1.37
7662.00,1.37
7661.00,1.37
7660.00,1.37
7659.00,1.37
7658.00,1.37
7657.00,1.37
7656.00,1.37
7655.00,1.37
7654.00,1.37
7653.00,1.37
7652.00,1.37
7651.00,1.37
7650.00,1.37
7649.00,1.37
7648.00,1.37
7647.00,1.37
7646.00,1.37
7645.00,1.37
7644.00,1.37
7643.00,1.37
7642.00,1.37
7641.00,1.36
7640.00,1.36
7639.00,1.36
7638.00,1.36
7637.00,1.36
7636.00,1.36
7635.00,1.36
7634.00,1.36
7633.00,1.36
7632.00,1.36
7631.00,1.36
7630.00,1.36
7629.00,1.36
7628.00,1.36
7627.00,1.36
7626.00,1.36
7625.00,1.36
7624.00,1.36
7623.00,1.36
7622.00,1.36
7621.00,1.36
7620.00,1.36
7619.00,1.36
7618.00,1.36
7617.00,1.36
7616.00,1.36
7615.00,1.36
7614.00,1.37
7613.00,1.37
7612.00,1.37
7611.00,1.37
7610.00,1.37
7609.00,1.37
7608.00,1.37
7607.00,1.37
7606.00,1.37
7605.00,1.37
7604.00,1.37
7603.00,1.37
7602.00,1.36
7601.00,1.36
7600.00,1.36
7599.00,1.36
7598.00,1.36
7597.00,1.36
7596.00,1.36
7595.00,1.36
7594.00,1.36
7593.00,1.36
7592.00,1.36
7591.00,1.36
7590.00,1.36
7589.00,1.36
7588.00,1.36
7587.00,1.36
7586.00,1.36
7585.00,1.36
7584.00,1.36
7583.00,1.35
7582.00,1.35
7581.00,1.35
7580.00,1.35
7579.00,1.35
7578.00,1.35
7577.00,1.35
7576.00,1.35
7575.00,1.35
7574.00,1.35
7573.00,1.35
7572.00,1.35
7571.00,1.35
7570.00,1.35
7569.00,1.35
7568.00,1.35
7567.00,1.35
7566.00,1.35
7565.00,1.35
7564.00,1.35
7563.00,1.35
7562.00,1.35
7561.00,1.35
7560.00,1.35
7559.00,1.35
7558.00,1.35
7557.00,1.35
7556.00,1.35
7555.00,1.35
7554.00,1.35
7553.00,1.35
7552.00,1.34
7551.00,1.34
7550.00,1.34
7549.00,1.34
7548.00,1.34
7547.00,1.34
7546.00,1.34
7545.00,1.34
7544.00,1.34
7543.00,1.34
7542.00,1.34
7541.00,1.34
7540.00,1.34
7539.00,1.34
7538.00,1.34
7537.00,1.34
7536.00,1.34
7535.00,1.34
7534.00,1.34
7533.00,1.34
7532.00,1.34
7531.00,1.35
7530.00,1.35
7529.00,1.35
7528.00,1.35
7527.00,1.35
7526.00,1.35
7525.00,1.35
7524.00,1.34
7523.00,1.34
7522.00,1.34
7521.00,1.34
7520.00,1.34
7519.00,1.34
7518.00,1.34
7517.00,1.34
7516.00,1.34
7515.00,1.34
7514.00,1.34
7513.00,1.33
7512.00,1.33
7511.00,1.33
7510.00,1.33
7509.00,1.33
7508.00,1.33
7507.00,1.33
7506.00,1.33
7505.00,1.33
7504.00,1.33
7503.00,1.33
7502.00,1.33
7501.00,1.33
7500.00,1.33
7499.00,1.33
7498.00,1.33
7497.00,1.33
7496.00,1.33
7495.00,1.33
7494.00,1.33
7493.00,1.33
7492.00,1.33
7491.00,1.33
7490.00,1.33
7489.00,1.33
7488.00,1.33
7487.00,1.33
7486.00,1.33
7485.00,1.32
7484.00,1.32
7483.00,1.32
7482.00,1.32
7481.00,1.32
7480.00,1.32
7479.00,1.32
7478.00,1.32
7477.00,1.32
7476.00,1.32
7475.00,1.32
7474.00,1.32
7473.00,1.32
7472.00,1.32
7471.00,1.32
7470.00,1.32
7469.00,1.32
7468.00,1.32
7467.00,1.31
7466.00,1.31
7465.00,1.31
7464.00,1.31
7463.00,1.31
7462.00,1.31
7461.00,1.31
7460.00,1.31
7459.00,1.31
7458.00,1.31
7457.00,1.31
7456.00,1.31
7455.00,1.31
7454.00,1.31
7453.00,1.31
7452.00,1.30
7451.00,1.30
7450.00,1.30
7449.00,1.30
7448.00,1.30
7447.00,1.30
7446.00,1.30
7445.00,1.30
7444.00,1.30
7443.00,1.30
7442.00,1.30
7441.00,1.30
7440.00,1.30
7439.00,1.30
7438.00,1.30
7437.00,1.30
7436.00,1.30
7435.00,1.30
7434.00,1.30
7433.00,1.30
7432.00,1.30
7431.00,1.30
7430.00,1.30
7429.00,1.30
7428.00,1.30
7427.00,1.30
7426.00,1.30
7425.00,1.29
7424.00,1.29
7423.00,1.29
7422.00,1.29
7421.00,1.29
7420.00,1.29
7419.00,1.29
7418.00,1.29
7417.00,1.28
7416.00,1.28
7415.00,1.28
7414.00,1.28
7413.00,1.28
7412.00,1.28
7411.00,1.28
7410.00,1.28
7409.00,1.28
7408.00,1.28
7407.00,1.27
7406.00,1.27
7405.00,1.27
7404.00,1.27
7403.00,1.27
7402.00,1.27
7401.00,1.27
7400.00,1.27
7399.00,1.27
7398.00,1.27
7397.00,1.26
7396.00,1.26
7395.00,1.26
7394.00,1.26
7393.00,1.26
7392.00,1.26
7391.00,1.26
7390.00,1.26
7389.00,1.26
7388.00,1.25
7387.00,1.25
7386.00,1.25
7385.00,1.25
7384.00,1.25
7383.00,1.25
7382.00,1.25
7381.00,1.25
7380.00,1.25
7379.00,1.25
7378.00,1.25
7377.00,1.25
7376.00,1.25
7375.00,1.25
7374.00,1.25
7373.00,1.25
7372.00,1.25
7371.00,1.25
7370.00,1.25
7369.00,1.25
7368.00,1.25
7367.00,1.25
7366.00,1.25
7365.00,1.25
7364.00,1.25
7363.00,1.25
7362.00,1.24
7361.00,1.24
7360.00,1.24
7359.00,1.24
7358.00,1.24
7357.00,1.24
7356.00,1.24
7355.00,1.24
7354.00,1.23
7353.00,1.23
7352.00,1.23
7351.00,1.23
7350.00,1.23
7349.00,1.23
7348.00,1.23
7347.00,1.23
7346.00,1.23
7345.00,1.22
7344.00,1.22
7343.00,1.22
7342.00,1.22
7341.00,1.22
7340.00,1.22
7339.00,1.22
7338.00,1.22
7337.00,1.22
7336.00,1.22
7335.00,1.22
7334.00,1.22
7333.00,1.22
7332.00,1.22
7331.00,1.22
7330.00,1.22
7329.00,1.22
7328.00,1.22
7327.00,1.22
7326.00,1.22
7325.00,1.22
7324.00,1.22
7323.00,1.21
7322.00,1.21
7321.00,1.21
7320.00,1.21
7319.00,1.21
7318.00,1.21
7317.00,1.21
7316.00,1.21
7315.00,1.21
7314.00,1.21
7313.00,1.21
7312.00,1.21
7311.00,1.21
7310.00,1.21
7309.00,1.21
7308.00,1.20
7307.00,1.20
7306.00,1.20
7305.00,1.20
7304.00,1.20
7303.00,1.20
7302.00,1.20
7301.00,1.20
7300.00,1.20
7299.00,1.20
7298.00,1.19
7297.00,1.19
7296.00,1.19
7295.00,1.19
7294.00,1.19
7293.00,1.19
7292.00,1.19
7291.00,1.19
7290.00,1.19
7289.00,1.19
7288.00,1.19
7287.00,1.19
7286.00,1.19
7285.00,1.19
7284.00,1.19
7283.00,1.18
7282.00,1.18
7281.00,1.18
7280.00,1.18
7279.00,1.18
7278.00,1.18
7277.00,1.18
7276.00,1.18
7275.00,1.18
7274.00,1.18
7273.00,1.18
7272.00,1.18
7271.00,1.17
7270.00,1.17
7269.00,1.17
7268.00,1.17
7267.00,1.17
7266.00,1.17
7265.00,1.17
7264.00,1.16
7263.00,1.16
7262.00,1.16
7261.00,1.16
7260.00,1.16
7259.00,1.15
7258.00,1.15
7257.00,1.15
7256.00,1.15
7255.00,1.15
7254.00,1.14
7253.00,1.14
7252.00,1.14
7251.00,1.13
7250.00,1.13
7249.00,1.13
7248.00,1.12
7247.00,1.12
7246.00,1.12
7245.00,1.12
7244.00,1.11
7243.00,1.11
7242.00,1.11
7241.00,1.10
7240.00,1.10
7239.00,1.10
7238.00,1.09
7237.00,1.09
7236.00,1.09
7235.00,1.08
7234.00,1.08
7233.00,1.08
7232.00,1.08
7231.00,1.07
7230.00,1.07
7229.00,1.07
7228.00,1.06
7227.00,1.06
7226.00,1.06
7225.00,1.05
7224.00,1.05
7223.00,1.05
7222.00,1.05
7221.00,1.04
7220.00,1.04
7219.00,1.04
7218.00,1.03
7217.00,1.03
7216.00,1.03
7215.00,1.02
7214.00,1.02
7213.00,1.02
7212.00,1.01
7211.00,1.01
7210.00,1.01
7209.00,1.00
7208.00,1.00
7207.00,1.00
7206.00,0.99
7205.00,0.99
7204.00,0.99
7203.00,0.98
7202.00,0.98
7201.00,0.97
7200.00,0.97
7199.00,0.96
7198.00,0.96
7197.00,0.95
7196.00,0.95
7195.00,0.95
7194.00,0.94
7193.00,0.94
7192.00,0.93
7191.00,0.93
7190.00,0.92
7189.00,0.92
7188.00,0.92
7187.00,0.91
7186.00,0.91
7185.00,0.91
7184.00,0.90
7183.00,0.90
7182.00,0.90
7181.00,0.89
7180.00,0.89
7179.00,0.89
7178.00,0.88
7177.00,0.88
7176.00,0.88
7175.00,0.87
7174.00,0.87
7173.00,0.87
7172.00,0.87
7171.00,0.86
7170.00,0.86
7169.00,0.86
7168.00,0.85
7167.00,0.85
7166.00,0.85
7165.00,0.85
7164.00,0.84
7163.00,0.84
7162.00,0.84
7161.00,0.84
7160.00,0.83
7159.00,0.83
7158.00,0.83
7157.00,0.83
7156.00,0.82
7155.00,0.82
7154.00,0.82
7153.00,0.82
7152.00,0.81
7151.00,0.81
7150.00,0.81
7149.00,0.81
7148.00,0.80
7147.00,0.80
7146.00,0.80
7145.00,0.80
7144.00,0.79
7143.00,0.79
7142.00,0.79
7141.00,0.79
7140.00,0.78
7139.00,0.78
7138.00,0.78
7137.00,0.78
7136.00,0.77
7135.00,0.77
7134.00,0.77
7133.00,0.77
7132.00,0.76
7131.00,0.76
7130.00,0.76
7129.00,0.76
7128.00,0.76
7127.00,0.75
7126.00,0.75
7125.00,0.75
7124.00,0.74
7123.00,0.74
7122.00,0.74
7121.00,0.74
7120.00,0.73
7119.00,0.73
7118.00,0.73
7117.00,0.73
7116.00,0.72
7115.00,0.72
7114.00,0.72
7113.00,0.72
7112.00,0.72
7111.00,0.72
7110.00,0.71
7109.00,0.71
7108.00,0.71
7107.00,0.71
7106.00,0.71
7105.00,0.71
7104.00,0.71
7103.00,0.71
7102.00,0.71
7101.00,0.71
7100.00,0.71
7099.00,0.71
7098.00,0.71
7097.00,0.71
7096.00,0.71
7095.00,0.71
7094.00,0.70
7093.00,0.70
7092.00,0.70
7091.00,0.70
7090.00,0.70
7089.00,0.70
7088.00,0.70
7087.00,0.70
7086.00,0.70
7085.00,0.70
7084.00,0.69
7083.00,0.69
7082.00,0.69
7081.00,0.69
7080.00,0.69
7079.00,0.69
7078.00,0.68
7077.00,0.68
7076.00,0.68
7075.00,0.68
7074.00,0.68
7073.00,0.68
7072.00,0.68
7071.00,0.67
7070.00,0.67
7069.00,0.67
7068.00,0.67
7067.00,0.67
7066.00,0.67
7065.00,0.67
7064.00,0.67
7063.00,0.66
7062.00,0.66
7061.00,0.66
7060.00,0.66
7059.00,0.66
7058.00,0.66
7057.00,0.66
7056.00,0.66
7055.00,0.66
7054.00,0.66
7053.00,0.66
7052.00,0.66
7051.00,0.66
7050.00,0.66
7049.00,0.66
7048.00,0.66
7047.00,0.66
7046.00,0.66
7045.00,0.66
7044.00,0.66
7043.00,0.66
7042.00,0.66
7041.00,0.66
7040.00,0.66
7039.00,0.66
7038.00,0.66
7037.00,0.66
7036.00,0.66
7035.00,0.66
7034.00,0.66
7033.00,0.66
7032.00,0.66
7031.00,0.66
7030.00,0.66
7029.00,0.66
7028.00,0.65
7027.00,0.65
7026.00,0.65
7025.00,0.65
7024.00,0.65
7023.00,0.65
7022.00,0.65
7021.00,0.65
7020.00,0.65
7019.00,0.65
7018.00,0.65
7017.00,0.65
7016.00,0.65
7015.00,0.65
7014.00,0.64
7013.00,0.64
7012.00,0.64
7011.00,0.64
7010.00,0.64
7009.00,0.64
7008.00,0.64
7007.00,0.64
7006.00,0.64
7005.00,0.64
7004.00,0.64
7003.00,0.64
7002.00,0.64
7001.00,0.64
7000.00,0.64
6999.00,0.64
6998.00,0.64
6997.00,0.64
6996.00,0.64
6995.00,0.64
6994.00,0.64
6993.00,0.64
6992.00,0.64
6991.00,0.64
6990.00,0.64
6989.00,0.64
6988.00,0.64
6987.00,0.64
6986.00,0.63
6985.00,0.63
6984.00,0.63
6983.00,0.63
6982.00,0.63
6981.00,0.63
6980.00,0.63
6979.00,0.63
6978.00,0.63
6977.00,0.63
6976.00,0.63
6975.00,0.63
6974.00,0.63
6973.00,0.63
6972.00,0.63
6971.00,0.63
6970.00,0.63
6969.00,0.63
6968.00,0.63
6967.00,0.63
6966.00,0.63
6965.00,0.63
6964.00,0.63
6963.00,0.63
6962.00,0.63
6961.00,0.63
6960.00,0.63
6959.00,0.63
6958.00,0.63
6957.00,0.63
6956.00,0.63
6955.00,0.63
6954.00,0.62
6953.00,0.62
6952.00,0.62
6951.00,0.62
6950.00,0.62
6949.00,0.62
6948.00,0.62
6947.00,0.62
6946.00,0.62
6945.00,0.62
6944.00,0.63
6943.00,0.63
6942.00,0.63
6941.00,0.63
6940.00,0.63
6939.00,0.63
6938.00,0.63
6937.00,0.63
6936.00,0.63
6935.00,0.63
6934.00,0.63
6933.00,0.63
6932.00,0.63
6931.00,0.63
6930.00,0.63
6929.00,0.63
6928.00,0.63
6927.00,0.63
6926.00,0.63
6925.00,0.63
6924.00,0.63
6923.00,0.63
6922.00,0.63
6921.00,0.63
6920.00,0.63
6919.00,0.63
6918.00,0.63
6917.00,0.63
6916.00,0.63
6915.00,0.63
6914.00,0.63
6913.00,0.63
6912.00,0.63
6911.00,0.62
6910.00,0.62
6909.00,0.62
6908.00,0.63
6907.00,0.63
6906.00,0.63
6905.00,0.63
6904.00,0.63
6903.00,0.63
6902.00,0.63
6901.00,0.63
6900.00,0.63
6899.00,0.63
6898.00,0.63
6897.00,0.63
6896.00,0.63
6895.00,0.63
6894.00,0.63
6893.00,0.63
6892.00,0.63
6891.00,0.63
6890.00,0.63
6889.00,0.63
6888.00,0.63
6887.00,0.63
6886.00,0.63
6885.00,0.63
6884.00,0.63
6883.00,0.64
6882.00,0.64
6881.00,0.64
6880.00,0.64
6879.00,0.64
6878.00,0.64
6877.00,0.64
6876.00,0.64
6875.00,0.64
6874.00,0.64
6873.00,0.64
6872.00,0.64
6871.00,0.64
6870.00,0.64
6869.00,0.64
6868.00,0.64
6867.00,0.64
6866.00,0.64
6865.00,0.64
6864.00,0.64
6863.00,0.63
6862.00,0.63
6861.00,0.63
6860.00,0.63
6859.00,0.63
6858.00,0.63
6857.00,0.63
6856.00,0.63
6855.00,0.63
6854.00,0.63
6853.00,0.63
6852.00,0.63
6851.00,0.63
6850.00,0.63
6849.00,0.63
6848.00,0.63
6847.00,0.63
6846.00,0.63
6845.00,0.63
6844.00,0.63
6843.00,0.63
6842.00,0.63
6841.00,0.63
6840.00,0.63
6839.00,0.63
6838.00,0.63
6837.00,0.63
6836.00,0.63
6835.00,0.63
6834.00,0.63
6833.00,0.63
6832.00,0.63
6831.00,0.63
6830.00,0.63
6829.00,0.63
6828.00,0.63
6827.00,0.63
6826.00,0.63
6825.00,0.63
6824.00,0.63
6823.00,0.63
6822.00,0.64
6821.00,0.64
6820.00,0.64
6819.00,0.64
6818.00,0.64
6817.00,0.64
6816.00,0.64
6815.00,0.64
6814.00,0.64
6813.00,0.64
6812.00,0.64
6811.00,0.64
6810.00,0.64
6809.00,0.64
6808.00,0.65
6807.00,0.65
6806.00,0.65
6805.00,0.65
6804.00,0.65
6803.00,0.65
6802.00,0.65
6801.00,0.65
6800.00,0.65
6799.00,0.65
6798.00,0.65
6797.00,0.65
6796.00,0.65
6795.00,0.65
6794.00,0.65
6793.00,0.65
6792.00,0.65
6791.00,0.65
6790.00,0.65
6789.00,0.65
6788.00,0.65
6787.00,0.65
6786.00,0.65
6785.00,0.65
6784.00,0.65
6783.00,0.65
6782.00,0.65
6781.00,0.65
6780.00,0.65
6779.00,0.65
6778.00,0.65
6777.00,0.65
6776.00,0.65
6775.00,0.65
6774.00,0.65
6773.00,0.65
6772.00,0.65
6771.00,0.65
6770.00,0.65
6769.00,0.65
6768.00,0.65
6767.00,0.65
6766.00,0.65
6765.00,0.65
6764.00,0.65
6763.00,0.65
6762.00,0.65
6761.00,0.65
6760.00,0.65
6759.00,0.65
6758.00,0.65
6757.00,0.66
6756.00,0.66
6755.00,0.66
6754.00,0.66
6753.00,0.66
6752.00,0.66
6751.00,0.66
6750.00,0.66
6749.00,0.66
6748.00,0.66
6747.00,0.66
6746.00,0.66
6745.00,0.66
6744.00,0.66
6743.00,0.66
6742.00,0.66
6741.00,0.66
6740.00,0.66
6739.00,0.66
6738.00,0.66
6737.00,0.66
6736.00,0.66
6735.00,0.67
6734.00,0.67
6733.00,0.67
6732.00,0.67
6731.00,0.67
6730.00,0.67
6729.00,0.67
6728.00,0.67
6727.00,0.67
6726.00,0.67
6725.00,0.67
6724.00,0.68
6723.00,0.68
6722.00,0.68
6721.00,0.68
6720.00,0.68
6719.00,0.68
6718.00,0.68
6717.00,0.68
6716.00,0.68
6715.00,0.68
6714.00,0.68
6713.00,0.69
6712.00,0.69
6711.00,0.69
6710.00,0.69
6709.00,0.69
6708.00,0.69
6707.00,0.69
6706.00,0.69
6705.00,0.69
6704.00,0.69
6703.00,0.69
6702.00,0.70
6701.00,0.70
6700.00,0.70
6699.00,0.70
6698.00,0.70
6697.00,0.70
6696.00,0.70
6695.00,0.70
6694.00,0.70
6693.00,0.70
6692.00,0.70
6691.00,0.70
6690.00,0.70
6689.00,0.70
6688.00,0.70
6687.00,0.70
6686.00,0.70
6685.00,0.70
6684.00,0.70
6683.00,0.70
6682.00,0.70
6681.00,0.70
6680.00,0.70
6679.00,0.70
6678.00,0.70
6677.00,0.70
6676.00,0.70
6675.00,0.70
6674.00,0.70
6673.00,0.71
6672.00,0.71
6671.00,0.71
6670.00,0.71
6669.00,0.71
6668.00,0.71
6667.00,0.71
6666.00,0.71
6665.00,0.71
6664.00,0.71
6663.00,0.71
6662.00,0.72
6661.00,0.72
6660.00,0.72
6659.00,0.72
6658.00,0.72
6657.00,0.72
6656.00,0.72
6655.00,0.72
6654.00,0.73
6653.00,0.73
6652.00,0.73
6651.00,0.73
6650.00,0.73
6649.00,0.73
6648.00,0.73
6647.00,0.73
6646.00,0.73
6645.00,0.73
6644.00,0.73
6643.00,0.73
6642.00,0.74
6641.00,0.74
6640.00,0.74
6639.00,0.74
6638.00,0.73
6637.00,0.73
6636.00,0.73
6635.00,0.73
6634.00,0.73
6633.00,0.73
6632.00,0.73
6631.00,0.73
6630.00,0.73
6629.00,0.73
6628.00,0.73
6627.00,0.73
6626.00,0.73
6625.00,0.73
6624.00,0.73
6623.00,0.74
6622.00,0.74
6621.00,0.74
6620.00,0.74
6619.00,0.74
6618.00,0.74
6617.00,0.74
6616.00,0.75
6615.00,0.75
6614.00,0.75
6613.00,0.75
6612.00,0.75
6611.00,0.75
6610.00,0.76
6609.00,0.76
6608.00,0.76
6607.00,0.76
6606.00,0.76
6605.00,0.76
6604.00,0.76
6603.00,0.76
6602.00,0.77
6601.00,0.77
6600.00,0.77
6599.00,0.77
6598.00,0.77
6597.00,0.77
6596.00,0.77
6595.00,0.77
6594.00,0.77
6593.00,0.77
6592.00,0.77
6591.00,0.77
6590.00,0.77
6589.00,0.77
6588.00,0.77
6587.00,0.77
6586.00,0.77
6585.00,0.77
6584.00,0.77
6583.00,0.77
6582.00,0.77
6581.00,0.77
6580.00,0.77
6579.00,0.77
6578.00,0.78
6577.00,0.78
6576.00,0.78
6575.00,0.78
6574.00,0.78
6573.00,0.78
6572.00,0.78
6571.00,0.78
6570.00,0.78
6569.00,0.78
6568.00,0.78
6567.00,0.79
6566.00,0.79
6565.00,0.79
6564.00,0.79
6563.00,0.79
6562.00,0.79
6561.00,0.79
6560.00,0.79
6559.00,0.79
6558.00,0.80
6557.00,0.80
6556.00,0.80
6555.00,0.80
6554.00,0.80
6553.00,0.80
6552.00,0.80
6551.00,0.80
6550.00,0.80
6549.00,0.80
6548.00,0.80
6547.00,0.81
6546.00,0.81
6545.00,0.81
6544.00,0.81
6543.00,0.81
6542.00,0.81
6541.00,0.81
6540.00,0.81
6539.00,0.81
6538.00,0.81
6537.00,0.81
6536.00,0.81
6535.00,0.81
6534.00,0.81
6533.00,0.81
6532.00,0.82
6531.00,0.82
6530.00,0.82
6529.00,0.82
6528.00,0.82
6527.00,0.82
6526.00,0.82
6525.00,0.82
6524.00,0.82
6523.00,0.82
6522.00,0.82
6521.00,0.82
6520.00,0.83
6519.00,0.83
6518.00,0.83
6517.00,0.83
6516.00,0.83
6515.00,0.83
6514.00,0.83
6513.00,0.83
6512.00,0.83
6511.00,0.83
6510.00,0.84
6509.00,0.84
6508.00,0.84
6507.00,0.84
6506.00,0.84
6505.00,0.84
6504.00,0.84
6503.00,0.84
6502.00,0.84
6501.00,0.84
6500.00,0.84
6499.00,0.84
6498.00,0.84
6497.00,0.84
6496.00,0.84
6495.00,0.84
6494.00,0.84
6493.00,0.85
6492.00,0.85
6491.00,0.85
6490.00,0.85
6489.00,0.85
6488.00,0.85
6487.00,0.85
6486.00,0.86
6485.00,0.86
6484.00,0.86
6483.00,0.86
6482.00,0.86
6481.00,0.86
6480.00,0.86
6479.00,0.87
6478.00,0.87
6477.00,0.87
6476.00,0.87
6475.00,0.87
6474.00,0.87
6473.00,0.87
6472.00,0.87
6471.00,0.87
6470.00,0.87
6469.00,0.87
6468.00,0.87
6467.00,0.87
6466.00,0.87
6465.00,0.87
6464.00,0.87
6463.00,0.87
6462.00,0.87
6461.00,0.87
6460.00,0.87
6459.00,0.87
6458.00,0.87
6457.00,0.87
6456.00,0.87
6455.00,0.88
6454.00,0.88
6453.00,0.88
6452.00,0.88
6451.00,0.88
6450.00,0.88
6449.00,0.88
6448.00,0.88
6447.00,0.88
6446.00,0.88
6445.00,0.88
6444.00,0.88
6443.00,0.88
6442.00,0.88
6441.00,0.88
6440.00,0.88
6439.00,0.88
6438.00,0.89
6437.00,0.89
6436.00,0.89
6435.00,0.89
6434.00,0.89
6433.00,0.89
6432.00,0.89
6431.00,0.89
6430.00,0.89
6429.00,0.89
6428.00,0.90
6427.00,0.90
6426.00,0.90
6425.00,0.90
6424.00,0.90
6423.00,0.90
6422.00,0.90
6421.00,0.91
6420.00,0.91
6419.00,0.91
6418.00,0.91
6417.00,0.91
6416.00,0.91
6415.00,0.91
6414.00,0.91
6413.00,0.91
6412.00,0.91
6411.00,0.91
6410.00,0.91
6409.00,0.91
6408.00,0.91
6407.00,0.91
6406.00,0.91
6405.00,0.92
6404.00,0.92
6403.00,0.92
6402.00,0.92
6401.00,0.92
6400.00,0.92
6399.00,0.92
6398.00,0.92
6397.00,0.92
6396.00,0.92
6395.00,0.92
6394.00,0.92
6393.00,0.92
6392.00,0.92
6391.00,0.92
6390.00,0.93
6389.00,0.93
6388.00,0.93
6387.00,0.93
6386.00,0.93
6385.00,0.93
6384.00,0.93
6383.00,0.93
6382.00,0.93
6381.00,0.93
6380.00,0.93
6379.00,0.93
6378.00,0.93
6377.00,0.93
6376.00,0.93
6375.00,0.94
6374.00,0.94
6373.00,0.94
6372.00,0.94
6371.00,0.94
6370.00,0.94
6369.00,0.94
6368.00,0.94
6367.00,0.94
6366.00,0.94
6365.00,0.94
6364.00,0.95
6363.00,0.95
6362.00,0.95
6361.00,0.95
6360.00,0.95
6359.00,0.95
6358.00,0.95
6357.00,0.95
6356.00,0.95
6355.00,0.95
6354.00,0.95
6353.00,0.95
6352.00,0.96
6351.00,0.96
6350.00,0.96
6349.00,0.96
6348.00,0.96
6347.00,0.96
6346.00,0.96
6345.00,0.96
6344.00,0.96
6343.00,0.97
6342.00,0.97
6341.00,0.97
6340.00,0.97
6339.00,0.97
6338.00,0.97
6337.00,0.97
6336.00,0.97
6335.00,0.97
6334.00,0.97
6333.00,0.98
6332.00,0.98
6331.00,0.98
6330.00,0.98
6329.00,0.98
6328.00,0.98
6327.00,0.98
6326.00,0.98
6325.00,0.98
6324.00,0.99
6323.00,0.99
6322.00,0.99
6321.00,0.99
6320.00,0.99
6319.00,0.99
6318.00,0.99
6317.00,0.99
6316.00,0.99
6315.00,0.99
6314.00,0.99
6313.00,1.00
6312.00,1.00
6311.00,1.00
6310.00,1.00
6309.00,1.00
6308.00,1.00
6307.00,1.00
6306.00,1.00
6305.00,1.00
6304.00,1.00
6303.00,1.00
6302.00,1.00
6301.00,1.01
6300.00,1.01
6299.00,1.01
6298.00,1.01
6297.00,1.01
6296.00,1.01
6295.00,1.01
6294.00,1.01
6293.00,1.01
6292.00,1.02
6291.00,1.02
6290.00,1.02
6289.00,1.02
6288.00,1.02
6287.00,1.02
6286.00,1.02
6285.00,1.03
6284.00,1.03
6283.00,1.03
6282.00,1.03
6281.00,1.03
6280.00,1.03
6279.00,1.04
6278.00,1.04
6277.00,1.04
6276.00,1.04
6275.00,1.04
6274.00,1.04
6273.00,1.04
6272.00,1.04
6271.00,1.05
6270.00,1.05
6269.00,1.05
6268.00,1.05
6267.00,1.05
6266.00,1.05
6265.00,1.05
6264.00,1.05
6263.00,1.06
6262.00,1.06
6261.00,1.06
6260.00,1.06
6259.00,1.06
6258.00,1.06
6257.00,1.06
6256.00,1.07
6255.00,1.07
6254.00,1.07
6253.00,1.07
6252.00,1.07
6251.00,1.07
6250.00,1.07
6249.00,1.07
6248.00,1.07
6247.00,1.08
6246.00,1.08
6245.00,1.08
6244.00,1.08
6243.00,1.08
6242.00,1.08
6241.00,1.08
6240.00,1.08
6239.00,1.08
6238.00,1.08
6237.00,1.08
6236.00,1.09
6235.00,1.09
6234.00,1.09
6233.00,1.09
6232.00,1.09
6231.00,1.09
6230.00,1.09
6229.00,1.09
6228.00,1.09
6227.00,1.09
6226.00,1.09
6225.00,1.09
6224.00,1.09
6223.00,1.10
6222.00,1.10
6221.00,1.10
6220.00,1.10
6219.00,1.10
6218.00,1.10
6217.00,1.10
6216.00,1.10
6215.00,1.11
6214.00,1.11
6213.00,1.11
6212.00,1.11
6211.00,1.11
6210.00,1.12
6209.00,1.12
6208.00,1.12
6207.00,1.12
6206.00,1.12
6205.00,1.12
6204.00,1.12
6203.00,1.13
6202.00,1.13
6201.00,1.13
6200.00,1.13
6199.00,1.13
6198.00,1.13
6197.00,1.13
6196.00,1.13
6195.00,1.13
6194.00,1.13
6193.00,1.13
6192.00,1.14
6191.00,1.14
6190.00,1.14
6189.00,1.14
6188.00,1.14
6187.00,1.14
6186.00,1.14
6185.00,1.14
6184.00,1.14
6183.00,1.15
6182.00,1.15
6181.00,1.15
6180.00,1.15
6179.00,1.15
6178.00,1.15
6177.00,1.15
6176.00,1.16
6175.00,1.16
6174.00,1.16
6173.00,1.16
6172.00,1.16
6171.00,1.16
6170.00,1.16
6169.00,1.17
6168.00,1.17
6167.00,1.17
6166.00,1.17
6165.00,1.17
6164.00,1.17
6163.00,1.17
6162.00,1.17
6161.00,1.17
6160.00,1.18
6159.00,1.18
6158.00,1.18
6157.00,1.18
6156.00,1.18
6155.00,1.18
6154.00,1.18
6153.00,1.18
6152.00,1.18
6151.00,1.18
6150.00,1.19
6149.00,1.19
6148.00,1.19
6147.00,1.19
6146.00,1.19
6145.00,1.19
6144.00,1.19
6143.00,1.20
6142.00,1.20
6141.00,1.20
6140.00,1.20
6139.00,1.20
6138.00,1.21
6137.00,1.21
6136.00,1.21
6135.00,1.21
6134.00,1.21
6133.00,1.21
6132.00,1.22
6131.00,1.22
6130.00,1.22
6129.00,1.22
6128.00,1.22
6127.00,1.22
6126.00,1.22
6125.00,1.22
6124.00,1.23
6123.00,1.23
6122.00,1.23
6121.00,1.23
6120.00,1.23
6119.00,1.23
6118.00,1.23
6117.00,1.23
6116.00,1.23
6115.00,1.23
6114.00,1.24
6113.00,1.24
6112.00,1.24
6111.00,1.24
6110.00,1.24
6109.00,1.24
6108.00,1.24
6107.00,1.25
6106.00,1.25
6105.00,1.25
6104.00,1.25
6103.00,1.25
6102.00,1.25
6101.00,1.25
6100.00,1.26
6099.00,1.26
6098.00,1.26
6097.00,1.26
6096.00,1.26
6095.00,1.26
6094.00,1.26
6093.00,1.26
6092.00,1.26
6091.00,1.26
6090.00,1.26
6089.00,1.26
6088.00,1.27
6087.00,1.27
6086.00,1.27
6085.00,1.27
6084.00,1.27
6083.00,1.27
6082.00,1.27
6081.00,1.27
6080.00,1.27
6079.00,1.27
6078.00,1.28
6077.00,1.28
6076.00,1.28
6075.00,1.28
6074.00,1.28
6073.00,1.29
6072.00,1.29
6071.00,1.29
6070.00,1.29
6069.00,1.29
6068.00,1.29
6067.00,1.30
6066.00,1.30
6065.00,1.30
6064.00,1.30
6063.00,1.30
6062.00,1.30
6061.00,1.30
6060.00,1.31
6059.00,1.31
6058.00,1.31
6057.00,1.31
6056.00,1.31
6055.00,1.31
6054.00,1.31
6053.00,1.31
6052.00,1.31
6051.00,1.31
6050.00,1.31
6049.00,1.31
6048.00,1.31
6047.00,1.31
6046.00,1.31
6045.00,1.31
6044.00,1.31
6043.00,1.31
6042.00,1.31
6041.00,1.31
6040.00,1.31
6039.00,1.32
6038.00,1.32
6037.00,1.32
6036.00,1.32
6035.00,1.32
6034.00,1.32
6033.00,1.32
6032.00,1.32
6031.00,1.32
6030.00,1.32
6029.00,1.32
6028.00,1.32
6027.00,1.32
6026.00,1.32
6025.00,1.32
6024.00,1.32
6023.00,1.32
6022.00,1.32
6021.00,1.32
6020.00,1.32
6019.00,1.33
6018.00,1.33
6017.00,1.33
6016.00,1.33
6015.00,1.33
6014.00,1.33
6013.00,1.33
6012.00,1.33
6011.00,1.33
6010.00,1.33
6009.00,1.33
6008.00,1.33
6007.00,1.33
6006.00,1.33
6005.00,1.33
6004.00,1.33
6003.00,1.33
6002.00,1.33
6001.00,1.33
6000.00,1.33
5999.00,1.33
5998.00,1.32
5997.00,1.32
5996.00,1.32
5995.00,1.32
5994.00,1.32
5993.00,1.32
5992.00,1.32
5991.00,1.32
5990.00,1.31
5989.00,1.31
5988.00,1.31
5987.00,1.31
5986.00,1.31
5985.00,1.30
5984.00,1.30
5983.00,1.30
5982.00,1.30
5981.00,1.30
5980.00,1.29
5979.00,1.29
5978.00,1.29
5977.00,1.29
5976.00,1.28
5975.00,1.28
5974.00,1.28
5973.00,1.27
5972.00,1.27
5971.00,1.27
5970.00,1.26
5969.00,1.26
5968.00,1.25
5967.00,1.25
5966.00,1.25
5965.00,1.24
5964.00,1.24
5963.00,1.23
5962.00,1.23
5961.00,1.22
5960.00,1.22
5959.00,1.21
5958.00,1.21
5957.00,1.20
5956.00,1.20
5955.00,1.19
5954.00,1.19
5953.00,1.19
5952.00,1.18
5951.00,1.18
5950.00,1.17
5949.00,1.17
5948.00,1.17
5947.00,1.17
5946.00,1.16
5945.00,1.16
5944.00,1.16
5943.00,1.16
5942.00,1.16
5941.00,1.16
5940.00,1.16
5939.00,1.16
5938.00,1.16
5937.00,1.16
5936.00,1.16
5935.00,1.16
5934.00,1.16
5933.00,1.16
5932.00,1.15
5931.00,1.15
5930.00,1.15
5929.00,1.15
5928.00,1.15
5927.00,1.15
5926.00,1.15
5925.00,1.15
5924.00,1.15
5923.00,1.14
5922.00,1.14
5921.00,1.14
5920.00,1.14
5919.00,1.14
5918.00,1.13
5917.00,1.13
5916.00,1.13
5915.00,1.13
5914.00,1.13
5913.00,1.13
5912.00,1.13
5911.00,1.13
5910.00,1.13
5909.00,1.12
5908.00,1.12
5907.00,1.12
5906.00,1.12
5905.00,1.12
5904.00,1.12
5903.00,1.13
5902.00,1.13
5901.00,1.13
5900.00,1.13
5899.00,1.13
5898.00,1.13
5897.00,1.13
5896.00,1.13
5895.00,1.14
5894.00,1.14
5893.00,1.14
5892.00,1.14
5891.00,1.14
5890.00,1.15
5889.00,1.15
5888.00,1.15
5887.00,1.15
5886.00,1.15
5885.00,1.16
5884.00,1.16
5883.00,1.16
5882.00,1.16
5881.00,1.16
5880.00,1.17
5879.00,1.17
5878.00,1.17
5877.00,1.17
5876.00,1.18
5875.00,1.18
5874.00,1.18
5873.00,1.18
5872.00,1.18
5871.00,1.18
5870.00,1.19
5869.00,1.19
5868.00,1.19
5867.00,1.19
5866.00,1.19
5865.00,1.20
5864.00,1.20
5863.00,1.20
5862.00,1.20
5861.00,1.20
5860.00,1.20
5859.00,1.20
5858.00,1.21
5857.00,1.21
5856.00,1.21
5855.00,1.21
5854.00,1.21
5853.00,1.21
5852.00,1.21
5851.00,1.21
5850.00,1.21
5849.00,1.21
5848.00,1.21
5847.00,1.21
5846.00,1.21
5845.00,1.21
5844.00,1.21
5843.00,1.21
5842.00,1.21
5841.00,1.21
5840.00,1.21
5839.00,1.21
5838.00,1.21
5837.00,1.21
5836.00,1.21
5835.00,1.21
5834.00,1.21
5833.00,1.21
5832.00,1.21
5831.00,1.21
5830.00,1.21
5829.00,1.21
5828.00,1.21
5827.00,1.21
5826.00,1.21
5825.00,1.21
5824.00,1.21
5823.00,1.21
5822.00,1.21
5821.00,1.21
5820.00,1.21
5819.00,1.21
5818.00,1.21
5817.00,1.21
5816.00,1.21
5815.00,1.20
5814.00,1.20
5813.00,1.20
5812.00,1.20
5811.00,1.20
5810.00,1.20
5809.00,1.20
5808.00,1.20
5807.00,1.20
5806.00,1.20
5805.00,1.20
5804.00,1.20
5803.00,1.20
5802.00,1.20
5801.00,1.19
5800.00,1.19
5799.00,1.19
5798.00,1.19
5797.00,1.19
5796.00,1.19
5795.00,1.18
5794.00,1.18
5793.00,1.18
5792.00,1.18
5791.00,1.18
5790.00,1.18
5789.00,1.18
5788.00,1.17
5787.00,1.17
5786.00,1.17
5785.00,1.17
5784.00,1.17
5783.00,1.17
5782.00,1.17
5781.00,1.17
5780.00,1.17
5779.00,1.17
5778.00,1.17
5777.00,1.17
5776.00,1.17
5775.00,1.17
5774.00,1.17
5773.00,1.17
5772.00,1.17
5771.00,1.17
5770.00,1.17
5769.00,1.17
5768.00,1.17
5767.00,1.17
5766.00,1.17
5765.00,1.17
5764.00,1.17
5763.00,1.18
5762.00,1.18
5761.00,1.18
5760.00,1.18
5759.00,1.18
5758.00,1.18
5757.00,1.18
5756.00,1.19
5755.00,1.19
5754.00,1.19
5753.00,1.19
5752.00,1.19
5751.00,1.19
5750.00,1.20
5749.00,1.20
5748.00,1.20
5747.00,1.20
5746.00,1.20
5745.00,1.21
5744.00,1.21
5743.00,1.21
5742.00,1.21
5741.00,1.21
5740.00,1.21
5739.00,1.22
5738.00,1.22
5737.00,1.22
5736.00,1.22
5735.00,1.22
5734.00,1.22
5733.00,1.22
5732.00,1.22
5731.00,1.22
5730.00,1.22
5729.00,1.22
5728.00,1.22
5727.00,1.22
5726.00,1.22
5725.00,1.22
5724.00,1.22
5723.00,1.22
5722.00,1.22
5721.00,1.22
5720.00,1.22
5719.00,1.22
5718.00,1.22
5717.00,1.22
5716.00,1.22
5715.00,1.22
5714.00,1.22
5713.00,1.22
5712.00,1.22
5711.00,1.22
5710.00,1.22
5709.00,1.22
5708.00,1.22
5707.00,1.21
5706.00,1.21
5705.00,1.21
5704.00,1.21
5703.00,1.21
5702.00,1.21
5701.00,1.21
5700.00,1.21
5699.00,1.21
5698.00,1.20
5697.00,1.20
5696.00,1.20
5695.00,1.20
5694.00,1.20
5693.00,1.20
5692.00,1.20
5691.00,1.20
5690.00,1.20
5689.00,1.19
5688.00,1.19
5687.00,1.19
5686.00,1.19
5685.00,1.19
5684.00,1.19
5683.00,1.19
5682.00,1.18
5681.00,1.18
5680.00,1.18
5679.00,1.18
5678.00,1.18
5677.00,1.18
5676.00,1.18
5675.00,1.18
5674.00,1.18
5673.00,1.18
5672.00,1.18
5671.00,1.18
5670.00,1.18
5669.00,1.18
5668.00,1.18
5667.00,1.18
5666.00,1.18
5665.00,1.18
5664.00,1.18
5663.00,1.18
5662.00,1.19
5661.00,1.19
5660.00,1.19
5659.00,1.19
5658.00,1.19
5657.00,1.19
5656.00,1.19
5655.00,1.19
5654.00,1.20
5653.00,1.20
5652.00,1.20
5651.00,1.20
5650.00,1.20
5649.00,1.20
5648.00,1.20
5647.00,1.20
5646.00,1.20
5645.00,1.20
5644.00,1.21
5643.00,1.21
5642.00,1.21
5641.00,1.21
5640.00,1.21
5639.00,1.21
5638.00,1.21
5637.00,1.21
5636.00,1.21
5635.00,1.21
5634.00,1.21
5633.00,1.22
5632.00,1.22
5631.00,1.22
5630.00,1.22
5629.00,1.22
5628.00,1.22
5627.00,1.22
5626.00,1.22
5625.00,1.22
5624.00,1.22
5623.00,1.22
5622.00,1.23
5621.00,1.23
5620.00,1.23
5619.00,1.23
5618.00,1.23
5617.00,1.23
5616.00,1.23
5615.00,1.23
5614.00,1.23
5613.00,1.23
5612.00,1.23
5611.00,1.23
5610.00,1.24
5609.00,1.24
5608.00,1.24
5607.00,1.24
5606.00,1.24
5605.00,1.24
5604.00,1.24
5603.00,1.24
5602.00,1.25
5601.00,1.25
5600.00,1.25
5599.00,1.25
5598.00,1.25
5597.00,1.25
5596.00,1.26
5595.00,1.26
5594.00,1.26
5593.00,1.26
5592.00,1.26
5591.00,1.26
5590.00,1.26
5589.00,1.26
5588.00,1.27
5587.00,1.27
5586.00,1.27
5585.00,1.27
5584.00,1.27
5583.00,1.27
5582.00,1.27
5581.00,1.27
5580.00,1.27
5579.00,1.27
5578.00,1.27
5577.00,1.28
5576.00,1.28
5575.00,1.28
5574.00,1.28
5573.00,1.28
5572.00,1.28
5571.00,1.28
5570.00,1.28
5569.00,1.28
5568.00,1.29
5567.00,1.29
5566.00,1.29
5565.00,1.29
5564.00,1.29
5563.00,1.29
5562.00,1.29
5561.00,1.29
5560.00,1.29
5559.00,1.29
5558.00,1.30
5557.00,1.30
5556.00,1.30
5555.00,1.30
5554.00,1.30
5553.00,1.30
5552.00,1.30
5551.00,1.30
5550.00,1.30
5549.00,1.30
5548.00,1.30
5547.00,1.30
5546.00,1.30
5545.00,1.30
5544.00,1.31
5543.00,1.31
5542.00,1.31
5541.00,1.31
5540.00,1.31
5539.00,1.31
5538.00,1.31
5537.00,1.31
5536.00,1.31
5535.00,1.31
5534.00,1.32
5533.00,1.32
5532.00,1.32
5531.00,1.32
5530.00,1.32
5529.00,1.32
5528.00,1.32
5527.00,1.32
5526.00,1.32
5525.00,1.32
5524.00,1.32
5523.00,1.32
5522.00,1.32
5521.00,1.33
5520.00,1.33
5519.00,1.33
5518.00,1.33
5517.00,1.33
5516.00,1.33
5515.00,1.33
5514.00,1.33
5513.00,1.33
5512.00,1.33
5511.00,1.33
5510.00,1.33
5509.00,1.33
5508.00,1.33
5507.00,1.33
5506.00,1.33
5505.00,1.34
5504.00,1.34
5503.00,1.34
5502.00,1.34
5501.00,1.34
5500.00,1.34
5499.00,1.34
5498.00,1.34
5497.00,1.34
5496.00,1.34
5495.00,1.34
5494.00,1.34
5493.00,1.34
5492.00,1.34
5491.00,1.34
5490.00,1.34
5489.00,1.34
5488.00,1.34
5487.00,1.34
5486.00,1.35
5485.00,1.35
5484.00,1.35
5483.00,1.35
5482.00,1.35
5481.00,1.35
5480.00,1.35
5479.00,1.35
5478.00,1.35
5477.00,1.35
5476.00,1.35
5475.00,1.36
5474.00,1.36
5473.00,1.36
5472.00,1.36
5471.00,1.36
5470.00,1.36
5469.00,1.36
5468.00,1.36
5467.00,1.37
5466.00,1.37
5465.00,1.37
5464.00,1.37
5463.00,1.37
5462.00,1.37
5461.00,1.37
5460.00,1.37
5459.00,1.37
5458.00,1.37
5457.00,1.37
5456.00,1.37
5455.00,1.37
5454.00,1.37
5453.00,1.37
5452.00,1.37
5451.00,1.37
5450.00,1.37
5449.00,1.37
5448.00,1.37
5447.00,1.37
5446.00,1.37
5445.00,1.37
5444.00,1.37
5443.00,1.37
5442.00,1.37
5441.00,1.37
5440.00,1.37
5439.00,1.37
5438.00,1.37
5437.00,1.37
5436.00,1.37
5435.00,1.37
5434.00,1.37
5433.00,1.37
5432.00,1.37
5431.00,1.37
5430.00,1.37
5429.00,1.37
5428.00,1.37
5427.00,1.37
5426.00,1.37
5425.00,1.37
5424.00,1.37
5423.00,1.37
5422.00,1.37
5421.00,1.37
5420.00,1.37
5419.00,1.37
5418.00,1.36
5417.00,1.36
5416.00,1.36
5415.00,1.36
5414.00,1.36
5413.00,1.36
5412.00,1.36
5411.00,1.36
5410.00,1.36
5409.00,1.36
5408.00,1.35
5407.00,1.35
5406.00,1.35
5405.00,1.35
5404.00,1.35
5403.00,1.35
5402.00,1.35
5401.00,1.35
5400.00,1.35
5399.00,1.35
5398.00,1.34
5397.00,1.34
5396.00,1.34
5395.00,1.34
5394.00,1.34
5393.00,1.33
5392.00,1.33
5391.00,1.33
5390.00,1.33
5389.00,1.32
5388.00,1.32
5387.00,1.32
5386.00,1.31
5385.00,1.31
5384.00,1.30
5383.00,1.30
5382.00,1.30
5381.00,1.29
5380.00,1.29
5379.00,1.28
5378.00,1.28
5377.00,1.27
5376.00,1.27
5375.00,1.26
5374.00,1.26
5373.00,1.25
5372.00,1.25
5371.00,1.24
5370.00,1.24
5369.00,1.23
5368.00,1.23
5367.00,1.22
5366.00,1.22
5365.00,1.21
5364.00,1.21
5363.00,1.20
5362.00,1.19
5361.00,1.19
5360.00,1.18
5359.00,1.18
5358.00,1.17
5357.00,1.16
5356.00,1.16
5355.00,1.15
5354.00,1.14
5353.00,1.13
5352.00,1.13
5351.00,1.12
5350.00,1.11
5349.00,1.10
5348.00,1.10
5347.00,1.09
5346.00,1.08
5345.00,1.07
5344.00,1.07
5343.00,1.06
5342.00,1.05
5341.00,1.05
5340.00,1.04
5339.00,1.03
5338.00,1.03
5337.00,1.02
5336.00,1.01
5335.00,1.01
5334.00,1.00
5333.00,0.99
5332.00,0.99
5331.00,0.98
5330.00,0.98
5329.00,0.97
5328.00,0.97
5327.00,0.96
5326.00,0.96
5325.00,0.95
5324.00,0.95
5323.00,0.94
5322.00,0.94
5321.00,0.93
5320.00,0.93
5319.00,0.92
5318.00,0.92
5317.00,0.91
5316.00,0.91
5315.00,0.90
5314.00,0.90
5313.00,0.90
5312.00,0.89
5311.00,0.89
5310.00,0.89
5309.00,0.88
5308.00,0.88
5307.00,0.88
5306.00,0.87
5305.00,0.87
5304.00,0.87
5303.00,0.87
5302.00,0.86
5301.00,0.86
5300.00,0.86
5299.00,0.86
5298.00,0.86
5297.00,0.86
5296.00,0.85
5295.00,0.85
5294.00,0.85
5293.00,0.85
5292.00,0.85
5291.00,0.85
5290.00,0.85
5289.00,0.85
5288.00,0.85
5287.00,0.85
5286.00,0.85
5285.00,0.85
5284.00,0.85
5283.00,0.85
5282.00,0.85
5281.00,0.85
5280.00,0.85
5279.00,0.85
5278.00,0.85
5277.00,0.85
5276.00,0.85
5275.00,0.85
5274.00,0.85
5273.00,0.85
5272.00,0.84
5271.00,0.84
5270.00,0.84
5269.00,0.84
5268.00,0.84
5267.00,0.84
5266.00,0.84
5265.00,0.84
5264.00,0.84
5263.00,0.84
5262.00,0.84
5261.00,0.84
5260.00,0.84
5259.00,0.84
5258.00,0.84
5257.00,0.84
5256.00,0.84
5255.00,0.84
5254.00,0.84
5253.00,0.84
5252.00,0.84
5251.00,0.84
5250.00,0.85
5249.00,0.85
5248.00,0.85
5247.00,0.85
5246.00,0.85
5245.00,0.85
5244.00,0.85
5243.00,0.85
5242.00,0.85
5241.00,0.85
5240.00,0.86
5239.00,0.86
5238.00,0.86
5237.00,0.86
5236.00,0.86
5235.00,0.86
5234.00,0.86
5233.00,0.86
5232.00,0.86
5231.00,0.86
5230.00,0.86
5229.00,0.86
5228.00,0.86
5227.00,0.86
5226.00,0.86
5225.00,0.86
5224.00,0.86
5223.00,0.86
5222.00,0.86
5221.00,0.86
5220.00,0.86
5219.00,0.86
5218.00,0.86
5217.00,0.86
5216.00,0.86
5215.00,0.86
5214.00,0.86
5213.00,0.86
5212.00,0.86
5211.00,0.86
5210.00,0.86
5209.00,0.86
5208.00,0.86
5207.00,0.86
5206.00,0.86
5205.00,0.86
5204.00,0.86
5203.00,0.86
5202.00,0.86
5201.00,0.86
5200.00,0.86
5199.00,0.86
5198.00,0.86
5197.00,0.86
5196.00,0.87
5195.00,0.87
5194.00,0.87
5193.00,0.87
5192.00,0.87
5191.00,0.87
5190.00,0.87
5189.00,0.87
5188.00,0.87
5187.00,0.87
5186.00,0.87
5185.00,0.87
5184.00,0.87
5183.00,0.87
5182.00,0.87
5181.00,0.87
5180.00,0.87
5179.00,0.87
5178.00,0.87
5177.00,0.87
5176.00,0.87
5175.00,0.87
5174.00,0.87
5173.00,0.87
5172.00,0.87
5171.00,0.88
5170.00,0.88
5169.00,0.88
5168.00,0.88
5167.00,0.88
5166.00,0.88
5165.00,0.88
5164.00,0.88
5163.00,0.88
5162.00,0.88
5161.00,0.88
5160.00,0.88
5159.00,0.88
5158.00,0.88
5157.00,0.88
5156.00,0.88
5155.00,0.88
5154.00,0.88
5153.00,0.88
5152.00,0.88
5151.00,0.88
5150.00,0.89
5149.00,0.89
5148.00,0.89
5147.00,0.89
5146.00,0.89
5145.00,0.89
5144.00,0.89
5143.00,0.89
5142.00,0.89
5141.00,0.89
5140.00,0.89
5139.00,0.89
5138.00,0.89
5137.00,0.89
5136.00,0.89
5135.00,0.89
5134.00,0.89
5133.00,0.90
5132.00,0.90
5131.00,0.90
5130.00,0.90
5129.00,0.90
5128.00,0.90
5127.00,0.90
5126.00,0.90
5125.00,0.90
5124.00,0.90
5123.00,0.90
5122.00,0.90
5121.00,0.90
5120.00,0.90
5119.00,0.90
5118.00,0.90
5117.00,0.90
5116.00,0.90
5115.00,0.90
5114.00,0.90
5113.00,0.90
5112.00,0.91
5111.00,0.91
5110.00,0.91
5109.00,0.91
5108.00,0.91
5107.00,0.91
5106.00,0.91
5105.00,0.91
5104.00,0.91
5103.00,0.91
5102.00,0.91
5101.00,0.91
5100.00,0.91
5099.00,0.91
5098.00,0.92
5097.00,0.92
5096.00,0.92
5095.00,0.92
5094.00,0.92
5093.00,0.92
5092.00,0.92
5091.00,0.92
5090.00,0.92
5089.00,0.92
5088.00,0.92
5087.00,0.92
5086.00,0.92
5085.00,0.92
5084.00,0.92
5083.00,0.92
5082.00,0.92
5081.00,0.92
5080.00,0.92
5079.00,0.92
5078.00,0.92
5077.00,0.92
5076.00,0.92
5075.00,0.92
5074.00,0.92
5073.00,0.92
5072.00,0.92
5071.00,0.92
5070.00,0.92
5069.00,0.92
5068.00,0.92
5067.00,0.92
5066.00,0.92
5065.00,0.92
5064.00,0.92
5063.00,0.92
5062.00,0.92
5061.00,0.92
5060.00,0.92
5059.00,0.93
5058.00,0.93
5057.00,0.93
5056.00,0.93
5055.00,0.93
5054.00,0.93
5053.00,0.93
5052.00,0.93
5051.00,0.93
5050.00,0.93
5049.00,0.93
5048.00,0.93
5047.00,0.93
5046.00,0.93
5045.00,0.93
5044.00,0.93
5043.00,0.93
5042.00,0.93
5041.00,0.93
5040.00,0.93
5039.00,0.93
5038.00,0.93
5037.00,0.93
5036.00,0.93
5035.00,0.93
5034.00,0.93
5033.00,0.93
5032.00,0.93
5031.00,0.94
5030.00,0.94
5029.00,0.94
5028.00,0.94
5027.00,0.94
5026.00,0.94
5025.00,0.94
5024.00,0.94
5023.00,0.94
5022.00,0.94
5021.00,0.94
5020.00,0.94
5019.00,0.94
5018.00,0.94
5017.00,0.94
5016.00,0.94
5015.00,0.95
5014.00,0.95
5013.00,0.95
5012.00,0.95
5011.00,0.95
5010.00,0.95
5009.00,0.95
5008.00,0.95
5007.00,0.95
5006.00,0.95
5005.00,0.95
5004.00,0.95
5003.00,0.95
5002.00,0.95
5001.00,0.95
5000.00,0.95
4999.00,0.95
4998.00,0.95
4997.00,0.95
4996.00,0.95
4995.00,0.95
4994.00,0.95
4993.00,0.95
4992.00,0.95
4991.00,0.95
4990.00,0.95
4989.00,0.95
4988.00,0.95
4987.00,0.95
4986.00,0.95
4985.00,0.95
4984.00,0.95
4983.00,0.95
4982.00,0.95
4981.00,0.95
4980.00,0.96
4979.00,0.96
4978.00,0.96
4977.00,0.96
4976.00,0.96
4975.00,0.96
4974.00,0.96
4973.00,0.96
4972.00,0.96
4971.00,0.96
4970.00,0.96
4969.00,0.96
4968.00,0.96
4967.00,0.96
4966.00,0.96
4965.00,0.97
4964.00,0.97
4963.00,0.97
4962.00,0.97
4961.00,0.97
4960.00,0.97
4959.00,0.97
4958.00,0.97
4957.00,0.97
4956.00,0.97
4955.00,0.97
4954.00,0.97
4953.00,0.97
4952.00,0.97
4951.00,0.97
4950.00,0.97
4949.00,0.97
4948.00,0.97
4947.00,0.97
4946.00,0.97
4945.00,0.97
4944.00,0.97
4943.00,0.97
4942.00,0.97
4941.00,0.97
4940.00,0.97
4939.00,0.97
4938.00,0.97
4937.00,0.97
4936.00,0.97
4935.00,0.97
4934.00,0.98
4933.00,0.98
4932.00,0.98
4931.00,0.98
4930.00,0.98
4929.00,0.98
4928.00,0.98
4927.00,0.98
4926.00,0.98
4925.00,0.98
4924.00,0.98
4923.00,0.98
4922.00,0.99
4921.00,0.99
4920.00,0.99
4919.00,0.99
4918.00,0.99
4917.00,0.99
4916.00,0.99
4915.00,0.99
4914.00,0.99
4913.00,0.99
4912.00,0.99
4911.00,0.99
4910.00,0.99
4909.00,0.99
4908.00,0.99
4907.00,0.99
4906.00,0.99
4905.00,0.99
4904.00,0.99
4903.00,0.99
4902.00,0.99
4901.00,0.99
4900.00,0.99
4899.00,0.99
4898.00,0.99
4897.00,0.99
4896.00,0.99
4895.00,0.99
4894.00,0.99
4893.00,0.99
4892.00,0.99
4891.00,1.00
4890.00,1.00
4889.00,1.00
4888.00,1.00
4887.00,1.00
4886.00,1.00
4885.00,1.00
4884.00,1.00
4883.00,1.00
4882.00,1.00
4881.00,1.00
4880.00,1.00
4879.00,1.00
4878.00,1.00
4877.00,1.00
4876.00,1.00
4875.00,1.00
4874.00,1.00
4873.00,1.00
4872.00,1.00
4871.00,1.01
4870.00,1.01
4869.00,1.01
4868.00,1.01
4867.00,1.01
4866.00,1.01
4865.00,1.01
4864.00,1.01
4863.00,1.01
4862.00,1.01
4861.00,1.01
4860.00,1.01
4859.00,1.01
4858.00,1.01
4857.00,1.01
4856.00,1.01
4855.00,1.01
4854.00,1.01
4853.00,1.01
4852.00,1.01
4851.00,1.01
4850.00,1.01
4849.00,1.01
4848.00,1.01
4847.00,1.01
4846.00,1.01
4845.00,1.02
4844.00,1.02
4843.00,1.02
4842.00,1.02
4841.00,1.02
4840.00,1.02
4839.00,1.02
4838.00,1.02
4837.00,1.02
4836.00,1.03
4835.00,1.03
4834.00,1.03
4833.00,1.03
4832.00,1.03
4831.00,1.03
4830.00,1.03
4829.00,1.03
4828.00,1.03
4827.00,1.03
4826.00,1.03
4825.00,1.03
4824.00,1.04
4823.00,1.04
4822.00,1.04
4821.00,1.04
4820.00,1.04
4819.00,1.04
4818.00,1.04
4817.00,1.04
4816.00,1.04
4815.00,1.04
4814.00,1.04
4813.00,1.04
4812.00,1.04
4811.00,1.04
4810.00,1.04
4809.00,1.04
4808.00,1.04
4807.00,1.04
4806.00,1.04
4805.00,1.04
4804.00,1.04
4803.00,1.04
4802.00,1.04
4801.00,1.04
4800.00,1.04
4799.00,1.05
4798.00,1.05
4797.00,1.05
4796.00,1.05
4795.00,1.05
4794.00,1.05
4793.00,1.05
4792.00,1.05
4791.00,1.05
4790.00,1.05
4789.00,1.05
4788.00,1.05
4787.00,1.05
4786.00,1.06
4785.00,1.06
4784.00,1.06
4783.00,1.06
4782.00,1.06
4781.00,1.06
4780.00,1.06
4779.00,1.06
4778.00,1.06
4777.00,1.06
4776.00,1.06
4775.00,1.06
4774.00,1.06
4773.00,1.06
4772.00,1.06
4771.00,1.06
4770.00,1.06
4769.00,1.06
4768.00,1.07
4767.00,1.07
4766.00,1.07
4765.00,1.07
4764.00,1.07
4763.00,1.07
4762.00,1.07
4761.00,1.07
4760.00,1.07
4759.00,1.07
4758.00,1.07
4757.00,1.07
4756.00,1.07
4755.00,1.07
4754.00,1.07
4753.00,1.08
4752.00,1.08
4751.00,1.08
4750.00,1.08
4749.00,1.08
4748.00,1.08
4747.00,1.08
4746.00,1.08
4745.00,1.08
4744.00,1.08
4743.00,1.08
4742.00,1.08
4741.00,1.08
4740.00,1.08
4739.00,1.09
4738.00,1.09
4737.00,1.09
4736.00,1.09
4735.00,1.09
4734.00,1.09
4733.00,1.09
4732.00,1.09
4731.00,1.10
4730.00,1.10
4729.00,1.10
4728.00,1.10
4727.00,1.10
4726.00,1.10
4725.00,1.11
4724.00,1.11
4723.00,1.11
4722.00,1.11
4721.00,1.11
4720.00,1.11
4719.00,1.11
4718.00,1.11
4717.00,1.11
4716.00,1.11
4715.00,1.11
4714.00,1.11
4713.00,1.11
4712.00,1.11
4711.00,1.11
4710.00,1.11
4709.00,1.11
4708.00,1.11
4707.00,1.12
4706.00,1.12
4705.00,1.12
4704.00,1.12
4703.00,1.12
4702.00,1.12
4701.00,1.12
4700.00,1.13
4699.00,1.13
4698.00,1.13
4697.00,1.13
4696.00,1.13
4695.00,1.13
4694.00,1.13
4693.00,1.14
4692.00,1.14
4691.00,1.14
4690.00,1.14
4689.00,1.14
4688.00,1.14
4687.00,1.14
4686.00,1.14
4685.00,1.14
4684.00,1.14
4683.00,1.15
4682.00,1.15
4681.00,1.15
4680.00,1.15
4679.00,1.15
4678.00,1.15
4677.00,1.15
4676.00,1.15
4675.00,1.15
4674.00,1.15
4673.00,1.15
4672.00,1.16
4671.00,1.16
4670.00,1.16
4669.00,1.16
4668.00,1.16
4667.00,1.16
4666.00,1.16
4665.00,1.17
4664.00,1.17
4663.00,1.17
4662.00,1.17
4661.00,1.17
4660.00,1.17
4659.00,1.17
4658.00,1.17
4657.00,1.18
4656.00,1.18
4655.00,1.18
4654.00,1.18
4653.00,1.18
4652.00,1.18
4651.00,1.18
4650.00,1.18
4649.00,1.18
4648.00,1.18
4647.00,1.18
4646.00,1.18
4645.00,1.18
4644.00,1.18
4643.00,1.18
4642.00,1.18
4641.00,1.18
4640.00,1.18
4639.00,1.18
4638.00,1.18
4637.00,1.18
4636.00,1.19
4635.00,1.19
4634.00,1.19
4633.00,1.19
4632.00,1.19
4631.00,1.19
4630.00,1.19
4629.00,1.20
4628.00,1.20
4627.00,1.20
4626.00,1.20
4625.00,1.20
4624.00,1.20
4623.00,1.20
4622.00,1.20
4621.00,1.20
4620.00,1.20
4619.00,1.20
4618.00,1.20
4617.00,1.20
4616.00,1.20
4615.00,1.21
4614.00,1.21
4613.00,1.21
4612.00,1.21
4611.00,1.21
4610.00,1.21
4609.00,1.21
4608.00,1.21
4607.00,1.21
4606.00,1.21
4605.00,1.21
4604.00,1.21
4603.00,1.21
4602.00,1.21
4601.00,1.21
4600.00,1.21
4599.00,1.21
4598.00,1.21
4597.00,1.21
4596.00,1.21
4595.00,1.21
4594.00,1.21
4593.00,1.21
4592.00,1.21
4591.00,1.21
4590.00,1.21
4589.00,1.21
4588.00,1.21
4587.00,1.21
4586.00,1.21
4585.00,1.21
4584.00,1.21
4583.00,1.22
4582.00,1.22
4581.00,1.22
4580.00,1.22
4579.00,1.22
4578.00,1.22
4577.00,1.22
4576.00,1.23
4575.00,1.23
4574.00,1.23
4573.00,1.23
4572.00,1.23
4571.00,1.23
4570.00,1.23
4569.00,1.24
4568.00,1.24
4567.00,1.24
4566.00,1.24
4565.00,1.24
4564.00,1.24
4563.00,1.24
4562.00,1.24
4561.00,1.24
4560.00,1.24
4559.00,1.24
4558.00,1.24
4557.00,1.24
4556.00,1.24
4555.00,1.24
4554.00,1.23
4553.00,1.23
4552.00,1.23
4551.00,1.23
4550.00,1.23
4549.00,1.24
4548.00,1.24
4547.00,1.24
4546.00,1.24
4545.00,1.24
4544.00,1.24
4543.00,1.24
4542.00,1.24
4541.00,1.24
4540.00,1.24
4539.00,1.24
4538.00,1.24
4537.00,1.24
4536.00,1.24
4535.00,1.24
4534.00,1.24
4533.00,1.24
4532.00,1.24
4531.00,1.24
4530.00,1.24
4529.00,1.24
4528.00,1.24
4527.00,1.24
4526.00,1.24
4525.00,1.24
4524.00,1.24
4523.00,1.24
4522.00,1.24
4521.00,1.24
4520.00,1.24
4519.00,1.24
4518.00,1.24
4517.00,1.25
4516.00,1.25
4515.00,1.25
4514.00,1.25
4513.00,1.25
4512.00,1.25
4511.00,1.25
4510.00,1.25
4509.00,1.25
4508.00,1.25
4507.00,1.25
4506.00,1.25
4505.00,1.25
4504.00,1.25
4503.00,1.25
4502.00,1.25
4501.00,1.25
4500.00,1.25
4499.00,1.25
4498.00,1.26
4497.00,1.26
4496.00,1.26
4495.00,1.26
4494.00,1.26
4493.00,1.26
4492.00,1.26
4491.00,1.25
4490.00,1.25
4489.00,1.25
4488.00,1.25
4487.00,1.25
4486.00,1.25
4485.00,1.25
4484.00,1.25
4483.00,1.25
4482.00,1.25
4481.00,1.25
4480.00,1.25
4479.00,1.25
4478.00,1.25
4477.00,1.25
4476.00,1.25
4475.00,1.25
4474.00,1.24
4473.00,1.24
4472.00,1.24
4471.00,1.24
4470.00,1.24
4469.00,1.24
4468.00,1.24
4467.00,1.24
4466.00,1.24
4465.00,1.24
4464.00,1.24
4463.00,1.24
4462.00,1.24
4461.00,1.24
4460.00,1.24
4459.00,1.23
4458.00,1.23
4457.00,1.23
4456.00,1.23
4455.00,1.23
4454.00,1.23
4453.00,1.23
4452.00,1.22
4451.00,1.22
4450.00,1.22
4449.00,1.22
4448.00,1.22
4447.00,1.21
4446.00,1.21
4445.00,1.21
4444.00,1.21
4443.00,1.21
4442.00,1.20
4441.00,1.20
4440.00,1.20
4439.00,1.20
4438.00,1.20
4437.00,1.20
4436.00,1.19
4435.00,1.19
4434.00,1.19
4433.00,1.19
4432.00,1.19
4431.00,1.19
4430.00,1.19
4429.00,1.19
4428.00,1.19
4427.00,1.19
4426.00,1.18
4425.00,1.18
4424.00,1.18
4423.00,1.18
4422.00,1.18
4421.00,1.18
4420.00,1.18
4419.00,1.18
4418.00,1.18
4417.00,1.18
4416.00,1.18
4415.00,1.18
4414.00,1.18
4413.00,1.18
4412.00,1.18
4411.00,1.18
4410.00,1.18
4409.00,1.18
4408.00,1.18
4407.00,1.18
4406.00,1.18
4405.00,1.19
4404.00,1.19
4403.00,1.19
4402.00,1.19
4401.00,1.19
4400.00,1.19
4399.00,1.19
4398.00,1.19
4397.00,1.19
4396.00,1.19
4395.00,1.20
4394.00,1.20
4393.00,1.20
4392.00,1.20
4391.00,1.20
4390.00,1.20
4389.00,1.20
4388.00,1.20
4387.00,1.20
4386.00,1.20
4385.00,1.20
4384.00,1.21
4383.00,1.21
4382.00,1.21
4381.00,1.21
4380.00,1.21
4379.00,1.21
4378.00,1.21
4377.00,1.21
4376.00,1.21
4375.00,1.21
4374.00,1.21
4373.00,1.21
4372.00,1.21
4371.00,1.21
4370.00,1.21
4369.00,1.21
4368.00,1.21
4367.00,1.21
4366.00,1.21
4365.00,1.21
4364.00,1.21
4363.00,1.21
4362.00,1.21
4361.00,1.21
4360.00,1.21
4359.00,1.20
4358.00,1.20
4357.00,1.20
4356.00,1.20
4355.00,1.20
4354.00,1.20
4353.00,1.20
4352.00,1.20
4351.00,1.20
4350.00,1.20
4349.00,1.20
4348.00,1.20
4347.00,1.20
4346.00,1.20
4345.00,1.21
4344.00,1.21
4343.00,1.21
4342.00,1.21
4341.00,1.21
4340.00,1.21
4339.00,1.21
4338.00,1.21
4337.00,1.21
4336.00,1.21
4335.00,1.21
4334.00,1.21
4333.00,1.21
4332.00,1.21
4331.00,1.22
4330.00,1.22
4329.00,1.22
4328.00,1.22
4327.00,1.22
4326.00,1.22
4325.00,1.22
4324.00,1.22
4323.00,1.23
4322.00,1.23
4321.00,1.23
4320.00,1.23
4319.00,1.23
4318.00,1.23
4317.00,1.23
4316.00,1.23
4315.00,1.23
4314.00,1.24
4313.00,1.24
4312.00,1.24
4311.00,1.24
4310.00,1.24
4309.00,1.24
4308.00,1.24
4307.00,1.25
4306.00,1.25
4305.00,1.25
4304.00,1.25
4303.00,1.25
4302.00,1.25
4301.00,1.25
4300.00,1.25
4299.00,1.26
4298.00,1.26
4297.00,1.26
4296.00,1.26
4295.00,1.26
4294.00,1.26
4293.00,1.26
4292.00,1.26
4291.00,1.26
4290.00,1.26
4289.00,1.26
4288.00,1.26
4287.00,1.26
4286.00,1.26
4285.00,1.26
4284.00,1.26
4283.00,1.26
4282.00,1.26
4281.00,1.26
4280.00,1.26
4279.00,1.26
4278.00,1.26
4277.00,1.26
4276.00,1.26
4275.00,1.26
4274.00,1.26
4273.00,1.26
4272.00,1.26
4271.00,1.26
4270.00,1.26
4269.00,1.26
4268.00,1.26
4267.00,1.26
4266.00,1.26
4265.00,1.26
4264.00,1.26
4263.00,1.26
4262.00,1.26
4261.00,1.26
4260.00,1.26
4259.00,1.27
4258.00,1.27
4257.00,1.27
4256.00,1.27
4255.00,1.27
4254.00,1.27
4253.00,1.27
4252.00,1.27
4251.00,1.27
4250.00,1.27
4249.00,1.27
4248.00,1.27
4247.00,1.27
4246.00,1.28
4245.00,1.28
4244.00,1.28
4243.00,1.28
4242.00,1.28
4241.00,1.28
4240.00,1.28
4239.00,1.28
4238.00,1.28
4237.00,1.28
4236.00,1.28
4235.00,1.28
4234.00,1.28
4233.00,1.28
4232.00,1.28
4231.00,1.28
4230.00,1.28
4229.00,1.28
4228.00,1.28
4227.00,1.28
4226.00,1.28
4225.00,1.28
4224.00,1.28
4223.00,1.28
4222.00,1.28
4221.00,1.28
4220.00,1.28
4219.00,1.28
4218.00,1.28
4217.00,1.28
4216.00,1.28
4215.00,1.28
4214.00,1.28
4213.00,1.28
4212.00,1.28
4211.00,1.28
4210.00,1.28
4209.00,1.28
4208.00,1.28
4207.00,1.28
4206.00,1.28
4205.00,1.28
4204.00,1.28
4203.00,1.28
4202.00,1.28
4201.00,1.28
4200.00,1.28
4199.00,1.28
4198.00,1.28
4197.00,1.28
4196.00,1.28
4195.00,1.28
4194.00,1.28
4193.00,1.28
4192.00,1.28
4191.00,1.28
4190.00,1.28
4189.00,1.28
4188.00,1.28
4187.00,1.29
4186.00,1.29
4185.00,1.29
4184.00,1.29
4183.00,1.29
4182.00,1.29
4181.00,1.29
4180.00,1.29
4179.00,1.29
4178.00,1.29
4177.00,1.30
4176.00,1.30
4175.00,1.30
4174.00,1.30
4173.00,1.30
4172.00,1.30
4171.00,1.30
4170.00,1.30
4169.00,1.30
4168.00,1.30
4167.00,1.30
4166.00,1.31
4165.00,1.31
4164.00,1.31
4163.00,1.31
4162.00,1.31
4161.00,1.31
4160.00,1.31
4159.00,1.32
4158.00,1.32
4157.00,1.32
4156.00,1.32
4155.00,1.32
4154.00,1.32
4153.00,1.32
4152.00,1.32
4151.00,1.32
4150.00,1.32
4149.00,1.32
4148.00,1.32
4147.00,1.32
4146.00,1.32
4145.00,1.32
4144.00,1.32
4143.00,1.32
4142.00,1.32
4141.00,1.32
4140.00,1.32
4139.00,1.31
4138.00,1.31
4137.00,1.31
4136.00,1.31
4135.00,1.31
4134.00,1.31
4133.00,1.31
4132.00,1.31
4131.00,1.31
4130.00,1.31
4129.00,1.31
4128.00,1.31
4127.00,1.31
4126.00,1.31
4125.00,1.31
4124.00,1.31
4123.00,1.31
4122.00,1.31
4121.00,1.31
4120.00,1.31
4119.00,1.31
4118.00,1.31
4117.00,1.31
4116.00,1.32
4115.00,1.32
4114.00,1.32
4113.00,1.32
4112.00,1.32
4111.00,1.32
4110.00,1.32
4109.00,1.32
4108.00,1.32
4107.00,1.33
4106.00,1.33
4105.00,1.33
4104.00,1.33
4103.00,1.33
4102.00,1.33
4101.00,1.33
4100.00,1.33
4099.00,1.33
4098.00,1.34
4097.00,1.34
4096.00,1.34
4095.00,1.34
4094.00,1.34
4093.00,1.34
4092.00,1.34
4091.00,1.34
4090.00,1.34
4089.00,1.34
4088.00,1.34
4087.00,1.35
4086.00,1.35
4085.00,1.35
4084.00,1.35
4083.00,1.35
4082.00,1.35
4081.00,1.35
4080.00,1.35
4079.00,1.35
4078.00,1.35
4077.00,1.35
4076.00,1.35
4075.00,1.35
4074.00,1.35
4073.00,1.35
4072.00,1.35
4071.00,1.35
4070.00,1.35
4069.00,1.35
4068.00,1.35
4067.00,1.35
4066.00,1.36
4065.00,1.36
4064.00,1.36
4063.00,1.36
4062.00,1.36
4061.00,1.36
4060.00,1.36
4059.00,1.36
4058.00,1.36
4057.00,1.36
4056.00,1.36
4055.00,1.36
4054.00,1.36
4053.00,1.36
4052.00,1.36
4051.00,1.36
4050.00,1.36
4049.00,1.36
4048.00,1.36
4047.00,1.36
4046.00,1.36
4045.00,1.36
4044.00,1.36
4043.00,1.36
4042.00,1.35
4041.00,1.35
4040.00,1.35
4039.00,1.35
4038.00,1.35
4037.00,1.35
4036.00,1.35
4035.00,1.35
4034.00,1.35
4033.00,1.35
4032.00,1.35
4031.00,1.35
4030.00,1.35
4029.00,1.35
4028.00,1.36
4027.00,1.36
4026.00,1.36
4025.00,1.36
4024.00,1.36
4023.00,1.36
4022.00,1.36
4021.00,1.37
4020.00,1.37
4019.00,1.37
4018.00,1.37
4017.00,1.37
4016.00,1.37
4015.00,1.37
4014.00,1.37
4013.00,1.37
4012.00,1.37
4011.00,1.37
4010.00,1.37
4009.00,1.37
4008.00,1.37
4007.00,1.37
4006.00,1.37
4005.00,1.37
4004.00,1.37
4003.00,1.37
4002.00,1.37
4001.00,1.37
4000.00,1.37
