创建为新数据集,样品 282 用户 Administrator 日期 星期日, 七月 22 2018
cm-1,%T
10000.00,1.40
9999.00,1.39
9998.00,1.39
9997.00,1.39
9996.00,1.39
9995.00,1.39
9994.00,1.39
9993.00,1.39
9992.00,1.39
9991.00,1.39
9990.00,1.39
9989.00,1.39
9988.00,1.38
9987.00,1.38
9986.00,1.38
9985.00,1.38
9984.00,1.38
9983.00,1.37
9982.00,1.37
9981.00,1.37
9980.00,1.36
9979.00,1.36
9978.00,1.36
9977.00,1.35
9976.00,1.35
9975.00,1.34
9974.00,1.34
9973.00,1.33
9972.00,1.33
9971.00,1.33
9970.00,1.32
9969.00,1.32
9968.00,1.32
9967.00,1.32
9966.00,1.32
9965.00,1.32
9964.00,1.32
9963.00,1.32
9962.00,1.32
9961.00,1.32
9960.00,1.32
9959.00,1.33
9958.00,1.33
9957.00,1.33
9956.00,1.34
9955.00,1.34
9954.00,1.35
9953.00,1.35
9952.00,1.35
9951.00,1.36
9950.00,1.36
9949.00,1.36
9948.00,1.37
9947.00,1.37
9946.00,1.37
9945.00,1.38
9944.00,1.38
9943.00,1.38
9942.00,1.38
9941.00,1.38
9940.00,1.39
9939.00,1.39
9938.00,1.39
9937.00,1.39
9936.00,1.39
9935.00,1.39
9934.00,1.39
9933.00,1.39
9932.00,1.39
9931.00,1.39
9930.00,1.39
9929.00,1.39
9928.00,1.39
9927.00,1.39
9926.00,1.39
9925.00,1.39
9924.00,1.39
9923.00,1.39
9922.00,1.39
9921.00,1.39
9920.00,1.39
9919.00,1.39
9918.00,1.39
9917.00,1.39
9916.00,1.38
9915.00,1.38
9914.00,1.38
9913.00,1.38
9912.00,1.38
9911.00,1.37
9910.00,1.37
9909.00,1.37
9908.00,1.37
9907.00,1.37
9906.00,1.36
9905.00,1.36
9904.00,1.36
9903.00,1.36
9902.00,1.36
9901.00,1.35
9900.00,1.35
9899.00,1.35
9898.00,1.35
9897.00,1.35
9896.00,1.34
9895.00,1.34
9894.00,1.34
9893.00,1.34
9892.00,1.34
9891.00,1.33
9890.00,1.33
9889.00,1.33
9888.00,1.33
9887.00,1.33
9886.00,1.33
9885.00,1.33
9884.00,1.33
9883.00,1.33
9882.00,1.33
9881.00,1.34
9880.00,1.34
9879.00,1.34
9878.00,1.34
9877.00,1.35
9876.00,1.35
9875.00,1.35
9874.00,1.36
9873.00,1.36
9872.00,1.36
9871.00,1.37
9870.00,1.37
9869.00,1.37
9868.00,1.38
9867.00,1.38
9866.00,1.38
9865.00,1.39
9864.00,1.39
9863.00,1.39
9862.00,1.39
9861.00,1.39
9860.00,1.39
9859.00,1.39
9858.00,1.39
9857.00,1.39
9856.00,1.39
9855.00,1.39
9854.00,1.39
9853.00,1.38
9852.00,1.38
9851.00,1.38
9850.00,1.37
9849.00,1.37
9848.00,1.37
9847.00,1.36
9846.00,1.36
9845.00,1.36
9844.00,1.35
9843.00,1.35
9842.00,1.35
9841.00,1.35
9840.00,1.34
9839.00,1.34
9838.00,1.34
9837.00,1.34
9836.00,1.34
9835.00,1.34
9834.00,1.34
9833.00,1.34
9832.00,1.34
9831.00,1.34
9830.00,1.34
9829.00,1.34
9828.00,1.34
9827.00,1.34
9826.00,1.34
9825.00,1.34
9824.00,1.35
9823.00,1.35
9822.00,1.35
9821.00,1.35
9820.00,1.35
9819.00,1.35
9818.00,1.35
9817.00,1.36
9816.00,1.36
9815.00,1.36
9814.00,1.36
9813.00,1.36
9812.00,1.36
9811.00,1.37
9810.00,1.37
9809.00,1.37
9808.00,1.37
9807.00,1.38
9806.00,1.38
9805.00,1.38
9804.00,1.39
9803.00,1.39
9802.00,1.39
9801.00,1.40
9800.00,1.40
9799.00,1.40
9798.00,1.40
9797.00,1.40
9796.00,1.40
9795.00,1.40
9794.00,1.40
9793.00,1.40
9792.00,1.39
9791.00,1.39
9790.00,1.39
9789.00,1.39
9788.00,1.38
9787.00,1.38
9786.00,1.38
9785.00,1.37
9784.00,1.37
9783.00,1.37
9782.00,1.37
9781.00,1.37
9780.00,1.37
9779.00,1.37
9778.00,1.36
9777.00,1.36
9776.00,1.36
9775.00,1.36
9774.00,1.36
9773.00,1.36
9772.00,1.36
9771.00,1.36
9770.00,1.36
9769.00,1.36
9768.00,1.36
9767.00,1.36
9766.00,1.36
9765.00,1.36
9764.00,1.36
9763.00,1.36
9762.00,1.36
9761.00,1.36
9760.00,1.37
9759.00,1.37
9758.00,1.37
9757.00,1.37
9756.00,1.37
9755.00,1.37
9754.00,1.37
9753.00,1.37
9752.00,1.37
9751.00,1.38
9750.00,1.38
9749.00,1.38
9748.00,1.38
9747.00,1.38
9746.00,1.38
9745.00,1.38
9744.00,1.38
9743.00,1.38
9742.00,1.38
9741.00,1.38
9740.00,1.38
9739.00,1.39
9738.00,1.39
9737.00,1.39
9736.00,1.39
9735.00,1.39
9734.00,1.39
9733.00,1.39
9732.00,1.39
9731.00,1.39
9730.00,1.39
9729.00,1.39
9728.00,1.39
9727.00,1.39
9726.00,1.39
9725.00,1.39
9724.00,1.39
9723.00,1.39
9722.00,1.39
9721.00,1.39
9720.00,1.39
9719.00,1.39
9718.00,1.39
9717.00,1.39
9716.00,1.39
9715.00,1.39
9714.00,1.39
9713.00,1.38
9712.00,1.38
9711.00,1.38
9710.00,1.38
9709.00,1.38
9708.00,1.38
9707.00,1.38
9706.00,1.38
9705.00,1.38
9704.00,1.38
9703.00,1.38
9702.00,1.38
9701.00,1.38
9700.00,1.37
9699.00,1.37
9698.00,1.37
9697.00,1.37
9696.00,1.37
9695.00,1.37
9694.00,1.37
9693.00,1.37
9692.00,1.37
9691.00,1.37
9690.00,1.37
9689.00,1.37
9688.00,1.37
9687.00,1.37
9686.00,1.37
9685.00,1.38
9684.00,1.38
9683.00,1.38
9682.00,1.38
9681.00,1.38
9680.00,1.38
9679.00,1.38
9678.00,1.38
9677.00,1.38
9676.00,1.37
9675.00,1.37
9674.00,1.37
9673.00,1.37
9672.00,1.36
9671.00,1.36
9670.00,1.36
9669.00,1.35
9668.00,1.35
9667.00,1.35
9666.00,1.35
9665.00,1.35
9664.00,1.35
9663.00,1.35
9662.00,1.35
9661.00,1.35
9660.00,1.35
9659.00,1.35
9658.00,1.35
9657.00,1.36
9656.00,1.36
9655.00,1.36
9654.00,1.36
9653.00,1.37
9652.00,1.37
9651.00,1.37
9650.00,1.37
9649.00,1.37
9648.00,1.37
9647.00,1.37
9646.00,1.37
9645.00,1.37
9644.00,1.37
9643.00,1.37
9642.00,1.37
9641.00,1.37
9640.00,1.37
9639.00,1.37
9638.00,1.37
9637.00,1.37
9636.00,1.36
9635.00,1.36
9634.00,1.36
9633.00,1.36
9632.00,1.36
9631.00,1.36
9630.00,1.36
9629.00,1.36
9628.00,1.36
9627.00,1.36
9626.00,1.36
9625.00,1.36
9624.00,1.36
9623.00,1.36
9622.00,1.36
9621.00,1.36
9620.00,1.36
9619.00,1.36
9618.00,1.36
9617.00,1.36
9616.00,1.37
9615.00,1.37
9614.00,1.37
9613.00,1.37
9612.00,1.37
9611.00,1.37
9610.00,1.37
9609.00,1.37
9608.00,1.37
9607.00,1.37
9606.00,1.37
9605.00,1.37
9604.00,1.37
9603.00,1.37
9602.00,1.37
9601.00,1.37
9600.00,1.37
9599.00,1.37
9598.00,1.36
9597.00,1.36
9596.00,1.36
9595.00,1.36
9594.00,1.36
9593.00,1.36
9592.00,1.36
9591.00,1.36
9590.00,1.36
9589.00,1.36
9588.00,1.36
9587.00,1.36
9586.00,1.35
9585.00,1.35
9584.00,1.35
9583.00,1.35
9582.00,1.35
9581.00,1.35
9580.00,1.35
9579.00,1.36
9578.00,1.36
9577.00,1.36
9576.00,1.36
9575.00,1.36
9574.00,1.36
9573.00,1.36
9572.00,1.36
9571.00,1.37
9570.00,1.37
9569.00,1.37
9568.00,1.37
9567.00,1.37
9566.00,1.37
9565.00,1.37
9564.00,1.37
9563.00,1.37
9562.00,1.37
9561.00,1.37
9560.00,1.37
9559.00,1.36
9558.00,1.36
9557.00,1.36
9556.00,1.36
9555.00,1.36
9554.00,1.36
9553.00,1.36
9552.00,1.36
9551.00,1.36
9550.00,1.36
9549.00,1.36
9548.00,1.36
9547.00,1.36
9546.00,1.36
9545.00,1.36
9544.00,1.36
9543.00,1.36
9542.00,1.36
9541.00,1.36
9540.00,1.36
9539.00,1.36
9538.00,1.36
9537.00,1.36
9536.00,1.36
9535.00,1.36
9534.00,1.36
9533.00,1.36
9532.00,1.36
9531.00,1.36
9530.00,1.36
9529.00,1.36
9528.00,1.35
9527.00,1.35
9526.00,1.35
9525.00,1.35
9524.00,1.35
9523.00,1.35
9522.00,1.35
9521.00,1.35
9520.00,1.35
9519.00,1.35
9518.00,1.35
9517.00,1.35
9516.00,1.35
9515.00,1.35
9514.00,1.35
9513.00,1.35
9512.00,1.35
9511.00,1.35
9510.00,1.35
9509.00,1.35
9508.00,1.35
9507.00,1.35
9506.00,1.36
9505.00,1.36
9504.00,1.36
9503.00,1.36
9502.00,1.36
9501.00,1.37
9500.00,1.37
9499.00,1.37
9498.00,1.37
9497.00,1.37
9496.00,1.37
9495.00,1.37
9494.00,1.37
9493.00,1.37
9492.00,1.37
9491.00,1.37
9490.00,1.37
9489.00,1.37
9488.00,1.37
9487.00,1.37
9486.00,1.37
9485.00,1.36
9484.00,1.36
9483.00,1.36
9482.00,1.36
9481.00,1.36
9480.00,1.36
9479.00,1.36
9478.00,1.36
9477.00,1.36
9476.00,1.36
9475.00,1.36
9474.00,1.36
9473.00,1.36
9472.00,1.36
9471.00,1.36
9470.00,1.36
9469.00,1.36
9468.00,1.36
9467.00,1.36
9466.00,1.36
9465.00,1.36
9464.00,1.36
9463.00,1.36
9462.00,1.36
9461.00,1.36
9460.00,1.36
9459.00,1.36
9458.00,1.36
9457.00,1.36
9456.00,1.37
9455.00,1.37
9454.00,1.37
9453.00,1.37
9452.00,1.37
9451.00,1.37
9450.00,1.37
9449.00,1.37
9448.00,1.36
9447.00,1.36
9446.00,1.36
9445.00,1.36
9444.00,1.36
9443.00,1.36
9442.00,1.36
9441.00,1.36
9440.00,1.36
9439.00,1.36
9438.00,1.36
9437.00,1.36
9436.00,1.36
9435.00,1.36
9434.00,1.36
9433.00,1.36
9432.00,1.36
9431.00,1.36
9430.00,1.36
9429.00,1.36
9428.00,1.36
9427.00,1.36
9426.00,1.36
9425.00,1.36
9424.00,1.36
9423.00,1.36
9422.00,1.36
9421.00,1.36
9420.00,1.36
9419.00,1.35
9418.00,1.35
9417.00,1.35
9416.00,1.35
9415.00,1.35
9414.00,1.35
9413.00,1.35
9412.00,1.35
9411.00,1.35
9410.00,1.35
9409.00,1.36
9408.00,1.36
9407.00,1.36
9406.00,1.36
9405.00,1.36
9404.00,1.36
9403.00,1.36
9402.00,1.37
9401.00,1.37
9400.00,1.37
9399.00,1.37
9398.00,1.37
9397.00,1.37
9396.00,1.37
9395.00,1.37
9394.00,1.37
9393.00,1.37
9392.00,1.37
9391.00,1.37
9390.00,1.37
9389.00,1.37
9388.00,1.37
9387.00,1.37
9386.00,1.37
9385.00,1.37
9384.00,1.37
9383.00,1.37
9382.00,1.37
9381.00,1.37
9380.00,1.37
9379.00,1.37
9378.00,1.37
9377.00,1.37
9376.00,1.37
9375.00,1.37
9374.00,1.36
9373.00,1.36
9372.00,1.36
9371.00,1.36
9370.00,1.36
9369.00,1.36
9368.00,1.36
9367.00,1.36
9366.00,1.36
9365.00,1.36
9364.00,1.36
9363.00,1.36
9362.00,1.35
9361.00,1.35
9360.00,1.35
9359.00,1.35
9358.00,1.35
9357.00,1.35
9356.00,1.35
9355.00,1.35
9354.00,1.36
9353.00,1.36
9352.00,1.36
9351.00,1.36
9350.00,1.36
9349.00,1.36
9348.00,1.36
9347.00,1.36
9346.00,1.36
9345.00,1.36
9344.00,1.36
9343.00,1.36
9342.00,1.36
9341.00,1.36
9340.00,1.36
9339.00,1.36
9338.00,1.35
9337.00,1.35
9336.00,1.35
9335.00,1.35
9334.00,1.35
9333.00,1.35
9332.00,1.35
9331.00,1.35
9330.00,1.35
9329.00,1.35
9328.00,1.35
9327.00,1.35
9326.00,1.35
9325.00,1.35
9324.00,1.35
9323.00,1.35
9322.00,1.35
9321.00,1.35
9320.00,1.36
9319.00,1.36
9318.00,1.36
9317.00,1.36
9316.00,1.36
9315.00,1.36
9314.00,1.36
9313.00,1.36
9312.00,1.35
9311.00,1.35
9310.00,1.35
9309.00,1.35
9308.00,1.35
9307.00,1.35
9306.00,1.35
9305.00,1.35
9304.00,1.35
9303.00,1.35
9302.00,1.35
9301.00,1.35
9300.00,1.35
9299.00,1.35
9298.00,1.35
9297.00,1.35
9296.00,1.35
9295.00,1.35
9294.00,1.35
9293.00,1.35
9292.00,1.36
9291.00,1.36
9290.00,1.36
9289.00,1.36
9288.00,1.36
9287.00,1.37
9286.00,1.37
9285.00,1.37
9284.00,1.37
9283.00,1.37
9282.00,1.38
9281.00,1.38
9280.00,1.38
9279.00,1.38
9278.00,1.39
9277.00,1.39
9276.00,1.39
9275.00,1.39
9274.00,1.39
9273.00,1.39
9272.00,1.39
9271.00,1.39
9270.00,1.39
9269.00,1.39
9268.00,1.39
9267.00,1.39
9266.00,1.39
9265.00,1.39
9264.00,1.39
9263.00,1.39
9262.00,1.39
9261.00,1.39
9260.00,1.38
9259.00,1.38
9258.00,1.38
9257.00,1.38
9256.00,1.38
9255.00,1.38
9254.00,1.37
9253.00,1.37
9252.00,1.37
9251.00,1.37
9250.00,1.37
9249.00,1.36
9248.00,1.36
9247.00,1.36
9246.00,1.36
9245.00,1.36
9244.00,1.36
9243.00,1.36
9242.00,1.36
9241.00,1.36
9240.00,1.36
9239.00,1.36
9238.00,1.36
9237.00,1.36
9236.00,1.36
9235.00,1.36
9234.00,1.36
9233.00,1.36
9232.00,1.36
9231.00,1.36
9230.00,1.36
9229.00,1.36
9228.00,1.36
9227.00,1.36
9226.00,1.36
9225.00,1.36
9224.00,1.36
9223.00,1.36
9222.00,1.36
9221.00,1.36
9220.00,1.36
9219.00,1.36
9218.00,1.36
9217.00,1.36
9216.00,1.36
9215.00,1.36
9214.00,1.36
9213.00,1.36
9212.00,1.36
9211.00,1.36
9210.00,1.36
9209.00,1.35
9208.00,1.35
9207.00,1.35
9206.00,1.35
9205.00,1.35
9204.00,1.35
9203.00,1.35
9202.00,1.35
9201.00,1.35
9200.00,1.36
9199.00,1.36
9198.00,1.36
9197.00,1.36
9196.00,1.36
9195.00,1.36
9194.00,1.37
9193.00,1.37
9192.00,1.37
9191.00,1.37
9190.00,1.38
9189.00,1.38
9188.00,1.38
9187.00,1.38
9186.00,1.38
9185.00,1.38
9184.00,1.38
9183.00,1.38
9182.00,1.38
9181.00,1.38
9180.00,1.38
9179.00,1.38
9178.00,1.38
9177.00,1.38
9176.00,1.38
9175.00,1.38
9174.00,1.38
9173.00,1.37
9172.00,1.37
9171.00,1.37
9170.00,1.37
9169.00,1.37
9168.00,1.37
9167.00,1.37
9166.00,1.37
9165.00,1.37
9164.00,1.37
9163.00,1.37
9162.00,1.37
9161.00,1.37
9160.00,1.37
9159.00,1.37
9158.00,1.37
9157.00,1.37
9156.00,1.37
9155.00,1.37
9154.00,1.37
9153.00,1.37
9152.00,1.37
9151.00,1.37
9150.00,1.37
9149.00,1.37
9148.00,1.37
9147.00,1.37
9146.00,1.37
9145.00,1.37
9144.00,1.37
9143.00,1.37
9142.00,1.37
9141.00,1.37
9140.00,1.37
9139.00,1.37
9138.00,1.37
9137.00,1.37
9136.00,1.37
9135.00,1.37
9134.00,1.36
9133.00,1.36
9132.00,1.36
9131.00,1.36
9130.00,1.36
9129.00,1.36
9128.00,1.36
9127.00,1.36
9126.00,1.36
9125.00,1.36
9124.00,1.36
9123.00,1.36
9122.00,1.36
9121.00,1.36
9120.00,1.36
9119.00,1.37
9118.00,1.37
9117.00,1.37
9116.00,1.37
9115.00,1.37
9114.00,1.37
9113.00,1.37
9112.00,1.37
9111.00,1.37
9110.00,1.37
9109.00,1.37
9108.00,1.37
9107.00,1.37
9106.00,1.37
9105.00,1.37
9104.00,1.37
9103.00,1.37
9102.00,1.37
9101.00,1.37
9100.00,1.37
9099.00,1.37
9098.00,1.37
9097.00,1.37
9096.00,1.37
9095.00,1.37
9094.00,1.37
9093.00,1.37
9092.00,1.37
9091.00,1.37
9090.00,1.37
9089.00,1.37
9088.00,1.38
9087.00,1.38
9086.00,1.38
9085.00,1.38
9084.00,1.38
9083.00,1.38
9082.00,1.38
9081.00,1.38
9080.00,1.37
9079.00,1.37
9078.00,1.37
9077.00,1.37
9076.00,1.37
9075.00,1.37
9074.00,1.37
9073.00,1.37
9072.00,1.37
9071.00,1.37
9070.00,1.37
9069.00,1.37
9068.00,1.37
9067.00,1.37
9066.00,1.37
9065.00,1.37
9064.00,1.37
9063.00,1.37
9062.00,1.38
9061.00,1.38
9060.00,1.38
9059.00,1.38
9058.00,1.38
9057.00,1.38
9056.00,1.38
9055.00,1.38
9054.00,1.38
9053.00,1.38
9052.00,1.38
9051.00,1.38
9050.00,1.38
9049.00,1.38
9048.00,1.38
9047.00,1.37
9046.00,1.37
9045.00,1.37
9044.00,1.37
9043.00,1.37
9042.00,1.37
9041.00,1.37
9040.00,1.37
9039.00,1.37
9038.00,1.37
9037.00,1.37
9036.00,1.37
9035.00,1.37
9034.00,1.37
9033.00,1.37
9032.00,1.37
9031.00,1.37
9030.00,1.37
9029.00,1.37
9028.00,1.37
9027.00,1.37
9026.00,1.37
9025.00,1.37
9024.00,1.37
9023.00,1.37
9022.00,1.38
9021.00,1.38
9020.00,1.38
9019.00,1.38
9018.00,1.38
9017.00,1.38
9016.00,1.38
9015.00,1.38
9014.00,1.38
9013.00,1.38
9012.00,1.38
9011.00,1.38
9010.00,1.38
9009.00,1.38
9008.00,1.38
9007.00,1.38
9006.00,1.38
9005.00,1.37
9004.00,1.37
9003.00,1.37
9002.00,1.37
9001.00,1.37
9000.00,1.37
8999.00,1.37
8998.00,1.36
8997.00,1.36
8996.00,1.36
8995.00,1.36
8994.00,1.36
8993.00,1.36
8992.00,1.36
8991.00,1.36
8990.00,1.36
8989.00,1.37
8988.00,1.37
8987.00,1.37
8986.00,1.37
8985.00,1.37
8984.00,1.37
8983.00,1.38
8982.00,1.38
8981.00,1.38
8980.00,1.38
8979.00,1.38
8978.00,1.39
8977.00,1.39
8976.00,1.39
8975.00,1.39
8974.00,1.39
8973.00,1.39
8972.00,1.39
8971.00,1.39
8970.00,1.39
8969.00,1.39
8968.00,1.39
8967.00,1.39
8966.00,1.39
8965.00,1.39
8964.00,1.39
8963.00,1.39
8962.00,1.39
8961.00,1.39
8960.00,1.39
8959.00,1.39
8958.00,1.39
8957.00,1.38
8956.00,1.38
8955.00,1.38
8954.00,1.38
8953.00,1.38
8952.00,1.38
8951.00,1.37
8950.00,1.37
8949.00,1.37
8948.00,1.37
8947.00,1.37
8946.00,1.37
8945.00,1.37
8944.00,1.36
8943.00,1.36
8942.00,1.36
8941.00,1.36
8940.00,1.36
8939.00,1.36
8938.00,1.36
8937.00,1.36
8936.00,1.36
8935.00,1.36
8934.00,1.36
8933.00,1.36
8932.00,1.36
8931.00,1.36
8930.00,1.37
8929.00,1.37
8928.00,1.37
8927.00,1.37
8926.00,1.37
8925.00,1.37
8924.00,1.37
8923.00,1.37
8922.00,1.37
8921.00,1.37
8920.00,1.37
8919.00,1.37
8918.00,1.37
8917.00,1.37
8916.00,1.37
8915.00,1.37
8914.00,1.37
8913.00,1.37
8912.00,1.37
8911.00,1.37
8910.00,1.36
8909.00,1.36
8908.00,1.36
8907.00,1.36
8906.00,1.36
8905.00,1.36
8904.00,1.36
8903.00,1.36
8902.00,1.36
8901.00,1.36
8900.00,1.36
8899.00,1.36
8898.00,1.37
8897.00,1.37
8896.00,1.37
8895.00,1.37
8894.00,1.37
8893.00,1.37
8892.00,1.37
8891.00,1.38
8890.00,1.38
8889.00,1.38
8888.00,1.38
8887.00,1.38
8886.00,1.38
8885.00,1.38
8884.00,1.38
8883.00,1.38
8882.00,1.38
8881.00,1.38
8880.00,1.38
8879.00,1.37
8878.00,1.37
8877.00,1.37
8876.00,1.37
8875.00,1.37
8874.00,1.37
8873.00,1.37
8872.00,1.37
8871.00,1.37
8870.00,1.37
8869.00,1.37
8868.00,1.37
8867.00,1.37
8866.00,1.37
8865.00,1.37
8864.00,1.37
8863.00,1.37
8862.00,1.37
8861.00,1.37
8860.00,1.37
8859.00,1.37
8858.00,1.37
8857.00,1.37
8856.00,1.38
8855.00,1.38
8854.00,1.38
8853.00,1.38
8852.00,1.38
8851.00,1.38
8850.00,1.38
8849.00,1.38
8848.00,1.38
8847.00,1.38
8846.00,1.38
8845.00,1.38
8844.00,1.38
8843.00,1.38
8842.00,1.38
8841.00,1.38
8840.00,1.38
8839.00,1.38
8838.00,1.37
8837.00,1.37
8836.00,1.37
8835.00,1.37
8834.00,1.37
8833.00,1.37
8832.00,1.37
8831.00,1.37
8830.00,1.37
8829.00,1.37
8828.00,1.37
8827.00,1.37
8826.00,1.36
8825.00,1.36
8824.00,1.36
8823.00,1.36
8822.00,1.36
8821.00,1.36
8820.00,1.36
8819.00,1.35
8818.00,1.35
8817.00,1.35
8816.00,1.35
8815.00,1.35
8814.00,1.35
8813.00,1.35
8812.00,1.34
8811.00,1.34
8810.00,1.34
8809.00,1.34
8808.00,1.34
8807.00,1.34
8806.00,1.34
8805.00,1.34
8804.00,1.34
8803.00,1.34
8802.00,1.34
8801.00,1.34
8800.00,1.34
8799.00,1.34
8798.00,1.34
8797.00,1.34
8796.00,1.34
8795.00,1.34
8794.00,1.33
8793.00,1.33
8792.00,1.33
8791.00,1.33
8790.00,1.33
8789.00,1.33
8788.00,1.33
8787.00,1.32
8786.00,1.32
8785.00,1.32
8784.00,1.32
8783.00,1.32
8782.00,1.31
8781.00,1.31
8780.00,1.31
8779.00,1.31
8778.00,1.31
8777.00,1.31
8776.00,1.31
8775.00,1.31
8774.00,1.31
8773.00,1.31
8772.00,1.31
8771.00,1.31
8770.00,1.31
8769.00,1.31
8768.00,1.31
8767.00,1.31
8766.00,1.31
8765.00,1.31
8764.00,1.31
8763.00,1.31
8762.00,1.31
8761.00,1.31
8760.00,1.31
8759.00,1.31
8758.00,1.31
8757.00,1.31
8756.00,1.31
8755.00,1.31
8754.00,1.31
8753.00,1.31
8752.00,1.31
8751.00,1.31
8750.00,1.31
8749.00,1.31
8748.00,1.31
8747.00,1.31
8746.00,1.31
8745.00,1.31
8744.00,1.31
8743.00,1.31
8742.00,1.31
8741.00,1.31
8740.00,1.31
8739.00,1.31
8738.00,1.30
8737.00,1.30
8736.00,1.30
8735.00,1.30
8734.00,1.30
8733.00,1.30
8732.00,1.30
8731.00,1.30
8730.00,1.30
8729.00,1.30
8728.00,1.31
8727.00,1.31
8726.00,1.31
8725.00,1.31
8724.00,1.31
8723.00,1.31
8722.00,1.31
8721.00,1.31
8720.00,1.30
8719.00,1.30
8718.00,1.30
8717.00,1.30
8716.00,1.30
8715.00,1.30
8714.00,1.30
8713.00,1.30
8712.00,1.29
8711.00,1.29
8710.00,1.29
8709.00,1.29
8708.00,1.29
8707.00,1.29
8706.00,1.29
8705.00,1.29
8704.00,1.29
8703.00,1.29
8702.00,1.29
8701.00,1.29
8700.00,1.29
8699.00,1.29
8698.00,1.29
8697.00,1.29
8696.00,1.29
8695.00,1.29
8694.00,1.29
8693.00,1.29
8692.00,1.29
8691.00,1.29
8690.00,1.29
8689.00,1.28
8688.00,1.28
8687.00,1.28
8686.00,1.28
8685.00,1.28
8684.00,1.28
8683.00,1.28
8682.00,1.28
8681.00,1.28
8680.00,1.28
8679.00,1.28
8678.00,1.28
8677.00,1.28
8676.00,1.28
8675.00,1.28
8674.00,1.28
8673.00,1.27
8672.00,1.27
8671.00,1.27
8670.00,1.27
8669.00,1.27
8668.00,1.27
8667.00,1.27
8666.00,1.27
8665.00,1.27
8664.00,1.27
8663.00,1.27
8662.00,1.26
8661.00,1.26
8660.00,1.27
8659.00,1.27
8658.00,1.27
8657.00,1.27
8656.00,1.27
8655.00,1.27
8654.00,1.27
8653.00,1.27
8652.00,1.27
8651.00,1.28
8650.00,1.28
8649.00,1.28
8648.00,1.28
8647.00,1.28
8646.00,1.28
8645.00,1.28
8644.00,1.28
8643.00,1.28
8642.00,1.28
8641.00,1.28
8640.00,1.28
8639.00,1.28
8638.00,1.28
8637.00,1.28
8636.00,1.28
8635.00,1.27
8634.00,1.27
8633.00,1.27
8632.00,1.27
8631.00,1.27
8630.00,1.27
8629.00,1.27
8628.00,1.27
8627.00,1.27
8626.00,1.27
8625.00,1.27
8624.00,1.27
8623.00,1.27
8622.00,1.27
8621.00,1.27
8620.00,1.27
8619.00,1.27
8618.00,1.27
8617.00,1.27
8616.00,1.27
8615.00,1.27
8614.00,1.27
8613.00,1.27
8612.00,1.27
8611.00,1.27
8610.00,1.27
8609.00,1.27
8608.00,1.26
8607.00,1.26
8606.00,1.26
8605.00,1.26
8604.00,1.26
8603.00,1.26
8602.00,1.26
8601.00,1.25
8600.00,1.25
8599.00,1.25
8598.00,1.25
8597.00,1.25
8596.00,1.25
8595.00,1.25
8594.00,1.25
8593.00,1.25
8592.00,1.25
8591.00,1.25
8590.00,1.25
8589.00,1.25
8588.00,1.25
8587.00,1.25
8586.00,1.25
8585.00,1.25
8584.00,1.25
8583.00,1.25
8582.00,1.25
8581.00,1.26
8580.00,1.26
8579.00,1.26
8578.00,1.26
8577.00,1.26
8576.00,1.26
8575.00,1.26
8574.00,1.26
8573.00,1.26
8572.00,1.26
8571.00,1.26
8570.00,1.26
8569.00,1.26
8568.00,1.26
8567.00,1.26
8566.00,1.25
8565.00,1.25
8564.00,1.25
8563.00,1.25
8562.00,1.25
8561.00,1.25
8560.00,1.25
8559.00,1.25
8558.00,1.25
8557.00,1.24
8556.00,1.24
8555.00,1.24
8554.00,1.24
8553.00,1.24
8552.00,1.24
8551.00,1.24
8550.00,1.23
8549.00,1.23
8548.00,1.23
8547.00,1.23
8546.00,1.23
8545.00,1.23
8544.00,1.23
8543.00,1.23
8542.00,1.23
8541.00,1.23
8540.00,1.23
8539.00,1.23
8538.00,1.23
8537.00,1.23
8536.00,1.22
8535.00,1.22
8534.00,1.22
8533.00,1.22
8532.00,1.22
8531.00,1.22
8530.00,1.22
8529.00,1.22
8528.00,1.21
8527.00,1.21
8526.00,1.21
8525.00,1.21
8524.00,1.21
8523.00,1.21
8522.00,1.21
8521.00,1.21
8520.00,1.21
8519.00,1.21
8518.00,1.21
8517.00,1.21
8516.00,1.21
8515.00,1.21
8514.00,1.21
8513.00,1.20
8512.00,1.20
8511.00,1.20
8510.00,1.20
8509.00,1.20
8508.00,1.20
8507.00,1.20
8506.00,1.20
8505.00,1.20
8504.00,1.20
8503.00,1.20
8502.00,1.20
8501.00,1.19
8500.00,1.19
8499.00,1.19
8498.00,1.19
8497.00,1.19
8496.00,1.19
8495.00,1.19
8494.00,1.19
8493.00,1.19
8492.00,1.19
8491.00,1.19
8490.00,1.19
8489.00,1.18
8488.00,1.18
8487.00,1.18
8486.00,1.18
8485.00,1.18
8484.00,1.18
8483.00,1.18
8482.00,1.18
8481.00,1.17
8480.00,1.17
8479.00,1.17
8478.00,1.17
8477.00,1.17
8476.00,1.17
8475.00,1.17
8474.00,1.17
8473.00,1.17
8472.00,1.17
8471.00,1.17
8470.00,1.17
8469.00,1.17
8468.00,1.16
8467.00,1.16
8466.00,1.16
8465.00,1.16
8464.00,1.16
8463.00,1.16
8462.00,1.16
8461.00,1.16
8460.00,1.16
8459.00,1.16
8458.00,1.16
8457.00,1.16
8456.00,1.15
8455.00,1.15
8454.00,1.15
8453.00,1.15
8452.00,1.15
8451.00,1.14
8450.00,1.14
8449.00,1.14
8448.00,1.14
8447.00,1.13
8446.00,1.13
8445.00,1.13
8444.00,1.13
8443.00,1.13
8442.00,1.13
8441.00,1.13
8440.00,1.13
8439.00,1.13
8438.00,1.13
8437.00,1.13
8436.00,1.13
8435.00,1.13
8434.00,1.13
8433.00,1.14
8432.00,1.14
8431.00,1.14
8430.00,1.14
8429.00,1.14
8428.00,1.14
8427.00,1.14
8426.00,1.15
8425.00,1.15
8424.00,1.15
8423.00,1.15
8422.00,1.15
8421.00,1.15
8420.00,1.15
8419.00,1.15
8418.00,1.15
8417.00,1.15
8416.00,1.16
8415.00,1.16
8414.00,1.16
8413.00,1.16
8412.00,1.16
8411.00,1.16
8410.00,1.16
8409.00,1.16
8408.00,1.17
8407.00,1.17
8406.00,1.17
8405.00,1.17
8404.00,1.17
8403.00,1.17
8402.00,1.18
8401.00,1.18
8400.00,1.18
8399.00,1.18
8398.00,1.18
8397.00,1.18
8396.00,1.18
8395.00,1.18
8394.00,1.18
8393.00,1.18
8392.00,1.18
8391.00,1.18
8390.00,1.18
8389.00,1.18
8388.00,1.18
8387.00,1.18
8386.00,1.18
8385.00,1.18
8384.00,1.18
8383.00,1.18
8382.00,1.18
8381.00,1.18
8380.00,1.19
8379.00,1.19
8378.00,1.19
8377.00,1.19
8376.00,1.19
8375.00,1.19
8374.00,1.19
8373.00,1.19
8372.00,1.19
8371.00,1.20
8370.00,1.20
8369.00,1.20
8368.00,1.20
8367.00,1.20
8366.00,1.20
8365.00,1.20
8364.00,1.20
8363.00,1.20
8362.00,1.20
8361.00,1.20
8360.00,1.20
8359.00,1.20
8358.00,1.20
8357.00,1.21
8356.00,1.21
8355.00,1.21
8354.00,1.21
8353.00,1.21
8352.00,1.21
8351.00,1.21
8350.00,1.21
8349.00,1.21
8348.00,1.21
8347.00,1.21
8346.00,1.21
8345.00,1.21
8344.00,1.21
8343.00,1.21
8342.00,1.21
8341.00,1.21
8340.00,1.21
8339.00,1.21
8338.00,1.21
8337.00,1.21
8336.00,1.21
8335.00,1.21
8334.00,1.20
8333.00,1.20
8332.00,1.20
8331.00,1.20
8330.00,1.20
8329.00,1.20
8328.00,1.20
8327.00,1.20
8326.00,1.20
8325.00,1.20
8324.00,1.20
8323.00,1.20
8322.00,1.20
8321.00,1.20
8320.00,1.20
8319.00,1.20
8318.00,1.20
8317.00,1.20
8316.00,1.20
8315.00,1.20
8314.00,1.21
8313.00,1.21
8312.00,1.21
8311.00,1.21
8310.00,1.21
8309.00,1.21
8308.00,1.21
8307.00,1.21
8306.00,1.22
8305.00,1.22
8304.00,1.22
8303.00,1.22
8302.00,1.22
8301.00,1.22
8300.00,1.22
8299.00,1.22
8298.00,1.22
8297.00,1.22
8296.00,1.22
8295.00,1.22
8294.00,1.22
8293.00,1.22
8292.00,1.22
8291.00,1.22
8290.00,1.22
8289.00,1.22
8288.00,1.22
8287.00,1.22
8286.00,1.22
8285.00,1.22
8284.00,1.22
8283.00,1.22
8282.00,1.21
8281.00,1.21
8280.00,1.21
8279.00,1.21
8278.00,1.21
8277.00,1.21
8276.00,1.21
8275.00,1.21
8274.00,1.21
8273.00,1.21
8272.00,1.21
8271.00,1.21
8270.00,1.21
8269.00,1.22
8268.00,1.22
8267.00,1.22
8266.00,1.22
8265.00,1.22
8264.00,1.22
8263.00,1.22
8262.00,1.22
8261.00,1.22
8260.00,1.23
8259.00,1.23
8258.00,1.23
8257.00,1.23
8256.00,1.23
8255.00,1.23
8254.00,1.24
8253.00,1.24
8252.00,1.24
8251.00,1.24
8250.00,1.24
8249.00,1.24
8248.00,1.25
8247.00,1.25
8246.00,1.25
8245.00,1.25
8244.00,1.25
8243.00,1.25
8242.00,1.25
8241.00,1.25
8240.00,1.25
8239.00,1.25
8238.00,1.25
8237.00,1.25
8236.00,1.25
8235.00,1.25
8234.00,1.25
8233.00,1.25
8232.00,1.25
8231.00,1.25
8230.00,1.25
8229.00,1.25
8228.00,1.25
8227.00,1.25
8226.00,1.25
8225.00,1.25
8224.00,1.25
8223.00,1.25
8222.00,1.25
8221.00,1.25
8220.00,1.25
8219.00,1.25
8218.00,1.25
8217.00,1.25
8216.00,1.25
8215.00,1.26
8214.00,1.26
8213.00,1.26
8212.00,1.26
8211.00,1.26
8210.00,1.26
8209.00,1.26
8208.00,1.26
8207.00,1.26
8206.00,1.26
8205.00,1.26
8204.00,1.26
8203.00,1.26
8202.00,1.26
8201.00,1.26
8200.00,1.26
8199.00,1.26
8198.00,1.26
8197.00,1.26
8196.00,1.26
8195.00,1.27
8194.00,1.27
8193.00,1.27
8192.00,1.27
8191.00,1.27
8190.00,1.27
8189.00,1.27
8188.00,1.27
8187.00,1.27
8186.00,1.27
8185.00,1.27
8184.00,1.27
8183.00,1.27
8182.00,1.27
8181.00,1.27
8180.00,1.27
8179.00,1.27
8178.00,1.27
8177.00,1.27
8176.00,1.27
8175.00,1.27
8174.00,1.27
8173.00,1.27
8172.00,1.27
8171.00,1.27
8170.00,1.27
8169.00,1.27
8168.00,1.27
8167.00,1.27
8166.00,1.27
8165.00,1.27
8164.00,1.27
8163.00,1.27
8162.00,1.27
8161.00,1.27
8160.00,1.27
8159.00,1.27
8158.00,1.27
8157.00,1.27
8156.00,1.27
8155.00,1.27
8154.00,1.27
8153.00,1.27
8152.00,1.28
8151.00,1.28
8150.00,1.28
8149.00,1.28
8148.00,1.28
8147.00,1.28
8146.00,1.28
8145.00,1.29
8144.00,1.29
8143.00,1.29
8142.00,1.29
8141.00,1.29
8140.00,1.29
8139.00,1.29
8138.00,1.29
8137.00,1.30
8136.00,1.30
8135.00,1.30
8134.00,1.30
8133.00,1.30
8132.00,1.30
8131.00,1.30
8130.00,1.30
8129.00,1.30
8128.00,1.30
8127.00,1.30
8126.00,1.30
8125.00,1.30
8124.00,1.30
8123.00,1.30
8122.00,1.30
8121.00,1.30
8120.00,1.30
8119.00,1.30
8118.00,1.30
8117.00,1.30
8116.00,1.30
8115.00,1.30
8114.00,1.30
8113.00,1.30
8112.00,1.31
8111.00,1.31
8110.00,1.31
8109.00,1.31
8108.00,1.31
8107.00,1.31
8106.00,1.31
8105.00,1.31
8104.00,1.31
8103.00,1.31
8102.00,1.31
8101.00,1.31
8100.00,1.31
8099.00,1.31
8098.00,1.31
8097.00,1.31
8096.00,1.31
8095.00,1.31
8094.00,1.31
8093.00,1.31
8092.00,1.31
8091.00,1.31
8090.00,1.31
8089.00,1.31
8088.00,1.31
8087.00,1.31
8086.00,1.31
8085.00,1.31
8084.00,1.31
8083.00,1.32
8082.00,1.32
8081.00,1.32
8080.00,1.32
8079.00,1.32
8078.00,1.32
8077.00,1.32
8076.00,1.32
8075.00,1.32
8074.00,1.32
8073.00,1.32
8072.00,1.32
8071.00,1.32
8070.00,1.32
8069.00,1.32
8068.00,1.32
8067.00,1.32
8066.00,1.32
8065.00,1.32
8064.00,1.32
8063.00,1.32
8062.00,1.32
8061.00,1.32
8060.00,1.32
8059.00,1.32
8058.00,1.32
8057.00,1.32
8056.00,1.32
8055.00,1.32
8054.00,1.32
8053.00,1.32
8052.00,1.32
8051.00,1.32
8050.00,1.32
8049.00,1.32
8048.00,1.32
8047.00,1.32
8046.00,1.32
8045.00,1.33
8044.00,1.33
8043.00,1.33
8042.00,1.33
8041.00,1.33
8040.00,1.33
8039.00,1.33
8038.00,1.33
8037.00,1.33
8036.00,1.33
8035.00,1.33
8034.00,1.33
8033.00,1.33
8032.00,1.33
8031.00,1.33
8030.00,1.33
8029.00,1.33
8028.00,1.33
8027.00,1.34
8026.00,1.34
8025.00,1.34
8024.00,1.34
8023.00,1.34
8022.00,1.34
8021.00,1.34
8020.00,1.34
8019.00,1.33
8018.00,1.33
8017.00,1.33
8016.00,1.33
8015.00,1.33
8014.00,1.33
8013.00,1.33
8012.00,1.33
8011.00,1.33
8010.00,1.33
8009.00,1.33
8008.00,1.33
8007.00,1.33
8006.00,1.33
8005.00,1.33
8004.00,1.33
8003.00,1.33
8002.00,1.33
8001.00,1.33
8000.00,1.33
7999.00,1.33
7998.00,1.33
7997.00,1.33
7996.00,1.33
7995.00,1.34
7994.00,1.34
7993.00,1.34
7992.00,1.34
7991.00,1.34
7990.00,1.34
7989.00,1.34
7988.00,1.34
7987.00,1.34
7986.00,1.34
7985.00,1.34
7984.00,1.34
7983.00,1.34
7982.00,1.34
7981.00,1.34
7980.00,1.34
7979.00,1.34
7978.00,1.34
7977.00,1.34
7976.00,1.34
7975.00,1.34
7974.00,1.34
7973.00,1.34
7972.00,1.34
7971.00,1.34
7970.00,1.34
7969.00,1.34
7968.00,1.34
7967.00,1.34
7966.00,1.35
7965.00,1.35
7964.00,1.35
7963.00,1.35
7962.00,1.35
7961.00,1.35
7960.00,1.35
7959.00,1.35
7958.00,1.35
7957.00,1.35
7956.00,1.34
7955.00,1.34
7954.00,1.34
7953.00,1.34
7952.00,1.34
7951.00,1.34
7950.00,1.34
7949.00,1.34
7948.00,1.34
7947.00,1.34
7946.00,1.34
7945.00,1.34
7944.00,1.34
7943.00,1.34
7942.00,1.34
7941.00,1.34
7940.00,1.34
7939.00,1.34
7938.00,1.34
7937.00,1.34
7936.00,1.35
7935.00,1.35
7934.00,1.35
7933.00,1.35
7932.00,1.35
7931.00,1.35
7930.00,1.35
7929.00,1.35
7928.00,1.35
7927.00,1.35
7926.00,1.36
7925.00,1.36
7924.00,1.36
7923.00,1.36
7922.00,1.36
7921.00,1.36
7920.00,1.36
7919.00,1.36
7918.00,1.36
7917.00,1.36
7916.00,1.36
7915.00,1.36
7914.00,1.36
7913.00,1.35
7912.00,1.35
7911.00,1.35
7910.00,1.36
7909.00,1.36
7908.00,1.36
7907.00,1.36
7906.00,1.36
7905.00,1.36
7904.00,1.36
7903.00,1.36
7902.00,1.36
7901.00,1.36
7900.00,1.36
7899.00,1.36
7898.00,1.36
7897.00,1.36
7896.00,1.36
7895.00,1.37
7894.00,1.37
7893.00,1.37
7892.00,1.37
7891.00,1.37
7890.00,1.37
7889.00,1.37
7888.00,1.37
7887.00,1.37
7886.00,1.37
7885.00,1.37
7884.00,1.37
7883.00,1.37
7882.00,1.37
7881.00,1.37
7880.00,1.37
7879.00,1.37
7878.00,1.37
7877.00,1.37
7876.00,1.37
7875.00,1.37
7874.00,1.37
7873.00,1.37
7872.00,1.37
7871.00,1.36
7870.00,1.36
7869.00,1.36
7868.00,1.36
7867.00,1.36
7866.00,1.36
7865.00,1.36
7864.00,1.36
7863.00,1.36
7862.00,1.36
7861.00,1.36
7860.00,1.36
7859.00,1.36
7858.00,1.36
7857.00,1.36
7856.00,1.36
7855.00,1.36
7854.00,1.36
7853.00,1.37
7852.00,1.37
7851.00,1.37
7850.00,1.37
7849.00,1.37
7848.00,1.37
7847.00,1.37
7846.00,1.37
7845.00,1.37
7844.00,1.37
7843.00,1.37
7842.00,1.37
7841.00,1.37
7840.00,1.37
7839.00,1.37
7838.00,1.37
7837.00,1.37
7836.00,1.37
7835.00,1.37
7834.00,1.37
7833.00,1.37
7832.00,1.38
7831.00,1.38
7830.00,1.38
7829.00,1.38
7828.00,1.38
7827.00,1.38
7826.00,1.38
7825.00,1.38
7824.00,1.38
7823.00,1.38
7822.00,1.38
7821.00,1.38
7820.00,1.38
7819.00,1.38
7818.00,1.38
7817.00,1.38
7816.00,1.38
7815.00,1.38
7814.00,1.38
7813.00,1.38
7812.00,1.38
7811.00,1.38
7810.00,1.38
7809.00,1.38
7808.00,1.38
7807.00,1.38
7806.00,1.38
7805.00,1.38
7804.00,1.38
7803.00,1.38
7802.00,1.38
7801.00,1.38
7800.00,1.38
7799.00,1.38
7798.00,1.38
7797.00,1.38
7796.00,1.38
7795.00,1.38
7794.00,1.38
7793.00,1.38
7792.00,1.38
7791.00,1.38
7790.00,1.38
7789.00,1.38
7788.00,1.38
7787.00,1.38
7786.00,1.38
7785.00,1.38
7784.00,1.38
7783.00,1.38
7782.00,1.38
7781.00,1.38
7780.00,1.38
7779.00,1.38
7778.00,1.39
7777.00,1.39
7776.00,1.39
7775.00,1.39
7774.00,1.39
7773.00,1.39
7772.00,1.39
7771.00,1.39
7770.00,1.39
7769.00,1.39
7768.00,1.39
7767.00,1.39
7766.00,1.39
7765.00,1.39
7764.00,1.39
7763.00,1.39
7762.00,1.39
7761.00,1.39
7760.00,1.39
7759.00,1.39
7758.00,1.39
7757.00,1.39
7756.00,1.39
7755.00,1.39
7754.00,1.39
7753.00,1.39
7752.00,1.39
7751.00,1.39
7750.00,1.39
7749.00,1.39
7748.00,1.39
7747.00,1.39
7746.00,1.39
7745.00,1.39
7744.00,1.39
7743.00,1.39
7742.00,1.39
7741.00,1.39
7740.00,1.39
7739.00,1.39
7738.00,1.39
7737.00,1.39
7736.00,1.39
7735.00,1.39
7734.00,1.39
7733.00,1.39
7732.00,1.38
7731.00,1.38
7730.00,1.38
7729.00,1.38
7728.00,1.38
7727.00,1.38
7726.00,1.39
7725.00,1.39
7724.00,1.39
7723.00,1.39
7722.00,1.39
7721.00,1.39
7720.00,1.39
7719.00,1.39
7718.00,1.39
7717.00,1.39
7716.00,1.39
7715.00,1.39
7714.00,1.39
7713.00,1.39
7712.00,1.39
7711.00,1.39
7710.00,1.39
7709.00,1.39
7708.00,1.39
7707.00,1.39
7706.00,1.39
7705.00,1.39
7704.00,1.39
7703.00,1.39
7702.00,1.39
7701.00,1.39
7700.00,1.39
7699.00,1.39
7698.00,1.39
7697.00,1.39
7696.00,1.39
7695.00,1.39
7694.00,1.39
7693.00,1.39
7692.00,1.39
7691.00,1.39
7690.00,1.39
7689.00,1.39
7688.00,1.39
7687.00,1.39
7686.00,1.39
7685.00,1.39
7684.00,1.39
7683.00,1.39
7682.00,1.39
7681.00,1.39
7680.00,1.39
7679.00,1.39
7678.00,1.39
7677.00,1.39
7676.00,1.39
7675.00,1.39
7674.00,1.39
7673.00,1.39
7672.00,1.39
7671.00,1.39
7670.00,1.39
7669.00,1.39
7668.00,1.39
7667.00,1.39
7666.00,1.39
7665.00,1.39
7664.00,1.39
7663.00,1.39
7662.00,1.39
7661.00,1.39
7660.00,1.38
7659.00,1.38
7658.00,1.38
7657.00,1.38
7656.00,1.38
7655.00,1.38
7654.00,1.38
7653.00,1.38
7652.00,1.38
7651.00,1.38
7650.00,1.38
7649.00,1.39
7648.00,1.39
7647.00,1.39
7646.00,1.39
7645.00,1.39
7644.00,1.39
7643.00,1.39
7642.00,1.39
7641.00,1.39
7640.00,1.39
7639.00,1.39
7638.00,1.39
7637.00,1.39
7636.00,1.39
7635.00,1.39
7634.00,1.39
7633.00,1.39
7632.00,1.39
7631.00,1.39
7630.00,1.39
7629.00,1.39
7628.00,1.39
7627.00,1.39
7626.00,1.39
7625.00,1.39
7624.00,1.39
7623.00,1.39
7622.00,1.39
7621.00,1.39
7620.00,1.39
7619.00,1.39
7618.00,1.39
7617.00,1.39
7616.00,1.39
7615.00,1.39
7614.00,1.39
7613.00,1.39
7612.00,1.39
7611.00,1.38
7610.00,1.38
7609.00,1.38
7608.00,1.38
7607.00,1.38
7606.00,1.38
7605.00,1.38
7604.00,1.38
7603.00,1.38
7602.00,1.38
7601.00,1.38
7600.00,1.38
7599.00,1.38
7598.00,1.38
7597.00,1.38
7596.00,1.38
7595.00,1.38
7594.00,1.38
7593.00,1.38
7592.00,1.39
7591.00,1.39
7590.00,1.39
7589.00,1.39
7588.00,1.39
7587.00,1.39
7586.00,1.39
7585.00,1.39
7584.00,1.39
7583.00,1.39
7582.00,1.39
7581.00,1.39
7580.00,1.39
7579.00,1.39
7578.00,1.39
7577.00,1.39
7576.00,1.39
7575.00,1.39
7574.00,1.39
7573.00,1.39
7572.00,1.39
7571.00,1.39
7570.00,1.39
7569.00,1.39
7568.00,1.39
7567.00,1.39
7566.00,1.39
7565.00,1.38
7564.00,1.38
7563.00,1.38
7562.00,1.38
7561.00,1.38
7560.00,1.38
7559.00,1.38
7558.00,1.38
7557.00,1.38
7556.00,1.37
7555.00,1.37
7554.00,1.37
7553.00,1.37
7552.00,1.37
7551.00,1.37
7550.00,1.37
7549.00,1.37
7548.00,1.37
7547.00,1.37
7546.00,1.37
7545.00,1.37
7544.00,1.37
7543.00,1.37
7542.00,1.37
7541.00,1.37
7540.00,1.37
7539.00,1.37
7538.00,1.37
7537.00,1.37
7536.00,1.37
7535.00,1.37
7534.00,1.37
7533.00,1.37
7532.00,1.37
7531.00,1.37
7530.00,1.37
7529.00,1.37
7528.00,1.37
7527.00,1.37
7526.00,1.37
7525.00,1.37
7524.00,1.36
7523.00,1.36
7522.00,1.36
7521.00,1.36
7520.00,1.36
7519.00,1.36
7518.00,1.36
7517.00,1.36
7516.00,1.36
7515.00,1.36
7514.00,1.36
7513.00,1.36
7512.00,1.36
7511.00,1.36
7510.00,1.36
7509.00,1.36
7508.00,1.36
7507.00,1.35
7506.00,1.35
7505.00,1.35
7504.00,1.35
7503.00,1.35
7502.00,1.35
7501.00,1.35
7500.00,1.35
7499.00,1.35
7498.00,1.35
7497.00,1.35
7496.00,1.35
7495.00,1.35
7494.00,1.34
7493.00,1.34
7492.00,1.34
7491.00,1.34
7490.00,1.34
7489.00,1.34
7488.00,1.34
7487.00,1.34
7486.00,1.34
7485.00,1.34
7484.00,1.34
7483.00,1.34
7482.00,1.33
7481.00,1.33
7480.00,1.33
7479.00,1.33
7478.00,1.33
7477.00,1.33
7476.00,1.33
7475.00,1.33
7474.00,1.33
7473.00,1.33
7472.00,1.33
7471.00,1.33
7470.00,1.33
7469.00,1.33
7468.00,1.33
7467.00,1.33
7466.00,1.32
7465.00,1.32
7464.00,1.32
7463.00,1.32
7462.00,1.32
7461.00,1.32
7460.00,1.32
7459.00,1.32
7458.00,1.32
7457.00,1.32
7456.00,1.32
7455.00,1.32
7454.00,1.31
7453.00,1.31
7452.00,1.31
7451.00,1.31
7450.00,1.31
7449.00,1.31
7448.00,1.31
7447.00,1.31
7446.00,1.31
7445.00,1.31
7444.00,1.31
7443.00,1.31
7442.00,1.31
7441.00,1.31
7440.00,1.31
7439.00,1.31
7438.00,1.31
7437.00,1.31
7436.00,1.31
7435.00,1.31
7434.00,1.31
7433.00,1.31
7432.00,1.30
7431.00,1.30
7430.00,1.30
7429.00,1.30
7428.00,1.30
7427.00,1.30
7426.00,1.30
7425.00,1.30
7424.00,1.29
7423.00,1.29
7422.00,1.29
7421.00,1.29
7420.00,1.29
7419.00,1.29
7418.00,1.29
7417.00,1.28
7416.00,1.28
7415.00,1.28
7414.00,1.28
7413.00,1.28
7412.00,1.28
7411.00,1.28
7410.00,1.28
7409.00,1.28
7408.00,1.28
7407.00,1.28
7406.00,1.28
7405.00,1.27
7404.00,1.27
7403.00,1.27
7402.00,1.27
7401.00,1.27
7400.00,1.26
7399.00,1.26
7398.00,1.26
7397.00,1.26
7396.00,1.26
7395.00,1.25
7394.00,1.25
7393.00,1.25
7392.00,1.25
7391.00,1.24
7390.00,1.24
7389.00,1.24
7388.00,1.24
7387.00,1.24
7386.00,1.24
7385.00,1.23
7384.00,1.23
7383.00,1.23
7382.00,1.23
7381.00,1.23
7380.00,1.23
7379.00,1.23
7378.00,1.23
7377.00,1.23
7376.00,1.22
7375.00,1.22
7374.00,1.22
7373.00,1.22
7372.00,1.22
7371.00,1.22
7370.00,1.22
7369.00,1.22
7368.00,1.22
7367.00,1.23
7366.00,1.23
7365.00,1.23
7364.00,1.23
7363.00,1.23
7362.00,1.23
7361.00,1.23
7360.00,1.23
7359.00,1.22
7358.00,1.22
7357.00,1.22
7356.00,1.22
7355.00,1.22
7354.00,1.22
7353.00,1.22
7352.00,1.21
7351.00,1.21
7350.00,1.21
7349.00,1.21
7348.00,1.21
7347.00,1.20
7346.00,1.20
7345.00,1.20
7344.00,1.20
7343.00,1.20
7342.00,1.20
7341.00,1.19
7340.00,1.19
7339.00,1.19
7338.00,1.19
7337.00,1.19
7336.00,1.19
7335.00,1.19
7334.00,1.20
7333.00,1.20
7332.00,1.20
7331.00,1.20
7330.00,1.20
7329.00,1.20
7328.00,1.20
7327.00,1.20
7326.00,1.20
7325.00,1.20
7324.00,1.21
7323.00,1.21
7322.00,1.21
7321.00,1.21
7320.00,1.21
7319.00,1.21
7318.00,1.21
7317.00,1.21
7316.00,1.21
7315.00,1.21
7314.00,1.21
7313.00,1.21
7312.00,1.21
7311.00,1.20
7310.00,1.20
7309.00,1.20
7308.00,1.20
7307.00,1.20
7306.00,1.19
7305.00,1.19
7304.00,1.19
7303.00,1.19
7302.00,1.18
7301.00,1.18
7300.00,1.18
7299.00,1.18
7298.00,1.18
7297.00,1.17
7296.00,1.17
7295.00,1.17
7294.00,1.17
7293.00,1.17
7292.00,1.16
7291.00,1.16
7290.00,1.16
7289.00,1.16
7288.00,1.16
7287.00,1.16
7286.00,1.16
7285.00,1.16
7284.00,1.16
7283.00,1.16
7282.00,1.16
7281.00,1.16
7280.00,1.16
7279.00,1.16
7278.00,1.16
7277.00,1.16
7276.00,1.15
7275.00,1.15
7274.00,1.15
7273.00,1.15
7272.00,1.15
7271.00,1.15
7270.00,1.15
7269.00,1.15
7268.00,1.15
7267.00,1.15
7266.00,1.15
7265.00,1.14
7264.00,1.14
7263.00,1.14
7262.00,1.14
7261.00,1.14
7260.00,1.14
7259.00,1.13
7258.00,1.13
7257.00,1.13
7256.00,1.13
7255.00,1.13
7254.00,1.12
7253.00,1.12
7252.00,1.12
7251.00,1.12
7250.00,1.12
7249.00,1.11
7248.00,1.11
7247.00,1.11
7246.00,1.11
7245.00,1.10
7244.00,1.10
7243.00,1.10
7242.00,1.10
7241.00,1.09
7240.00,1.09
7239.00,1.08
7238.00,1.08
7237.00,1.08
7236.00,1.07
7235.00,1.07
7234.00,1.07
7233.00,1.06
7232.00,1.06
7231.00,1.06
7230.00,1.05
7229.00,1.05
7228.00,1.04
7227.00,1.04
7226.00,1.04
7225.00,1.03
7224.00,1.03
7223.00,1.03
7222.00,1.03
7221.00,1.02
7220.00,1.02
7219.00,1.02
7218.00,1.01
7217.00,1.01
7216.00,1.01
7215.00,1.00
7214.00,1.00
7213.00,1.00
7212.00,0.99
7211.00,0.99
7210.00,0.99
7209.00,0.98
7208.00,0.98
7207.00,0.98
7206.00,0.97
7205.00,0.97
7204.00,0.97
7203.00,0.97
7202.00,0.96
7201.00,0.96
7200.00,0.96
7199.00,0.95
7198.00,0.95
7197.00,0.95
7196.00,0.95
7195.00,0.94
7194.00,0.94
7193.00,0.94
7192.00,0.94
7191.00,0.93
7190.00,0.93
7189.00,0.93
7188.00,0.93
7187.00,0.93
7186.00,0.93
7185.00,0.92
7184.00,0.92
7183.00,0.92
7182.00,0.92
7181.00,0.91
7180.00,0.91
7179.00,0.91
7178.00,0.91
7177.00,0.90
7176.00,0.90
7175.00,0.90
7174.00,0.90
7173.00,0.89
7172.00,0.89
7171.00,0.89
7170.00,0.88
7169.00,0.88
7168.00,0.87
7167.00,0.87
7166.00,0.87
7165.00,0.86
7164.00,0.86
7163.00,0.86
7162.00,0.86
7161.00,0.85
7160.00,0.85
7159.00,0.85
7158.00,0.85
7157.00,0.85
7156.00,0.84
7155.00,0.84
7154.00,0.84
7153.00,0.84
7152.00,0.84
7151.00,0.84
7150.00,0.83
7149.00,0.83
7148.00,0.83
7147.00,0.83
7146.00,0.82
7145.00,0.82
7144.00,0.82
7143.00,0.82
7142.00,0.81
7141.00,0.81
7140.00,0.81
7139.00,0.81
7138.00,0.80
7137.00,0.80
7136.00,0.80
7135.00,0.80
7134.00,0.79
7133.00,0.79
7132.00,0.79
7131.00,0.79
7130.00,0.79
7129.00,0.79
7128.00,0.79
7127.00,0.79
7126.00,0.79
7125.00,0.78
7124.00,0.78
7123.00,0.78
7122.00,0.78
7121.00,0.78
7120.00,0.78
7119.00,0.77
7118.00,0.77
7117.00,0.77
7116.00,0.77
7115.00,0.77
7114.00,0.76
7113.00,0.76
7112.00,0.76
7111.00,0.76
7110.00,0.76
7109.00,0.75
7108.00,0.75
7107.00,0.75
7106.00,0.75
7105.00,0.75
7104.00,0.75
7103.00,0.74
7102.00,0.74
7101.00,0.74
7100.00,0.74
7099.00,0.74
7098.00,0.74
7097.00,0.74
7096.00,0.74
7095.00,0.74
7094.00,0.74
7093.00,0.74
7092.00,0.74
7091.00,0.73
7090.00,0.73
7089.00,0.73
7088.00,0.73
7087.00,0.73
7086.00,0.73
7085.00,0.73
7084.00,0.73
7083.00,0.72
7082.00,0.72
7081.00,0.72
7080.00,0.72
7079.00,0.72
7078.00,0.72
7077.00,0.72
7076.00,0.72
7075.00,0.72
7074.00,0.72
7073.00,0.71
7072.00,0.71
7071.00,0.71
7070.00,0.71
7069.00,0.71
7068.00,0.71
7067.00,0.71
7066.00,0.71
7065.00,0.70
7064.00,0.70
7063.00,0.70
7062.00,0.70
7061.00,0.70
7060.00,0.70
7059.00,0.69
7058.00,0.69
7057.00,0.69
7056.00,0.69
7055.00,0.69
7054.00,0.69
7053.00,0.69
7052.00,0.69
7051.00,0.69
7050.00,0.69
7049.00,0.69
7048.00,0.69
7047.00,0.69
7046.00,0.69
7045.00,0.69
7044.00,0.69
7043.00,0.69
7042.00,0.69
7041.00,0.69
7040.00,0.69
7039.00,0.69
7038.00,0.69
7037.00,0.69
7036.00,0.69
7035.00,0.69
7034.00,0.69
7033.00,0.69
7032.00,0.69
7031.00,0.69
7030.00,0.69
7029.00,0.69
7028.00,0.69
7027.00,0.69
7026.00,0.69
7025.00,0.69
7024.00,0.69
7023.00,0.69
7022.00,0.69
7021.00,0.69
7020.00,0.69
7019.00,0.69
7018.00,0.69
7017.00,0.69
7016.00,0.69
7015.00,0.69
7014.00,0.69
7013.00,0.69
7012.00,0.69
7011.00,0.69
7010.00,0.69
7009.00,0.69
7008.00,0.69
7007.00,0.69
7006.00,0.68
7005.00,0.68
7004.00,0.68
7003.00,0.68
7002.00,0.68
7001.00,0.68
7000.00,0.68
6999.00,0.68
6998.00,0.68
6997.00,0.68
6996.00,0.68
6995.00,0.68
6994.00,0.68
6993.00,0.67
6992.00,0.67
6991.00,0.67
6990.00,0.68
6989.00,0.68
6988.00,0.68
6987.00,0.68
6986.00,0.68
6985.00,0.68
6984.00,0.68
6983.00,0.68
6982.00,0.68
6981.00,0.68
6980.00,0.68
6979.00,0.68
6978.00,0.68
6977.00,0.68
6976.00,0.68
6975.00,0.68
6974.00,0.68
6973.00,0.68
6972.00,0.68
6971.00,0.68
6970.00,0.68
6969.00,0.68
6968.00,0.68
6967.00,0.68
6966.00,0.68
6965.00,0.68
6964.00,0.68
6963.00,0.68
6962.00,0.68
6961.00,0.68
6960.00,0.68
6959.00,0.68
6958.00,0.68
6957.00,0.68
6956.00,0.67
6955.00,0.67
6954.00,0.67
6953.00,0.67
6952.00,0.67
6951.00,0.67
6950.00,0.67
6949.00,0.67
6948.00,0.67
6947.00,0.67
6946.00,0.67
6945.00,0.67
6944.00,0.67
6943.00,0.67
6942.00,0.67
6941.00,0.67
6940.00,0.67
6939.00,0.67
6938.00,0.67
6937.00,0.67
6936.00,0.67
6935.00,0.67
6934.00,0.67
6933.00,0.67
6932.00,0.67
6931.00,0.67
6930.00,0.67
6929.00,0.67
6928.00,0.67
6927.00,0.67
6926.00,0.67
6925.00,0.67
6924.00,0.67
6923.00,0.67
6922.00,0.67
6921.00,0.67
6920.00,0.67
6919.00,0.67
6918.00,0.67
6917.00,0.67
6916.00,0.67
6915.00,0.67
6914.00,0.67
6913.00,0.67
6912.00,0.67
6911.00,0.67
6910.00,0.67
6909.00,0.67
6908.00,0.67
6907.00,0.67
6906.00,0.67
6905.00,0.67
6904.00,0.68
6903.00,0.68
6902.00,0.68
6901.00,0.68
6900.00,0.68
6899.00,0.68
6898.00,0.68
6897.00,0.68
6896.00,0.68
6895.00,0.68
6894.00,0.68
6893.00,0.67
6892.00,0.67
6891.00,0.67
6890.00,0.67
6889.00,0.67
6888.00,0.67
6887.00,0.67
6886.00,0.67
6885.00,0.67
6884.00,0.67
6883.00,0.67
6882.00,0.67
6881.00,0.67
6880.00,0.67
6879.00,0.67
6878.00,0.67
6877.00,0.67
6876.00,0.67
6875.00,0.67
6874.00,0.67
6873.00,0.67
6872.00,0.68
6871.00,0.68
6870.00,0.68
6869.00,0.68
6868.00,0.68
6867.00,0.68
6866.00,0.68
6865.00,0.68
6864.00,0.68
6863.00,0.68
6862.00,0.68
6861.00,0.68
6860.00,0.68
6859.00,0.68
6858.00,0.68
6857.00,0.68
6856.00,0.68
6855.00,0.68
6854.00,0.68
6853.00,0.68
6852.00,0.68
6851.00,0.68
6850.00,0.68
6849.00,0.68
6848.00,0.68
6847.00,0.68
6846.00,0.68
6845.00,0.68
6844.00,0.68
6843.00,0.68
6842.00,0.68
6841.00,0.68
6840.00,0.68
6839.00,0.68
6838.00,0.68
6837.00,0.68
6836.00,0.67
6835.00,0.67
6834.00,0.67
6833.00,0.67
6832.00,0.67
6831.00,0.67
6830.00,0.67
6829.00,0.67
6828.00,0.67
6827.00,0.67
6826.00,0.67
6825.00,0.67
6824.00,0.67
6823.00,0.67
6822.00,0.67
6821.00,0.67
6820.00,0.67
6819.00,0.67
6818.00,0.67
6817.00,0.67
6816.00,0.67
6815.00,0.67
6814.00,0.67
6813.00,0.68
6812.00,0.68
6811.00,0.68
6810.00,0.68
6809.00,0.68
6808.00,0.68
6807.00,0.68
6806.00,0.68
6805.00,0.68
6804.00,0.68
6803.00,0.68
6802.00,0.68
6801.00,0.68
6800.00,0.68
6799.00,0.68
6798.00,0.68
6797.00,0.68
6796.00,0.69
6795.00,0.69
6794.00,0.69
6793.00,0.69
6792.00,0.69
6791.00,0.69
6790.00,0.69
6789.00,0.69
6788.00,0.69
6787.00,0.69
6786.00,0.69
6785.00,0.69
6784.00,0.69
6783.00,0.69
6782.00,0.69
6781.00,0.69
6780.00,0.69
6779.00,0.69
6778.00,0.69
6777.00,0.69
6776.00,0.69
6775.00,0.69
6774.00,0.69
6773.00,0.69
6772.00,0.69
6771.00,0.69
6770.00,0.69
6769.00,0.69
6768.00,0.70
6767.00,0.70
6766.00,0.70
6765.00,0.70
6764.00,0.70
6763.00,0.70
6762.00,0.70
6761.00,0.70
6760.00,0.70
6759.00,0.70
6758.00,0.70
6757.00,0.70
6756.00,0.70
6755.00,0.70
6754.00,0.70
6753.00,0.70
6752.00,0.70
6751.00,0.70
6750.00,0.70
6749.00,0.70
6748.00,0.70
6747.00,0.70
6746.00,0.70
6745.00,0.70
6744.00,0.70
6743.00,0.70
6742.00,0.71
6741.00,0.71
6740.00,0.71
6739.00,0.71
6738.00,0.71
6737.00,0.71
6736.00,0.71
6735.00,0.71
6734.00,0.71
6733.00,0.71
6732.00,0.71
6731.00,0.71
6730.00,0.71
6729.00,0.71
6728.00,0.71
6727.00,0.71
6726.00,0.71
6725.00,0.71
6724.00,0.71
6723.00,0.71
6722.00,0.71
6721.00,0.71
6720.00,0.71
6719.00,0.71
6718.00,0.71
6717.00,0.72
6716.00,0.72
6715.00,0.72
6714.00,0.72
6713.00,0.72
6712.00,0.72
6711.00,0.72
6710.00,0.72
6709.00,0.72
6708.00,0.72
6707.00,0.73
6706.00,0.73
6705.00,0.73
6704.00,0.73
6703.00,0.73
6702.00,0.73
6701.00,0.73
6700.00,0.73
6699.00,0.73
6698.00,0.73
6697.00,0.73
6696.00,0.73
6695.00,0.73
6694.00,0.73
6693.00,0.73
6692.00,0.73
6691.00,0.73
6690.00,0.73
6689.00,0.73
6688.00,0.74
6687.00,0.74
6686.00,0.74
6685.00,0.74
6684.00,0.74
6683.00,0.74
6682.00,0.74
6681.00,0.74
6680.00,0.74
6679.00,0.74
6678.00,0.74
6677.00,0.74
6676.00,0.74
6675.00,0.74
6674.00,0.74
6673.00,0.74
6672.00,0.74
6671.00,0.74
6670.00,0.74
6669.00,0.74
6668.00,0.74
6667.00,0.74
6666.00,0.74
6665.00,0.74
6664.00,0.74
6663.00,0.74
6662.00,0.74
6661.00,0.74
6660.00,0.75
6659.00,0.75
6658.00,0.75
6657.00,0.75
6656.00,0.75
6655.00,0.75
6654.00,0.75
6653.00,0.75
6652.00,0.75
6651.00,0.75
6650.00,0.75
6649.00,0.76
6648.00,0.76
6647.00,0.76
6646.00,0.76
6645.00,0.76
6644.00,0.76
6643.00,0.76
6642.00,0.76
6641.00,0.76
6640.00,0.76
6639.00,0.76
6638.00,0.77
6637.00,0.77
6636.00,0.77
6635.00,0.77
6634.00,0.77
6633.00,0.77
6632.00,0.77
6631.00,0.77
6630.00,0.77
6629.00,0.77
6628.00,0.77
6627.00,0.77
6626.00,0.77
6625.00,0.77
6624.00,0.77
6623.00,0.77
6622.00,0.77
6621.00,0.77
6620.00,0.77
6619.00,0.77
6618.00,0.77
6617.00,0.77
6616.00,0.77
6615.00,0.77
6614.00,0.77
6613.00,0.77
6612.00,0.77
6611.00,0.77
6610.00,0.78
6609.00,0.78
6608.00,0.78
6607.00,0.78
6606.00,0.78
6605.00,0.78
6604.00,0.78
6603.00,0.78
6602.00,0.78
6601.00,0.78
6600.00,0.78
6599.00,0.78
6598.00,0.78
6597.00,0.78
6596.00,0.79
6595.00,0.79
6594.00,0.79
6593.00,0.79
6592.00,0.79
6591.00,0.79
6590.00,0.79
6589.00,0.79
6588.00,0.79
6587.00,0.79
6586.00,0.79
6585.00,0.79
6584.00,0.79
6583.00,0.79
6582.00,0.80
6581.00,0.80
6580.00,0.80
6579.00,0.80
6578.00,0.80
6577.00,0.80
6576.00,0.80
6575.00,0.80
6574.00,0.80
6573.00,0.80
6572.00,0.80
6571.00,0.80
6570.00,0.81
6569.00,0.81
6568.00,0.81
6567.00,0.81
6566.00,0.81
6565.00,0.81
6564.00,0.81
6563.00,0.81
6562.00,0.81
6561.00,0.81
6560.00,0.81
6559.00,0.81
6558.00,0.81
6557.00,0.81
6556.00,0.81
6555.00,0.81
6554.00,0.81
6553.00,0.81
6552.00,0.81
6551.00,0.81
6550.00,0.81
6549.00,0.81
6548.00,0.81
6547.00,0.81
6546.00,0.81
6545.00,0.81
6544.00,0.82
6543.00,0.82
6542.00,0.82
6541.00,0.82
6540.00,0.82
6539.00,0.82
6538.00,0.82
6537.00,0.82
6536.00,0.83
6535.00,0.83
6534.00,0.83
6533.00,0.83
6532.00,0.83
6531.00,0.83
6530.00,0.83
6529.00,0.83
6528.00,0.83
6527.00,0.83
6526.00,0.83
6525.00,0.83
6524.00,0.83
6523.00,0.83
6522.00,0.83
6521.00,0.83
6520.00,0.83
6519.00,0.83
6518.00,0.83
6517.00,0.83
6516.00,0.83
6515.00,0.83
6514.00,0.83
6513.00,0.83
6512.00,0.83
6511.00,0.83
6510.00,0.83
6509.00,0.83
6508.00,0.83
6507.00,0.83
6506.00,0.83
6505.00,0.83
6504.00,0.84
6503.00,0.84
6502.00,0.84
6501.00,0.84
6500.00,0.84
6499.00,0.84
6498.00,0.84
6497.00,0.84
6496.00,0.84
6495.00,0.85
6494.00,0.85
6493.00,0.85
6492.00,0.85
6491.00,0.85
6490.00,0.85
6489.00,0.85
6488.00,0.85
6487.00,0.85
6486.00,0.85
6485.00,0.85
6484.00,0.85
6483.00,0.86
6482.00,0.86
6481.00,0.86
6480.00,0.86
6479.00,0.86
6478.00,0.86
6477.00,0.86
6476.00,0.86
6475.00,0.86
6474.00,0.86
6473.00,0.86
6472.00,0.86
6471.00,0.86
6470.00,0.86
6469.00,0.86
6468.00,0.86
6467.00,0.86
6466.00,0.86
6465.00,0.87
6464.00,0.87
6463.00,0.87
6462.00,0.87
6461.00,0.87
6460.00,0.87
6459.00,0.87
6458.00,0.87
6457.00,0.87
6456.00,0.87
6455.00,0.87
6454.00,0.87
6453.00,0.87
6452.00,0.87
6451.00,0.87
6450.00,0.87
6449.00,0.87
6448.00,0.87
6447.00,0.87
6446.00,0.87
6445.00,0.87
6444.00,0.87
6443.00,0.86
6442.00,0.86
6441.00,0.86
6440.00,0.86
6439.00,0.86
6438.00,0.86
6437.00,0.87
6436.00,0.87
6435.00,0.87
6434.00,0.87
6433.00,0.87
6432.00,0.87
6431.00,0.87
6430.00,0.87
6429.00,0.87
6428.00,0.87
6427.00,0.87
6426.00,0.87
6425.00,0.88
6424.00,0.88
6423.00,0.88
6422.00,0.88
6421.00,0.88
6420.00,0.88
6419.00,0.88
6418.00,0.88
6417.00,0.88
6416.00,0.88
6415.00,0.88
6414.00,0.88
6413.00,0.88
6412.00,0.88
6411.00,0.88
6410.00,0.89
6409.00,0.89
6408.00,0.89
6407.00,0.89
6406.00,0.89
6405.00,0.89
6404.00,0.89
6403.00,0.89
6402.00,0.89
6401.00,0.89
6400.00,0.89
6399.00,0.89
6398.00,0.89
6397.00,0.89
6396.00,0.89
6395.00,0.89
6394.00,0.89
6393.00,0.89
6392.00,0.89
6391.00,0.89
6390.00,0.89
6389.00,0.89
6388.00,0.89
6387.00,0.89
6386.00,0.89
6385.00,0.90
6384.00,0.90
6383.00,0.90
6382.00,0.90
6381.00,0.90
6380.00,0.90
6379.00,0.90
6378.00,0.90
6377.00,0.90
6376.00,0.90
6375.00,0.90
6374.00,0.90
6373.00,0.91
6372.00,0.91
6371.00,0.91
6370.00,0.91
6369.00,0.91
6368.00,0.91
6367.00,0.91
6366.00,0.91
6365.00,0.91
6364.00,0.91
6363.00,0.91
6362.00,0.92
6361.00,0.92
6360.00,0.92
6359.00,0.92
6358.00,0.92
6357.00,0.92
6356.00,0.92
6355.00,0.92
6354.00,0.92
6353.00,0.92
6352.00,0.92
6351.00,0.92
6350.00,0.92
6349.00,0.92
6348.00,0.92
6347.00,0.92
6346.00,0.92
6345.00,0.92
6344.00,0.92
6343.00,0.92
6342.00,0.92
6341.00,0.92
6340.00,0.92
6339.00,0.92
6338.00,0.92
6337.00,0.92
6336.00,0.92
6335.00,0.92
6334.00,0.92
6333.00,0.92
6332.00,0.92
6331.00,0.92
6330.00,0.92
6329.00,0.93
6328.00,0.93
6327.00,0.93
6326.00,0.93
6325.00,0.93
6324.00,0.93
6323.00,0.93
6322.00,0.93
6321.00,0.93
6320.00,0.93
6319.00,0.93
6318.00,0.93
6317.00,0.94
6316.00,0.94
6315.00,0.94
6314.00,0.94
6313.00,0.94
6312.00,0.94
6311.00,0.94
6310.00,0.94
6309.00,0.94
6308.00,0.95
6307.00,0.95
6306.00,0.95
6305.00,0.95
6304.00,0.95
6303.00,0.95
6302.00,0.95
6301.00,0.95
6300.00,0.95
6299.00,0.95
6298.00,0.96
6297.00,0.96
6296.00,0.96
6295.00,0.96
6294.00,0.96
6293.00,0.96
6292.00,0.96
6291.00,0.96
6290.00,0.96
6289.00,0.96
6288.00,0.97
6287.00,0.97
6286.00,0.97
6285.00,0.97
6284.00,0.97
6283.00,0.97
6282.00,0.97
6281.00,0.97
6280.00,0.97
6279.00,0.97
6278.00,0.98
6277.00,0.98
6276.00,0.98
6275.00,0.98
6274.00,0.98
6273.00,0.98
6272.00,0.98
6271.00,0.98
6270.00,0.99
6269.00,0.99
6268.00,0.99
6267.00,0.99
6266.00,0.99
6265.00,0.99
6264.00,0.99
6263.00,0.99
6262.00,0.99
6261.00,0.99
6260.00,1.00
6259.00,1.00
6258.00,1.00
6257.00,1.00
6256.00,1.00
6255.00,1.00
6254.00,1.00
6253.00,1.00
6252.00,1.00
6251.00,1.00
6250.00,1.00
6249.00,1.01
6248.00,1.01
6247.00,1.01
6246.00,1.01
6245.00,1.01
6244.00,1.01
6243.00,1.01
6242.00,1.01
6241.00,1.01
6240.00,1.01
6239.00,1.02
6238.00,1.02
6237.00,1.02
6236.00,1.02
6235.00,1.02
6234.00,1.02
6233.00,1.02
6232.00,1.02
6231.00,1.02
6230.00,1.02
6229.00,1.02
6228.00,1.03
6227.00,1.03
6226.00,1.03
6225.00,1.03
6224.00,1.03
6223.00,1.03
6222.00,1.03
6221.00,1.04
6220.00,1.04
6219.00,1.04
6218.00,1.04
6217.00,1.04
6216.00,1.04
6215.00,1.04
6214.00,1.05
6213.00,1.05
6212.00,1.05
6211.00,1.05
6210.00,1.05
6209.00,1.05
6208.00,1.05
6207.00,1.06
6206.00,1.06
6205.00,1.06
6204.00,1.06
6203.00,1.06
6202.00,1.06
6201.00,1.06
6200.00,1.07
6199.00,1.07
6198.00,1.07
6197.00,1.07
6196.00,1.07
6195.00,1.07
6194.00,1.07
6193.00,1.07
6192.00,1.08
6191.00,1.08
6190.00,1.08
6189.00,1.08
6188.00,1.08
6187.00,1.08
6186.00,1.08
6185.00,1.08
6184.00,1.08
6183.00,1.08
6182.00,1.08
6181.00,1.08
6180.00,1.08
6179.00,1.09
6178.00,1.09
6177.00,1.09
6176.00,1.09
6175.00,1.09
6174.00,1.09
6173.00,1.09
6172.00,1.09
6171.00,1.09
6170.00,1.10
6169.00,1.10
6168.00,1.10
6167.00,1.10
6166.00,1.10
6165.00,1.10
6164.00,1.11
6163.00,1.11
6162.00,1.11
6161.00,1.11
6160.00,1.11
6159.00,1.11
6158.00,1.11
6157.00,1.12
6156.00,1.12
6155.00,1.12
6154.00,1.12
6153.00,1.12
6152.00,1.12
6151.00,1.12
6150.00,1.12
6149.00,1.13
6148.00,1.13
6147.00,1.13
6146.00,1.13
6145.00,1.13
6144.00,1.13
6143.00,1.13
6142.00,1.13
6141.00,1.14
6140.00,1.14
6139.00,1.14
6138.00,1.14
6137.00,1.14
6136.00,1.14
6135.00,1.14
6134.00,1.15
6133.00,1.15
6132.00,1.15
6131.00,1.15
6130.00,1.15
6129.00,1.16
6128.00,1.16
6127.00,1.16
6126.00,1.16
6125.00,1.16
6124.00,1.17
6123.00,1.17
6122.00,1.17
6121.00,1.17
6120.00,1.17
6119.00,1.17
6118.00,1.18
6117.00,1.18
6116.00,1.18
6115.00,1.18
6114.00,1.18
6113.00,1.18
6112.00,1.18
6111.00,1.18
6110.00,1.18
6109.00,1.19
6108.00,1.19
6107.00,1.19
6106.00,1.19
6105.00,1.19
6104.00,1.19
6103.00,1.19
6102.00,1.19
6101.00,1.20
6100.00,1.20
6099.00,1.20
6098.00,1.20
6097.00,1.20
6096.00,1.20
6095.00,1.20
6094.00,1.20
6093.00,1.21
6092.00,1.21
6091.00,1.21
6090.00,1.21
6089.00,1.21
6088.00,1.21
6087.00,1.21
6086.00,1.21
6085.00,1.21
6084.00,1.21
6083.00,1.21
6082.00,1.21
6081.00,1.22
6080.00,1.22
6079.00,1.22
6078.00,1.22
6077.00,1.22
6076.00,1.22
6075.00,1.22
6074.00,1.23
6073.00,1.23
6072.00,1.23
6071.00,1.23
6070.00,1.23
6069.00,1.23
6068.00,1.24
6067.00,1.24
6066.00,1.24
6065.00,1.24
6064.00,1.24
6063.00,1.24
6062.00,1.24
6061.00,1.24
6060.00,1.24
6059.00,1.25
6058.00,1.25
6057.00,1.25
6056.00,1.25
6055.00,1.25
6054.00,1.25
6053.00,1.25
6052.00,1.25
6051.00,1.25
6050.00,1.25
6049.00,1.25
6048.00,1.26
6047.00,1.26
6046.00,1.26
6045.00,1.26
6044.00,1.26
6043.00,1.26
6042.00,1.26
6041.00,1.26
6040.00,1.26
6039.00,1.26
6038.00,1.26
6037.00,1.26
6036.00,1.26
6035.00,1.26
6034.00,1.26
6033.00,1.26
6032.00,1.27
6031.00,1.27
6030.00,1.27
6029.00,1.27
6028.00,1.27
6027.00,1.27
6026.00,1.27
6025.00,1.27
6024.00,1.27
6023.00,1.27
6022.00,1.27
6021.00,1.27
6020.00,1.27
6019.00,1.27
6018.00,1.27
6017.00,1.27
6016.00,1.27
6015.00,1.27
6014.00,1.27
6013.00,1.27
6012.00,1.27
6011.00,1.27
6010.00,1.27
6009.00,1.27
6008.00,1.27
6007.00,1.27
6006.00,1.27
6005.00,1.27
6004.00,1.27
6003.00,1.26
6002.00,1.26
6001.00,1.26
6000.00,1.26
5999.00,1.26
5998.00,1.26
5997.00,1.26
5996.00,1.25
5995.00,1.25
5994.00,1.25
5993.00,1.25
5992.00,1.25
5991.00,1.25
5990.00,1.24
5989.00,1.24
5988.00,1.24
5987.00,1.24
5986.00,1.24
5985.00,1.23
5984.00,1.23
5983.00,1.23
5982.00,1.23
5981.00,1.22
5980.00,1.22
5979.00,1.22
5978.00,1.21
5977.00,1.21
5976.00,1.21
5975.00,1.20
5974.00,1.20
5973.00,1.19
5972.00,1.19
5971.00,1.18
5970.00,1.18
5969.00,1.17
5968.00,1.17
5967.00,1.16
5966.00,1.16
5965.00,1.15
5964.00,1.15
5963.00,1.14
5962.00,1.13
5961.00,1.13
5960.00,1.12
5959.00,1.11
5958.00,1.11
5957.00,1.10
5956.00,1.09
5955.00,1.09
5954.00,1.08
5953.00,1.08
5952.00,1.07
5951.00,1.06
5950.00,1.06
5949.00,1.06
5948.00,1.05
5947.00,1.05
5946.00,1.05
5945.00,1.04
5944.00,1.04
5943.00,1.04
5942.00,1.04
5941.00,1.04
5940.00,1.04
5939.00,1.03
5938.00,1.03
5937.00,1.03
5936.00,1.03
5935.00,1.03
5934.00,1.03
5933.00,1.03
5932.00,1.03
5931.00,1.03
5930.00,1.03
5929.00,1.03
5928.00,1.03
5927.00,1.03
5926.00,1.03
5925.00,1.03
5924.00,1.03
5923.00,1.02
5922.00,1.02
5921.00,1.02
5920.00,1.02
5919.00,1.02
5918.00,1.02
5917.00,1.01
5916.00,1.01
5915.00,1.01
5914.00,1.01
5913.00,1.00
5912.00,1.00
5911.00,1.00
5910.00,1.00
5909.00,1.00
5908.00,1.00
5907.00,0.99
5906.00,0.99
5905.00,0.99
5904.00,0.99
5903.00,0.99
5902.00,0.99
5901.00,0.99
5900.00,0.99
5899.00,0.99
5898.00,1.00
5897.00,1.00
5896.00,1.00
5895.00,1.00
5894.00,1.00
5893.00,1.00
5892.00,1.01
5891.00,1.01
5890.00,1.01
5889.00,1.01
5888.00,1.01
5887.00,1.02
5886.00,1.02
5885.00,1.02
5884.00,1.02
5883.00,1.03
5882.00,1.03
5881.00,1.03
5880.00,1.03
5879.00,1.03
5878.00,1.04
5877.00,1.04
5876.00,1.04
5875.00,1.04
5874.00,1.04
5873.00,1.05
5872.00,1.05
5871.00,1.05
5870.00,1.05
5869.00,1.05
5868.00,1.05
5867.00,1.05
5866.00,1.06
5865.00,1.06
5864.00,1.06
5863.00,1.06
5862.00,1.06
5861.00,1.06
5860.00,1.06
5859.00,1.07
5858.00,1.07
5857.00,1.07
5856.00,1.07
5855.00,1.07
5854.00,1.07
5853.00,1.07
5852.00,1.07
5851.00,1.08
5850.00,1.08
5849.00,1.08
5848.00,1.08
5847.00,1.08
5846.00,1.08
5845.00,1.08
5844.00,1.08
5843.00,1.08
5842.00,1.08
5841.00,1.08
5840.00,1.08
5839.00,1.08
5838.00,1.08
5837.00,1.08
5836.00,1.08
5835.00,1.08
5834.00,1.08
5833.00,1.08
5832.00,1.08
5831.00,1.08
5830.00,1.08
5829.00,1.08
5828.00,1.08
5827.00,1.08
5826.00,1.08
5825.00,1.08
5824.00,1.08
5823.00,1.08
5822.00,1.08
5821.00,1.08
5820.00,1.08
5819.00,1.08
5818.00,1.08
5817.00,1.08
5816.00,1.08
5815.00,1.08
5814.00,1.08
5813.00,1.08
5812.00,1.08
5811.00,1.08
5810.00,1.08
5809.00,1.08
5808.00,1.08
5807.00,1.08
5806.00,1.08
5805.00,1.08
5804.00,1.08
5803.00,1.08
5802.00,1.08
5801.00,1.08
5800.00,1.08
5799.00,1.08
5798.00,1.08
5797.00,1.07
5796.00,1.07
5795.00,1.07
5794.00,1.07
5793.00,1.07
5792.00,1.07
5791.00,1.06
5790.00,1.06
5789.00,1.06
5788.00,1.06
5787.00,1.06
5786.00,1.05
5785.00,1.05
5784.00,1.05
5783.00,1.05
5782.00,1.05
5781.00,1.05
5780.00,1.04
5779.00,1.04
5778.00,1.04
5777.00,1.04
5776.00,1.04
5775.00,1.04
5774.00,1.04
5773.00,1.04
5772.00,1.04
5771.00,1.04
5770.00,1.04
5769.00,1.04
5768.00,1.04
5767.00,1.04
5766.00,1.04
5765.00,1.04
5764.00,1.04
5763.00,1.04
5762.00,1.05
5761.00,1.05
5760.00,1.05
5759.00,1.05
5758.00,1.06
5757.00,1.06
5756.00,1.06
5755.00,1.07
5754.00,1.07
5753.00,1.07
5752.00,1.08
5751.00,1.08
5750.00,1.08
5749.00,1.09
5748.00,1.09
5747.00,1.09
5746.00,1.10
5745.00,1.10
5744.00,1.10
5743.00,1.11
5742.00,1.11
5741.00,1.11
5740.00,1.12
5739.00,1.12
5738.00,1.12
5737.00,1.12
5736.00,1.12
5735.00,1.13
5734.00,1.13
5733.00,1.13
5732.00,1.13
5731.00,1.13
5730.00,1.13
5729.00,1.14
5728.00,1.14
5727.00,1.14
5726.00,1.14
5725.00,1.14
5724.00,1.14
5723.00,1.14
5722.00,1.14
5721.00,1.14
5720.00,1.14
5719.00,1.14
5718.00,1.14
5717.00,1.14
5716.00,1.14
5715.00,1.14
5714.00,1.14
5713.00,1.14
5712.00,1.14
5711.00,1.14
5710.00,1.14
5709.00,1.14
5708.00,1.14
5707.00,1.14
5706.00,1.14
5705.00,1.14
5704.00,1.14
5703.00,1.13
5702.00,1.13
5701.00,1.13
5700.00,1.13
5699.00,1.13
5698.00,1.13
5697.00,1.13
5696.00,1.13
5695.00,1.13
5694.00,1.13
5693.00,1.13
5692.00,1.12
5691.00,1.12
5690.00,1.12
5689.00,1.12
5688.00,1.12
5687.00,1.12
5686.00,1.12
5685.00,1.12
5684.00,1.12
5683.00,1.12
5682.00,1.11
5681.00,1.11
5680.00,1.11
5679.00,1.11
5678.00,1.11
5677.00,1.11
5676.00,1.11
5675.00,1.11
5674.00,1.11
5673.00,1.11
5672.00,1.11
5671.00,1.11
5670.00,1.11
5669.00,1.12
5668.00,1.12
5667.00,1.12
5666.00,1.12
5665.00,1.12
5664.00,1.12
5663.00,1.12
5662.00,1.12
5661.00,1.13
5660.00,1.13
5659.00,1.13
5658.00,1.13
5657.00,1.13
5656.00,1.13
5655.00,1.13
5654.00,1.14
5653.00,1.14
5652.00,1.14
5651.00,1.14
5650.00,1.14
5649.00,1.15
5648.00,1.15
5647.00,1.15
5646.00,1.15
5645.00,1.15
5644.00,1.16
5643.00,1.16
5642.00,1.16
5641.00,1.16
5640.00,1.16
5639.00,1.16
5638.00,1.17
5637.00,1.17
5636.00,1.17
5635.00,1.17
5634.00,1.17
5633.00,1.17
5632.00,1.17
5631.00,1.18
5630.00,1.18
5629.00,1.18
5628.00,1.18
5627.00,1.18
5626.00,1.18
5625.00,1.18
5624.00,1.18
5623.00,1.18
5622.00,1.18
5621.00,1.19
5620.00,1.19
5619.00,1.19
5618.00,1.19
5617.00,1.19
5616.00,1.19
5615.00,1.19
5614.00,1.20
5613.00,1.20
5612.00,1.20
5611.00,1.20
5610.00,1.20
5609.00,1.20
5608.00,1.21
5607.00,1.21
5606.00,1.21
5605.00,1.21
5604.00,1.21
5603.00,1.22
5602.00,1.22
5601.00,1.22
5600.00,1.22
5599.00,1.22
5598.00,1.23
5597.00,1.23
5596.00,1.23
5595.00,1.23
5594.00,1.23
5593.00,1.23
5592.00,1.24
5591.00,1.24
5590.00,1.24
5589.00,1.24
5588.00,1.24
5587.00,1.24
5586.00,1.24
5585.00,1.25
5584.00,1.25
5583.00,1.25
5582.00,1.25
5581.00,1.25
5580.00,1.25
5579.00,1.25
5578.00,1.26
5577.00,1.26
5576.00,1.26
5575.00,1.26
5574.00,1.26
5573.00,1.26
5572.00,1.26
5571.00,1.27
5570.00,1.27
5569.00,1.27
5568.00,1.27
5567.00,1.27
5566.00,1.27
5565.00,1.28
5564.00,1.28
5563.00,1.28
5562.00,1.28
5561.00,1.28
5560.00,1.28
5559.00,1.28
5558.00,1.28
5557.00,1.29
5556.00,1.29
5555.00,1.29
5554.00,1.29
5553.00,1.29
5552.00,1.29
5551.00,1.29
5550.00,1.29
5549.00,1.29
5548.00,1.30
5547.00,1.30
5546.00,1.30
5545.00,1.30
5544.00,1.30
5543.00,1.30
5542.00,1.30
5541.00,1.30
5540.00,1.30
5539.00,1.31
5538.00,1.31
5537.00,1.31
5536.00,1.31
5535.00,1.31
5534.00,1.31
5533.00,1.31
5532.00,1.31
5531.00,1.31
5530.00,1.31
5529.00,1.31
5528.00,1.32
5527.00,1.32
5526.00,1.32
5525.00,1.32
5524.00,1.32
5523.00,1.32
5522.00,1.32
5521.00,1.32
5520.00,1.32
5519.00,1.32
5518.00,1.32
5517.00,1.32
5516.00,1.32
5515.00,1.33
5514.00,1.33
5513.00,1.33
5512.00,1.33
5511.00,1.33
5510.00,1.33
5509.00,1.33
5508.00,1.33
5507.00,1.33
5506.00,1.33
5505.00,1.33
5504.00,1.33
5503.00,1.33
5502.00,1.33
5501.00,1.33
5500.00,1.33
5499.00,1.33
5498.00,1.33
5497.00,1.33
5496.00,1.33
5495.00,1.33
5494.00,1.34
5493.00,1.34
5492.00,1.34
5491.00,1.34
5490.00,1.34
5489.00,1.34
5488.00,1.35
5487.00,1.35
5486.00,1.35
5485.00,1.35
5484.00,1.35
5483.00,1.35
5482.00,1.36
5481.00,1.36
5480.00,1.36
5479.00,1.36
5478.00,1.36
5477.00,1.36
5476.00,1.36
5475.00,1.36
5474.00,1.36
5473.00,1.36
5472.00,1.36
5471.00,1.36
5470.00,1.36
5469.00,1.36
5468.00,1.36
5467.00,1.36
5466.00,1.36
5465.00,1.36
5464.00,1.36
5463.00,1.37
5462.00,1.37
5461.00,1.37
5460.00,1.37
5459.00,1.37
5458.00,1.37
5457.00,1.37
5456.00,1.38
5455.00,1.38
5454.00,1.38
5453.00,1.38
5452.00,1.38
5451.00,1.38
5450.00,1.38
5449.00,1.38
5448.00,1.38
5447.00,1.38
5446.00,1.38
5445.00,1.38
5444.00,1.38
5443.00,1.38
5442.00,1.38
5441.00,1.38
5440.00,1.38
5439.00,1.38
5438.00,1.38
5437.00,1.38
5436.00,1.38
5435.00,1.38
5434.00,1.38
5433.00,1.38
5432.00,1.39
5431.00,1.39
5430.00,1.39
5429.00,1.39
5428.00,1.39
5427.00,1.39
5426.00,1.39
5425.00,1.39
5424.00,1.39
5423.00,1.39
5422.00,1.39
5421.00,1.39
5420.00,1.39
5419.00,1.39
5418.00,1.39
5417.00,1.39
5416.00,1.39
5415.00,1.39
5414.00,1.39
5413.00,1.39
5412.00,1.39
5411.00,1.39
5410.00,1.39
5409.00,1.39
5408.00,1.39
5407.00,1.39
5406.00,1.39
5405.00,1.39
5404.00,1.39
5403.00,1.39
5402.00,1.39
5401.00,1.39
5400.00,1.39
5399.00,1.39
5398.00,1.39
5397.00,1.39
5396.00,1.39
5395.00,1.39
5394.00,1.39
5393.00,1.39
5392.00,1.38
5391.00,1.38
5390.00,1.38
5389.00,1.38
5388.00,1.37
5387.00,1.37
5386.00,1.37
5385.00,1.37
5384.00,1.36
5383.00,1.36
5382.00,1.36
5381.00,1.35
5380.00,1.35
5379.00,1.34
5378.00,1.34
5377.00,1.34
5376.00,1.33
5375.00,1.33
5374.00,1.33
5373.00,1.32
5372.00,1.32
5371.00,1.32
5370.00,1.31
5369.00,1.31
5368.00,1.30
5367.00,1.30
5366.00,1.30
5365.00,1.29
5364.00,1.29
5363.00,1.28
5362.00,1.28
5361.00,1.27
5360.00,1.26
5359.00,1.26
5358.00,1.25
5357.00,1.24
5356.00,1.24
5355.00,1.23
5354.00,1.22
5353.00,1.21
5352.00,1.21
5351.00,1.20
5350.00,1.19
5349.00,1.18
5348.00,1.18
5347.00,1.17
5346.00,1.16
5345.00,1.15
5344.00,1.14
5343.00,1.14
5342.00,1.13
5341.00,1.12
5340.00,1.11
5339.00,1.11
5338.00,1.10
5337.00,1.09
5336.00,1.09
5335.00,1.08
5334.00,1.07
5333.00,1.07
5332.00,1.06
5331.00,1.06
5330.00,1.05
5329.00,1.04
5328.00,1.04
5327.00,1.03
5326.00,1.03
5325.00,1.02
5324.00,1.02
5323.00,1.01
5322.00,1.01
5321.00,1.00
5320.00,1.00
5319.00,0.99
5318.00,0.99
5317.00,0.99
5316.00,0.98
5315.00,0.98
5314.00,0.98
5313.00,0.97
5312.00,0.97
5311.00,0.97
5310.00,0.96
5309.00,0.96
5308.00,0.96
5307.00,0.96
5306.00,0.96
5305.00,0.95
5304.00,0.95
5303.00,0.95
5302.00,0.95
5301.00,0.95
5300.00,0.95
5299.00,0.94
5298.00,0.94
5297.00,0.94
5296.00,0.94
5295.00,0.94
5294.00,0.94
5293.00,0.94
5292.00,0.94
5291.00,0.93
5290.00,0.93
5289.00,0.93
5288.00,0.93
5287.00,0.93
5286.00,0.93
5285.00,0.93
5284.00,0.93
5283.00,0.93
5282.00,0.93
5281.00,0.93
5280.00,0.93
5279.00,0.93
5278.00,0.93
5277.00,0.93
5276.00,0.93
5275.00,0.93
5274.00,0.93
5273.00,0.93
5272.00,0.93
5271.00,0.93
5270.00,0.93
5269.00,0.93
5268.00,0.93
5267.00,0.93
5266.00,0.93
5265.00,0.93
5264.00,0.93
5263.00,0.93
5262.00,0.93
5261.00,0.92
5260.00,0.92
5259.00,0.92
5258.00,0.92
5257.00,0.92
5256.00,0.92
5255.00,0.92
5254.00,0.92
5253.00,0.92
5252.00,0.92
5251.00,0.92
5250.00,0.92
5249.00,0.92
5248.00,0.92
5247.00,0.92
5246.00,0.93
5245.00,0.93
5244.00,0.93
5243.00,0.93
5242.00,0.93
5241.00,0.93
5240.00,0.93
5239.00,0.93
5238.00,0.93
5237.00,0.93
5236.00,0.93
5235.00,0.93
5234.00,0.93
5233.00,0.94
5232.00,0.94
5231.00,0.94
5230.00,0.94
5229.00,0.94
5228.00,0.94
5227.00,0.94
5226.00,0.94
5225.00,0.94
5224.00,0.94
5223.00,0.94
5222.00,0.94
5221.00,0.94
5220.00,0.94
5219.00,0.94
5218.00,0.94
5217.00,0.94
5216.00,0.94
5215.00,0.94
5214.00,0.94
5213.00,0.94
5212.00,0.94
5211.00,0.94
5210.00,0.94
5209.00,0.94
5208.00,0.94
5207.00,0.94
5206.00,0.94
5205.00,0.94
5204.00,0.94
5203.00,0.94
5202.00,0.94
5201.00,0.94
5200.00,0.94
5199.00,0.95
5198.00,0.95
5197.00,0.95
5196.00,0.95
5195.00,0.95
5194.00,0.95
5193.00,0.95
5192.00,0.95
5191.00,0.95
5190.00,0.95
5189.00,0.95
5188.00,0.95
5187.00,0.95
5186.00,0.95
5185.00,0.95
5184.00,0.95
5183.00,0.95
5182.00,0.95
5181.00,0.95
5180.00,0.95
5179.00,0.95
5178.00,0.95
5177.00,0.95
5176.00,0.95
5175.00,0.95
5174.00,0.95
5173.00,0.95
5172.00,0.95
5171.00,0.95
5170.00,0.95
5169.00,0.95
5168.00,0.95
5167.00,0.95
5166.00,0.95
5165.00,0.95
5164.00,0.95
5163.00,0.95
5162.00,0.95
5161.00,0.95
5160.00,0.95
5159.00,0.96
5158.00,0.96
5157.00,0.96
5156.00,0.96
5155.00,0.96
5154.00,0.96
5153.00,0.96
5152.00,0.96
5151.00,0.96
5150.00,0.96
5149.00,0.96
5148.00,0.96
5147.00,0.96
5146.00,0.96
5145.00,0.96
5144.00,0.96
5143.00,0.96
5142.00,0.96
5141.00,0.96
5140.00,0.96
5139.00,0.96
5138.00,0.96
5137.00,0.96
5136.00,0.96
5135.00,0.96
5134.00,0.96
5133.00,0.96
5132.00,0.97
5131.00,0.97
5130.00,0.97
5129.00,0.97
5128.00,0.97
5127.00,0.97
5126.00,0.97
5125.00,0.97
5124.00,0.97
5123.00,0.97
5122.00,0.97
5121.00,0.97
5120.00,0.97
5119.00,0.97
5118.00,0.97
5117.00,0.97
5116.00,0.97
5115.00,0.97
5114.00,0.97
5113.00,0.98
5112.00,0.98
5111.00,0.98
5110.00,0.98
5109.00,0.98
5108.00,0.97
5107.00,0.97
5106.00,0.97
5105.00,0.97
5104.00,0.97
5103.00,0.97
5102.00,0.97
5101.00,0.97
5100.00,0.97
5099.00,0.97
5098.00,0.97
5097.00,0.97
5096.00,0.97
5095.00,0.97
5094.00,0.97
5093.00,0.98
5092.00,0.98
5091.00,0.98
5090.00,0.98
5089.00,0.98
5088.00,0.98
5087.00,0.98
5086.00,0.98
5085.00,0.98
5084.00,0.99
5083.00,0.99
5082.00,0.99
5081.00,0.99
5080.00,0.99
5079.00,0.99
5078.00,0.99
5077.00,0.99
5076.00,0.99
5075.00,0.99
5074.00,0.99
5073.00,1.00
5072.00,1.00
5071.00,1.00
5070.00,1.00
5069.00,1.00
5068.00,1.00
5067.00,1.00
5066.00,1.00
5065.00,1.00
5064.00,1.00
5063.00,1.00
5062.00,1.00
5061.00,1.00
5060.00,1.00
5059.00,1.00
5058.00,1.00
5057.00,1.00
5056.00,1.00
5055.00,1.00
5054.00,1.00
5053.00,1.00
5052.00,1.00
5051.00,1.00
5050.00,1.00
5049.00,1.00
5048.00,1.00
5047.00,1.00
5046.00,1.00
5045.00,1.00
5044.00,1.00
5043.00,1.00
5042.00,1.00
5041.00,1.01
5040.00,1.01
5039.00,1.01
5038.00,1.01
5037.00,1.01
5036.00,1.01
5035.00,1.01
5034.00,1.01
5033.00,1.01
5032.00,1.01
5031.00,1.01
5030.00,1.01
5029.00,1.01
5028.00,1.01
5027.00,1.01
5026.00,1.01
5025.00,1.01
5024.00,1.01
5023.00,1.01
5022.00,1.01
5021.00,1.01
5020.00,1.01
5019.00,1.01
5018.00,1.01
5017.00,1.01
5016.00,1.01
5015.00,1.01
5014.00,1.01
5013.00,1.02
5012.00,1.02
5011.00,1.02
5010.00,1.02
5009.00,1.02
5008.00,1.02
5007.00,1.02
5006.00,1.02
5005.00,1.02
5004.00,1.02
5003.00,1.02
5002.00,1.02
5001.00,1.02
5000.00,1.02
4999.00,1.02
4998.00,1.02
4997.00,1.02
4996.00,1.02
4995.00,1.02
4994.00,1.02
4993.00,1.02
4992.00,1.02
4991.00,1.02
4990.00,1.03
4989.00,1.03
4988.00,1.03
4987.00,1.03
4986.00,1.03
4985.00,1.03
4984.00,1.03
4983.00,1.03
4982.00,1.03
4981.00,1.03
4980.00,1.03
4979.00,1.03
4978.00,1.03
4977.00,1.03
4976.00,1.03
4975.00,1.03
4974.00,1.03
4973.00,1.03
4972.00,1.03
4971.00,1.03
4970.00,1.03
4969.00,1.03
4968.00,1.03
4967.00,1.03
4966.00,1.03
4965.00,1.03
4964.00,1.03
4963.00,1.03
4962.00,1.03
4961.00,1.03
4960.00,1.03
4959.00,1.03
4958.00,1.03
4957.00,1.04
4956.00,1.04
4955.00,1.04
4954.00,1.04
4953.00,1.04
4952.00,1.04
4951.00,1.04
4950.00,1.04
4949.00,1.04
4948.00,1.05
4947.00,1.05
4946.00,1.05
4945.00,1.05
4944.00,1.05
4943.00,1.05
4942.00,1.05
4941.00,1.05
4940.00,1.05
4939.00,1.05
4938.00,1.05
4937.00,1.05
4936.00,1.05
4935.00,1.05
4934.00,1.05
4933.00,1.05
4932.00,1.05
4931.00,1.05
4930.00,1.05
4929.00,1.05
4928.00,1.05
4927.00,1.05
4926.00,1.05
4925.00,1.05
4924.00,1.05
4923.00,1.05
4922.00,1.05
4921.00,1.05
4920.00,1.05
4919.00,1.05
4918.00,1.05
4917.00,1.05
4916.00,1.05
4915.00,1.05
4914.00,1.05
4913.00,1.05
4912.00,1.05
4911.00,1.05
4910.00,1.05
4909.00,1.05
4908.00,1.05
4907.00,1.05
4906.00,1.05
4905.00,1.05
4904.00,1.05
4903.00,1.05
4902.00,1.05
4901.00,1.05
4900.00,1.05
4899.00,1.05
4898.00,1.05
4897.00,1.05
4896.00,1.05
4895.00,1.05
4894.00,1.05
4893.00,1.05
4892.00,1.05
4891.00,1.05
4890.00,1.05
4889.00,1.05
4888.00,1.05
4887.00,1.06
4886.00,1.06
4885.00,1.06
4884.00,1.06
4883.00,1.06
4882.00,1.06
4881.00,1.06
4880.00,1.06
4879.00,1.06
4878.00,1.06
4877.00,1.06
4876.00,1.06
4875.00,1.07
4874.00,1.07
4873.00,1.07
4872.00,1.07
4871.00,1.07
4870.00,1.07
4869.00,1.07
4868.00,1.07
4867.00,1.07
4866.00,1.07
4865.00,1.07
4864.00,1.07
4863.00,1.08
4862.00,1.08
4861.00,1.08
4860.00,1.08
4859.00,1.08
4858.00,1.08
4857.00,1.08
4856.00,1.08
4855.00,1.08
4854.00,1.08
4853.00,1.08
4852.00,1.08
4851.00,1.08
4850.00,1.08
4849.00,1.08
4848.00,1.08
4847.00,1.08
4846.00,1.08
4845.00,1.08
4844.00,1.08
4843.00,1.08
4842.00,1.08
4841.00,1.08
4840.00,1.08
4839.00,1.08
4838.00,1.08
4837.00,1.08
4836.00,1.08
4835.00,1.09
4834.00,1.09
4833.00,1.09
4832.00,1.09
4831.00,1.09
4830.00,1.09
4829.00,1.09
4828.00,1.09
4827.00,1.09
4826.00,1.09
4825.00,1.09
4824.00,1.09
4823.00,1.09
4822.00,1.09
4821.00,1.09
4820.00,1.09
4819.00,1.09
4818.00,1.09
4817.00,1.09
4816.00,1.09
4815.00,1.09
4814.00,1.09
4813.00,1.09
4812.00,1.09
4811.00,1.09
4810.00,1.09
4809.00,1.09
4808.00,1.09
4807.00,1.09
4806.00,1.09
4805.00,1.09
4804.00,1.09
4803.00,1.09
4802.00,1.09
4801.00,1.09
4800.00,1.09
4799.00,1.09
4798.00,1.09
4797.00,1.09
4796.00,1.09
4795.00,1.09
4794.00,1.10
4793.00,1.10
4792.00,1.10
4791.00,1.10
4790.00,1.10
4789.00,1.10
4788.00,1.10
4787.00,1.10
4786.00,1.10
4785.00,1.11
4784.00,1.11
4783.00,1.11
4782.00,1.11
4781.00,1.11
4780.00,1.11
4779.00,1.11
4778.00,1.11
4777.00,1.11
4776.00,1.11
4775.00,1.11
4774.00,1.11
4773.00,1.11
4772.00,1.11
4771.00,1.11
4770.00,1.11
4769.00,1.11
4768.00,1.11
4767.00,1.11
4766.00,1.11
4765.00,1.11
4764.00,1.11
4763.00,1.11
4762.00,1.11
4761.00,1.11
4760.00,1.11
4759.00,1.11
4758.00,1.11
4757.00,1.12
4756.00,1.12
4755.00,1.12
4754.00,1.12
4753.00,1.12
4752.00,1.12
4751.00,1.12
4750.00,1.12
4749.00,1.12
4748.00,1.12
4747.00,1.12
4746.00,1.12
4745.00,1.12
4744.00,1.12
4743.00,1.12
4742.00,1.12
4741.00,1.13
4740.00,1.13
4739.00,1.13
4738.00,1.13
4737.00,1.13
4736.00,1.13
4735.00,1.13
4734.00,1.13
4733.00,1.13
4732.00,1.14
4731.00,1.14
4730.00,1.14
4729.00,1.14
4728.00,1.14
4727.00,1.14
4726.00,1.14
4725.00,1.14
4724.00,1.14
4723.00,1.14
4722.00,1.14
4721.00,1.14
4720.00,1.14
4719.00,1.14
4718.00,1.14
4717.00,1.14
4716.00,1.14
4715.00,1.14
4714.00,1.14
4713.00,1.14
4712.00,1.14
4711.00,1.14
4710.00,1.14
4709.00,1.14
4708.00,1.14
4707.00,1.14
4706.00,1.14
4705.00,1.14
4704.00,1.15
4703.00,1.15
4702.00,1.15
4701.00,1.15
4700.00,1.15
4699.00,1.15
4698.00,1.15
4697.00,1.15
4696.00,1.15
4695.00,1.15
4694.00,1.15
4693.00,1.16
4692.00,1.16
4691.00,1.16
4690.00,1.16
4689.00,1.16
4688.00,1.16
4687.00,1.16
4686.00,1.16
4685.00,1.16
4684.00,1.17
4683.00,1.17
4682.00,1.17
4681.00,1.17
4680.00,1.17
4679.00,1.17
4678.00,1.17
4677.00,1.17
4676.00,1.17
4675.00,1.16
4674.00,1.16
4673.00,1.16
4672.00,1.16
4671.00,1.17
4670.00,1.17
4669.00,1.17
4668.00,1.17
4667.00,1.17
4666.00,1.17
4665.00,1.17
4664.00,1.17
4663.00,1.17
4662.00,1.18
4661.00,1.18
4660.00,1.18
4659.00,1.18
4658.00,1.18
4657.00,1.18
4656.00,1.18
4655.00,1.18
4654.00,1.19
4653.00,1.19
4652.00,1.19
4651.00,1.19
4650.00,1.19
4649.00,1.19
4648.00,1.19
4647.00,1.19
4646.00,1.19
4645.00,1.19
4644.00,1.19
4643.00,1.19
4642.00,1.19
4641.00,1.19
4640.00,1.19
4639.00,1.19
4638.00,1.19
4637.00,1.19
4636.00,1.19
4635.00,1.19
4634.00,1.19
4633.00,1.19
4632.00,1.19
4631.00,1.19
4630.00,1.19
4629.00,1.19
4628.00,1.19
4627.00,1.20
4626.00,1.20
4625.00,1.20
4624.00,1.20
4623.00,1.20
4622.00,1.20
4621.00,1.20
4620.00,1.20
4619.00,1.20
4618.00,1.20
4617.00,1.21
4616.00,1.21
4615.00,1.21
4614.00,1.21
4613.00,1.21
4612.00,1.21
4611.00,1.21
4610.00,1.21
4609.00,1.21
4608.00,1.21
4607.00,1.21
4606.00,1.21
4605.00,1.21
4604.00,1.21
4603.00,1.21
4602.00,1.21
4601.00,1.21
4600.00,1.21
4599.00,1.21
4598.00,1.21
4597.00,1.21
4596.00,1.21
4595.00,1.21
4594.00,1.21
4593.00,1.21
4592.00,1.21
4591.00,1.21
4590.00,1.21
4589.00,1.21
4588.00,1.21
4587.00,1.21
4586.00,1.21
4585.00,1.21
4584.00,1.21
4583.00,1.21
4582.00,1.21
4581.00,1.21
4580.00,1.21
4579.00,1.21
4578.00,1.21
4577.00,1.21
4576.00,1.21
4575.00,1.21
4574.00,1.21
4573.00,1.21
4572.00,1.21
4571.00,1.21
4570.00,1.22
4569.00,1.22
4568.00,1.22
4567.00,1.22
4566.00,1.22
4565.00,1.22
4564.00,1.22
4563.00,1.22
4562.00,1.22
4561.00,1.22
4560.00,1.23
4559.00,1.23
4558.00,1.23
4557.00,1.23
4556.00,1.23
4555.00,1.23
4554.00,1.23
4553.00,1.23
4552.00,1.23
4551.00,1.23
4550.00,1.23
4549.00,1.23
4548.00,1.23
4547.00,1.23
4546.00,1.23
4545.00,1.23
4544.00,1.23
4543.00,1.23
4542.00,1.23
4541.00,1.23
4540.00,1.23
4539.00,1.23
4538.00,1.24
4537.00,1.24
4536.00,1.24
4535.00,1.24
4534.00,1.24
4533.00,1.24
4532.00,1.24
4531.00,1.24
4530.00,1.24
4529.00,1.24
4528.00,1.24
4527.00,1.24
4526.00,1.24
4525.00,1.24
4524.00,1.24
4523.00,1.24
4522.00,1.24
4521.00,1.24
4520.00,1.24
4519.00,1.24
4518.00,1.24
4517.00,1.24
4516.00,1.24
4515.00,1.24
4514.00,1.24
4513.00,1.24
4512.00,1.24
4511.00,1.24
4510.00,1.24
4509.00,1.24
4508.00,1.24
4507.00,1.24
4506.00,1.24
4505.00,1.24
4504.00,1.24
4503.00,1.24
4502.00,1.24
4501.00,1.24
4500.00,1.24
4499.00,1.24
4498.00,1.24
4497.00,1.25
4496.00,1.25
4495.00,1.25
4494.00,1.25
4493.00,1.25
4492.00,1.25
4491.00,1.25
4490.00,1.25
4489.00,1.25
4488.00,1.25
4487.00,1.25
4486.00,1.25
4485.00,1.25
4484.00,1.25
4483.00,1.24
4482.00,1.24
4481.00,1.24
4480.00,1.24
4479.00,1.24
4478.00,1.24
4477.00,1.24
4476.00,1.24
4475.00,1.24
4474.00,1.24
4473.00,1.24
4472.00,1.23
4471.00,1.23
4470.00,1.23
4469.00,1.23
4468.00,1.23
4467.00,1.23
4466.00,1.23
4465.00,1.23
4464.00,1.23
4463.00,1.23
4462.00,1.23
4461.00,1.23
4460.00,1.23
4459.00,1.23
4458.00,1.23
4457.00,1.23
4456.00,1.23
4455.00,1.23
4454.00,1.23
4453.00,1.23
4452.00,1.23
4451.00,1.23
4450.00,1.22
4449.00,1.22
4448.00,1.22
4447.00,1.22
4446.00,1.22
4445.00,1.22
4444.00,1.22
4443.00,1.22
4442.00,1.22
4441.00,1.22
4440.00,1.22
4439.00,1.22
4438.00,1.22
4437.00,1.22
4436.00,1.22
4435.00,1.22
4434.00,1.22
4433.00,1.22
4432.00,1.22
4431.00,1.22
4430.00,1.22
4429.00,1.22
4428.00,1.22
4427.00,1.22
4426.00,1.22
4425.00,1.22
4424.00,1.22
4423.00,1.22
4422.00,1.22
4421.00,1.22
4420.00,1.22
4419.00,1.22
4418.00,1.22
4417.00,1.22
4416.00,1.22
4415.00,1.22
4414.00,1.22
4413.00,1.22
4412.00,1.22
4411.00,1.22
4410.00,1.22
4409.00,1.22
4408.00,1.22
4407.00,1.22
4406.00,1.22
4405.00,1.22
4404.00,1.22
4403.00,1.22
4402.00,1.22
4401.00,1.22
4400.00,1.22
4399.00,1.22
4398.00,1.23
4397.00,1.23
4396.00,1.23
4395.00,1.23
4394.00,1.23
4393.00,1.23
4392.00,1.23
4391.00,1.23
4390.00,1.23
4389.00,1.23
4388.00,1.23
4387.00,1.23
4386.00,1.23
4385.00,1.23
4384.00,1.23
4383.00,1.23
4382.00,1.23
4381.00,1.23
4380.00,1.23
4379.00,1.23
4378.00,1.23
4377.00,1.23
4376.00,1.23
4375.00,1.23
4374.00,1.23
4373.00,1.23
4372.00,1.23
4371.00,1.23
4370.00,1.23
4369.00,1.23
4368.00,1.24
4367.00,1.24
4366.00,1.24
4365.00,1.24
4364.00,1.24
4363.00,1.24
4362.00,1.24
4361.00,1.24
4360.00,1.24
4359.00,1.24
4358.00,1.24
4357.00,1.24
4356.00,1.24
4355.00,1.24
4354.00,1.24
4353.00,1.24
4352.00,1.24
4351.00,1.24
4350.00,1.24
4349.00,1.24
4348.00,1.24
4347.00,1.24
4346.00,1.24
4345.00,1.24
4344.00,1.24
4343.00,1.25
4342.00,1.25
4341.00,1.25
4340.00,1.25
4339.00,1.25
4338.00,1.25
4337.00,1.25
4336.00,1.25
4335.00,1.25
4334.00,1.25
4333.00,1.25
4332.00,1.25
4331.00,1.25
4330.00,1.25
4329.00,1.25
4328.00,1.25
4327.00,1.25
4326.00,1.25
4325.00,1.25
4324.00,1.25
4323.00,1.25
4322.00,1.25
4321.00,1.25
4320.00,1.25
4319.00,1.25
4318.00,1.25
4317.00,1.25
4316.00,1.25
4315.00,1.25
4314.00,1.25
4313.00,1.25
4312.00,1.25
4311.00,1.25
4310.00,1.25
4309.00,1.25
4308.00,1.26
4307.00,1.26
4306.00,1.26
4305.00,1.26
4304.00,1.26
4303.00,1.26
4302.00,1.26
4301.00,1.26
4300.00,1.26
4299.00,1.26
4298.00,1.26
4297.00,1.26
4296.00,1.26
4295.00,1.27
4294.00,1.27
4293.00,1.27
4292.00,1.27
4291.00,1.27
4290.00,1.27
4289.00,1.27
4288.00,1.27
4287.00,1.27
4286.00,1.27
4285.00,1.27
4284.00,1.27
4283.00,1.27
4282.00,1.27
4281.00,1.27
4280.00,1.27
4279.00,1.27
4278.00,1.27
4277.00,1.27
4276.00,1.27
4275.00,1.27
4274.00,1.27
4273.00,1.27
4272.00,1.27
4271.00,1.27
4270.00,1.27
4269.00,1.27
4268.00,1.27
4267.00,1.27
4266.00,1.27
4265.00,1.27
4264.00,1.27
4263.00,1.27
4262.00,1.27
4261.00,1.27
4260.00,1.27
4259.00,1.27
4258.00,1.27
4257.00,1.27
4256.00,1.27
4255.00,1.27
4254.00,1.27
4253.00,1.27
4252.00,1.27
4251.00,1.27
4250.00,1.27
4249.00,1.27
4248.00,1.27
4247.00,1.27
4246.00,1.27
4245.00,1.27
4244.00,1.27
4243.00,1.28
4242.00,1.28
4241.00,1.28
4240.00,1.28
4239.00,1.28
4238.00,1.28
4237.00,1.28
4236.00,1.29
4235.00,1.29
4234.00,1.29
4233.00,1.29
4232.00,1.29
4231.00,1.29
4230.00,1.30
4229.00,1.30
4228.00,1.30
4227.00,1.30
4226.00,1.30
4225.00,1.30
4224.00,1.30
4223.00,1.30
4222.00,1.30
4221.00,1.30
4220.00,1.30
4219.00,1.31
4218.00,1.31
4217.00,1.31
4216.00,1.31
4215.00,1.31
4214.00,1.31
4213.00,1.31
4212.00,1.31
4211.00,1.31
4210.00,1.31
4209.00,1.31
4208.00,1.31
4207.00,1.31
4206.00,1.31
4205.00,1.31
4204.00,1.31
4203.00,1.31
4202.00,1.31
4201.00,1.31
4200.00,1.31
4199.00,1.31
4198.00,1.31
4197.00,1.31
4196.00,1.31
4195.00,1.31
4194.00,1.31
4193.00,1.31
4192.00,1.31
4191.00,1.31
4190.00,1.31
4189.00,1.31
4188.00,1.31
4187.00,1.31
4186.00,1.31
4185.00,1.31
4184.00,1.31
4183.00,1.31
4182.00,1.31
4181.00,1.32
4180.00,1.32
4179.00,1.32
4178.00,1.32
4177.00,1.32
4176.00,1.32
4175.00,1.32
4174.00,1.32
4173.00,1.32
4172.00,1.32
4171.00,1.32
4170.00,1.32
4169.00,1.32
4168.00,1.32
4167.00,1.32
4166.00,1.33
4165.00,1.33
4164.00,1.33
4163.00,1.33
4162.00,1.33
4161.00,1.33
4160.00,1.33
4159.00,1.33
4158.00,1.33
4157.00,1.33
4156.00,1.33
4155.00,1.33
4154.00,1.33
4153.00,1.33
4152.00,1.33
4151.00,1.33
4150.00,1.33
4149.00,1.33
4148.00,1.33
4147.00,1.33
4146.00,1.33
4145.00,1.33
4144.00,1.33
4143.00,1.33
4142.00,1.33
4141.00,1.33
4140.00,1.33
4139.00,1.33
4138.00,1.33
4137.00,1.33
4136.00,1.33
4135.00,1.34
4134.00,1.34
4133.00,1.34
4132.00,1.34
4131.00,1.34
4130.00,1.34
4129.00,1.34
4128.00,1.34
4127.00,1.34
4126.00,1.34
4125.00,1.34
4124.00,1.34
4123.00,1.34
4122.00,1.34
4121.00,1.34
4120.00,1.34
4119.00,1.34
4118.00,1.34
4117.00,1.34
4116.00,1.34
4115.00,1.34
4114.00,1.34
4113.00,1.34
4112.00,1.34
4111.00,1.34
4110.00,1.34
4109.00,1.34
4108.00,1.34
4107.00,1.34
4106.00,1.34
4105.00,1.34
4104.00,1.34
4103.00,1.34
4102.00,1.34
4101.00,1.34
4100.00,1.34
4099.00,1.34
4098.00,1.34
4097.00,1.34
4096.00,1.34
4095.00,1.34
4094.00,1.34
4093.00,1.34
4092.00,1.34
4091.00,1.34
4090.00,1.34
4089.00,1.34
4088.00,1.34
4087.00,1.34
4086.00,1.34
4085.00,1.34
4084.00,1.34
4083.00,1.34
4082.00,1.34
4081.00,1.34
4080.00,1.34
4079.00,1.34
4078.00,1.34
4077.00,1.34
4076.00,1.34
4075.00,1.34
4074.00,1.34
4073.00,1.34
4072.00,1.34
4071.00,1.35
4070.00,1.35
4069.00,1.35
4068.00,1.35
4067.00,1.35
4066.00,1.35
4065.00,1.35
4064.00,1.35
4063.00,1.35
4062.00,1.35
4061.00,1.35
4060.00,1.35
4059.00,1.35
4058.00,1.35
4057.00,1.35
4056.00,1.35
4055.00,1.35
4054.00,1.35
4053.00,1.35
4052.00,1.36
4051.00,1.36
4050.00,1.36
4049.00,1.36
4048.00,1.36
4047.00,1.36
4046.00,1.36
4045.00,1.36
4044.00,1.36
4043.00,1.37
4042.00,1.37
4041.00,1.37
4040.00,1.37
4039.00,1.37
4038.00,1.37
4037.00,1.37
4036.00,1.38
4035.00,1.38
4034.00,1.38
4033.00,1.38
4032.00,1.38
4031.00,1.38
4030.00,1.38
4029.00,1.38
4028.00,1.38
4027.00,1.38
4026.00,1.38
4025.00,1.38
4024.00,1.38
4023.00,1.38
4022.00,1.38
4021.00,1.38
4020.00,1.38
4019.00,1.38
4018.00,1.38
4017.00,1.39
4016.00,1.39
4015.00,1.39
4014.00,1.39
4013.00,1.39
4012.00,1.39
4011.00,1.39
4010.00,1.39
4009.00,1.39
4008.00,1.39
4007.00,1.39
4006.00,1.39
4005.00,1.39
4004.00,1.39
4003.00,1.39
4002.00,1.39
4001.00,1.39
4000.00,1.39
