创建为新数据集,样品 285 用户 Administrator 日期 星期日, 七月 22 2018
cm-1,%T
10000.00,1.35
9999.00,1.34
9998.00,1.34
9997.00,1.34
9996.00,1.34
9995.00,1.34
9994.00,1.34
9993.00,1.34
9992.00,1.34
9991.00,1.34
9990.00,1.34
9989.00,1.34
9988.00,1.34
9987.00,1.34
9986.00,1.34
9985.00,1.34
9984.00,1.34
9983.00,1.34
9982.00,1.34
9981.00,1.34
9980.00,1.34
9979.00,1.34
9978.00,1.34
9977.00,1.34
9976.00,1.34
9975.00,1.33
9974.00,1.33
9973.00,1.33
9972.00,1.33
9971.00,1.33
9970.00,1.33
9969.00,1.34
9968.00,1.34
9967.00,1.34
9966.00,1.34
9965.00,1.34
9964.00,1.34
9963.00,1.34
9962.00,1.34
9961.00,1.34
9960.00,1.34
9959.00,1.34
9958.00,1.34
9957.00,1.35
9956.00,1.35
9955.00,1.35
9954.00,1.35
9953.00,1.35
9952.00,1.34
9951.00,1.34
9950.00,1.34
9949.00,1.34
9948.00,1.34
9947.00,1.34
9946.00,1.34
9945.00,1.34
9944.00,1.34
9943.00,1.34
9942.00,1.34
9941.00,1.34
9940.00,1.34
9939.00,1.34
9938.00,1.34
9937.00,1.34
9936.00,1.33
9935.00,1.33
9934.00,1.33
9933.00,1.33
9932.00,1.33
9931.00,1.33
9930.00,1.33
9929.00,1.33
9928.00,1.33
9927.00,1.33
9926.00,1.33
9925.00,1.33
9924.00,1.33
9923.00,1.33
9922.00,1.33
9921.00,1.33
9920.00,1.33
9919.00,1.33
9918.00,1.33
9917.00,1.32
9916.00,1.32
9915.00,1.32
9914.00,1.32
9913.00,1.32
9912.00,1.32
9911.00,1.32
9910.00,1.32
9909.00,1.32
9908.00,1.32
9907.00,1.32
9906.00,1.32
9905.00,1.32
9904.00,1.32
9903.00,1.32
9902.00,1.32
9901.00,1.32
9900.00,1.32
9899.00,1.33
9898.00,1.33
9897.00,1.33
9896.00,1.33
9895.00,1.32
9894.00,1.32
9893.00,1.32
9892.00,1.32
9891.00,1.32
9890.00,1.32
9889.00,1.32
9888.00,1.32
9887.00,1.32
9886.00,1.32
9885.00,1.32
9884.00,1.32
9883.00,1.32
9882.00,1.32
9881.00,1.32
9880.00,1.32
9879.00,1.32
9878.00,1.32
9877.00,1.32
9876.00,1.32
9875.00,1.31
9874.00,1.31
9873.00,1.31
9872.00,1.31
9871.00,1.31
9870.00,1.31
9869.00,1.31
9868.00,1.31
9867.00,1.30
9866.00,1.30
9865.00,1.30
9864.00,1.30
9863.00,1.30
9862.00,1.30
9861.00,1.30
9860.00,1.30
9859.00,1.30
9858.00,1.30
9857.00,1.30
9856.00,1.30
9855.00,1.30
9854.00,1.30
9853.00,1.30
9852.00,1.30
9851.00,1.30
9850.00,1.30
9849.00,1.30
9848.00,1.30
9847.00,1.30
9846.00,1.30
9845.00,1.31
9844.00,1.31
9843.00,1.31
9842.00,1.31
9841.00,1.32
9840.00,1.32
9839.00,1.32
9838.00,1.32
9837.00,1.32
9836.00,1.33
9835.00,1.33
9834.00,1.33
9833.00,1.33
9832.00,1.33
9831.00,1.33
9830.00,1.33
9829.00,1.33
9828.00,1.33
9827.00,1.33
9826.00,1.33
9825.00,1.33
9824.00,1.33
9823.00,1.33
9822.00,1.32
9821.00,1.32
9820.00,1.32
9819.00,1.32
9818.00,1.32
9817.00,1.32
9816.00,1.32
9815.00,1.32
9814.00,1.32
9813.00,1.32
9812.00,1.32
9811.00,1.32
9810.00,1.32
9809.00,1.32
9808.00,1.32
9807.00,1.32
9806.00,1.32
9805.00,1.32
9804.00,1.32
9803.00,1.32
9802.00,1.32
9801.00,1.32
9800.00,1.32
9799.00,1.32
9798.00,1.32
9797.00,1.32
9796.00,1.31
9795.00,1.31
9794.00,1.31
9793.00,1.31
9792.00,1.31
9791.00,1.30
9790.00,1.30
9789.00,1.30
9788.00,1.30
9787.00,1.30
9786.00,1.29
9785.00,1.29
9784.00,1.29
9783.00,1.29
9782.00,1.29
9781.00,1.29
9780.00,1.29
9779.00,1.29
9778.00,1.29
9777.00,1.29
9776.00,1.29
9775.00,1.29
9774.00,1.30
9773.00,1.30
9772.00,1.30
9771.00,1.30
9770.00,1.30
9769.00,1.30
9768.00,1.31
9767.00,1.31
9766.00,1.31
9765.00,1.31
9764.00,1.31
9763.00,1.32
9762.00,1.32
9761.00,1.32
9760.00,1.32
9759.00,1.32
9758.00,1.32
9757.00,1.33
9756.00,1.33
9755.00,1.33
9754.00,1.33
9753.00,1.33
9752.00,1.33
9751.00,1.33
9750.00,1.33
9749.00,1.33
9748.00,1.33
9747.00,1.33
9746.00,1.33
9745.00,1.33
9744.00,1.33
9743.00,1.32
9742.00,1.32
9741.00,1.32
9740.00,1.32
9739.00,1.32
9738.00,1.32
9737.00,1.32
9736.00,1.32
9735.00,1.31
9734.00,1.31
9733.00,1.31
9732.00,1.31
9731.00,1.31
9730.00,1.31
9729.00,1.31
9728.00,1.31
9727.00,1.31
9726.00,1.31
9725.00,1.31
9724.00,1.31
9723.00,1.32
9722.00,1.32
9721.00,1.32
9720.00,1.32
9719.00,1.32
9718.00,1.32
9717.00,1.32
9716.00,1.32
9715.00,1.32
9714.00,1.32
9713.00,1.32
9712.00,1.32
9711.00,1.32
9710.00,1.32
9709.00,1.32
9708.00,1.32
9707.00,1.32
9706.00,1.32
9705.00,1.32
9704.00,1.32
9703.00,1.32
9702.00,1.32
9701.00,1.32
9700.00,1.32
9699.00,1.32
9698.00,1.32
9697.00,1.33
9696.00,1.33
9695.00,1.33
9694.00,1.33
9693.00,1.32
9692.00,1.32
9691.00,1.32
9690.00,1.32
9689.00,1.32
9688.00,1.32
9687.00,1.32
9686.00,1.32
9685.00,1.32
9684.00,1.32
9683.00,1.32
9682.00,1.32
9681.00,1.33
9680.00,1.33
9679.00,1.33
9678.00,1.33
9677.00,1.33
9676.00,1.33
9675.00,1.33
9674.00,1.33
9673.00,1.34
9672.00,1.34
9671.00,1.34
9670.00,1.34
9669.00,1.34
9668.00,1.34
9667.00,1.34
9666.00,1.34
9665.00,1.34
9664.00,1.34
9663.00,1.33
9662.00,1.33
9661.00,1.33
9660.00,1.33
9659.00,1.33
9658.00,1.33
9657.00,1.33
9656.00,1.33
9655.00,1.33
9654.00,1.33
9653.00,1.33
9652.00,1.33
9651.00,1.33
9650.00,1.33
9649.00,1.33
9648.00,1.33
9647.00,1.33
9646.00,1.33
9645.00,1.33
9644.00,1.33
9643.00,1.32
9642.00,1.32
9641.00,1.32
9640.00,1.32
9639.00,1.32
9638.00,1.32
9637.00,1.32
9636.00,1.32
9635.00,1.32
9634.00,1.32
9633.00,1.32
9632.00,1.32
9631.00,1.32
9630.00,1.32
9629.00,1.32
9628.00,1.32
9627.00,1.32
9626.00,1.32
9625.00,1.32
9624.00,1.32
9623.00,1.33
9622.00,1.33
9621.00,1.33
9620.00,1.33
9619.00,1.33
9618.00,1.34
9617.00,1.34
9616.00,1.34
9615.00,1.34
9614.00,1.34
9613.00,1.34
9612.00,1.34
9611.00,1.34
9610.00,1.34
9609.00,1.34
9608.00,1.34
9607.00,1.34
9606.00,1.34
9605.00,1.34
9604.00,1.34
9603.00,1.34
9602.00,1.34
9601.00,1.34
9600.00,1.34
9599.00,1.34
9598.00,1.34
9597.00,1.34
9596.00,1.34
9595.00,1.34
9594.00,1.34
9593.00,1.34
9592.00,1.34
9591.00,1.34
9590.00,1.34
9589.00,1.34
9588.00,1.34
9587.00,1.34
9586.00,1.34
9585.00,1.34
9584.00,1.34
9583.00,1.34
9582.00,1.34
9581.00,1.33
9580.00,1.33
9579.00,1.33
9578.00,1.33
9577.00,1.32
9576.00,1.32
9575.00,1.32
9574.00,1.32
9573.00,1.31
9572.00,1.31
9571.00,1.31
9570.00,1.31
9569.00,1.30
9568.00,1.30
9567.00,1.30
9566.00,1.30
9565.00,1.30
9564.00,1.30
9563.00,1.30
9562.00,1.31
9561.00,1.31
9560.00,1.31
9559.00,1.31
9558.00,1.31
9557.00,1.31
9556.00,1.32
9555.00,1.32
9554.00,1.32
9553.00,1.32
9552.00,1.32
9551.00,1.32
9550.00,1.32
9549.00,1.33
9548.00,1.33
9547.00,1.33
9546.00,1.33
9545.00,1.33
9544.00,1.33
9543.00,1.33
9542.00,1.33
9541.00,1.33
9540.00,1.33
9539.00,1.33
9538.00,1.33
9537.00,1.33
9536.00,1.33
9535.00,1.33
9534.00,1.33
9533.00,1.33
9532.00,1.33
9531.00,1.33
9530.00,1.33
9529.00,1.33
9528.00,1.33
9527.00,1.33
9526.00,1.33
9525.00,1.33
9524.00,1.33
9523.00,1.33
9522.00,1.33
9521.00,1.33
9520.00,1.33
9519.00,1.33
9518.00,1.33
9517.00,1.34
9516.00,1.33
9515.00,1.33
9514.00,1.33
9513.00,1.33
9512.00,1.33
9511.00,1.33
9510.00,1.33
9509.00,1.33
9508.00,1.33
9507.00,1.33
9506.00,1.33
9505.00,1.33
9504.00,1.33
9503.00,1.33
9502.00,1.33
9501.00,1.33
9500.00,1.33
9499.00,1.33
9498.00,1.33
9497.00,1.33
9496.00,1.33
9495.00,1.33
9494.00,1.33
9493.00,1.33
9492.00,1.33
9491.00,1.33
9490.00,1.33
9489.00,1.33
9488.00,1.33
9487.00,1.33
9486.00,1.33
9485.00,1.33
9484.00,1.33
9483.00,1.33
9482.00,1.33
9481.00,1.33
9480.00,1.33
9479.00,1.34
9478.00,1.34
9477.00,1.34
9476.00,1.34
9475.00,1.34
9474.00,1.34
9473.00,1.34
9472.00,1.34
9471.00,1.34
9470.00,1.34
9469.00,1.34
9468.00,1.34
9467.00,1.34
9466.00,1.34
9465.00,1.34
9464.00,1.34
9463.00,1.34
9462.00,1.34
9461.00,1.34
9460.00,1.34
9459.00,1.34
9458.00,1.34
9457.00,1.34
9456.00,1.34
9455.00,1.34
9454.00,1.34
9453.00,1.34
9452.00,1.34
9451.00,1.34
9450.00,1.34
9449.00,1.34
9448.00,1.34
9447.00,1.34
9446.00,1.34
9445.00,1.34
9444.00,1.34
9443.00,1.34
9442.00,1.34
9441.00,1.34
9440.00,1.34
9439.00,1.34
9438.00,1.34
9437.00,1.34
9436.00,1.34
9435.00,1.34
9434.00,1.34
9433.00,1.34
9432.00,1.34
9431.00,1.34
9430.00,1.34
9429.00,1.34
9428.00,1.34
9427.00,1.34
9426.00,1.34
9425.00,1.34
9424.00,1.34
9423.00,1.34
9422.00,1.34
9421.00,1.34
9420.00,1.34
9419.00,1.34
9418.00,1.34
9417.00,1.34
9416.00,1.33
9415.00,1.33
9414.00,1.33
9413.00,1.33
9412.00,1.33
9411.00,1.33
9410.00,1.33
9409.00,1.33
9408.00,1.33
9407.00,1.33
9406.00,1.33
9405.00,1.32
9404.00,1.32
9403.00,1.32
9402.00,1.32
9401.00,1.32
9400.00,1.32
9399.00,1.32
9398.00,1.32
9397.00,1.32
9396.00,1.32
9395.00,1.32
9394.00,1.33
9393.00,1.33
9392.00,1.33
9391.00,1.33
9390.00,1.33
9389.00,1.33
9388.00,1.33
9387.00,1.33
9386.00,1.33
9385.00,1.33
9384.00,1.33
9383.00,1.33
9382.00,1.33
9381.00,1.33
9380.00,1.33
9379.00,1.33
9378.00,1.33
9377.00,1.33
9376.00,1.32
9375.00,1.32
9374.00,1.32
9373.00,1.32
9372.00,1.32
9371.00,1.32
9370.00,1.33
9369.00,1.33
9368.00,1.33
9367.00,1.33
9366.00,1.33
9365.00,1.33
9364.00,1.33
9363.00,1.33
9362.00,1.33
9361.00,1.34
9360.00,1.34
9359.00,1.34
9358.00,1.34
9357.00,1.34
9356.00,1.34
9355.00,1.34
9354.00,1.34
9353.00,1.34
9352.00,1.34
9351.00,1.34
9350.00,1.34
9349.00,1.34
9348.00,1.34
9347.00,1.34
9346.00,1.34
9345.00,1.34
9344.00,1.34
9343.00,1.34
9342.00,1.33
9341.00,1.33
9340.00,1.33
9339.00,1.33
9338.00,1.32
9337.00,1.32
9336.00,1.32
9335.00,1.32
9334.00,1.31
9333.00,1.31
9332.00,1.31
9331.00,1.31
9330.00,1.30
9329.00,1.30
9328.00,1.30
9327.00,1.30
9326.00,1.30
9325.00,1.30
9324.00,1.30
9323.00,1.30
9322.00,1.30
9321.00,1.30
9320.00,1.30
9319.00,1.30
9318.00,1.30
9317.00,1.30
9316.00,1.30
9315.00,1.30
9314.00,1.30
9313.00,1.30
9312.00,1.30
9311.00,1.30
9310.00,1.31
9309.00,1.31
9308.00,1.31
9307.00,1.31
9306.00,1.31
9305.00,1.31
9304.00,1.31
9303.00,1.31
9302.00,1.31
9301.00,1.32
9300.00,1.32
9299.00,1.32
9298.00,1.32
9297.00,1.32
9296.00,1.32
9295.00,1.33
9294.00,1.33
9293.00,1.33
9292.00,1.33
9291.00,1.33
9290.00,1.33
9289.00,1.33
9288.00,1.34
9287.00,1.34
9286.00,1.34
9285.00,1.34
9284.00,1.34
9283.00,1.34
9282.00,1.34
9281.00,1.34
9280.00,1.34
9279.00,1.34
9278.00,1.34
9277.00,1.34
9276.00,1.34
9275.00,1.34
9274.00,1.34
9273.00,1.34
9272.00,1.34
9271.00,1.33
9270.00,1.33
9269.00,1.33
9268.00,1.33
9267.00,1.32
9266.00,1.32
9265.00,1.32
9264.00,1.32
9263.00,1.31
9262.00,1.31
9261.00,1.31
9260.00,1.31
9259.00,1.30
9258.00,1.30
9257.00,1.30
9256.00,1.30
9255.00,1.30
9254.00,1.30
9253.00,1.30
9252.00,1.30
9251.00,1.30
9250.00,1.30
9249.00,1.30
9248.00,1.30
9247.00,1.30
9246.00,1.31
9245.00,1.31
9244.00,1.31
9243.00,1.31
9242.00,1.31
9241.00,1.31
9240.00,1.32
9239.00,1.32
9238.00,1.32
9237.00,1.32
9236.00,1.32
9235.00,1.32
9234.00,1.32
9233.00,1.32
9232.00,1.32
9231.00,1.33
9230.00,1.33
9229.00,1.33
9228.00,1.33
9227.00,1.33
9226.00,1.33
9225.00,1.33
9224.00,1.32
9223.00,1.32
9222.00,1.32
9221.00,1.32
9220.00,1.32
9219.00,1.32
9218.00,1.32
9217.00,1.32
9216.00,1.32
9215.00,1.32
9214.00,1.32
9213.00,1.32
9212.00,1.32
9211.00,1.32
9210.00,1.31
9209.00,1.31
9208.00,1.31
9207.00,1.31
9206.00,1.31
9205.00,1.31
9204.00,1.31
9203.00,1.31
9202.00,1.31
9201.00,1.31
9200.00,1.31
9199.00,1.31
9198.00,1.31
9197.00,1.31
9196.00,1.31
9195.00,1.31
9194.00,1.31
9193.00,1.31
9192.00,1.32
9191.00,1.32
9190.00,1.32
9189.00,1.32
9188.00,1.32
9187.00,1.32
9186.00,1.33
9185.00,1.33
9184.00,1.33
9183.00,1.33
9182.00,1.33
9181.00,1.33
9180.00,1.33
9179.00,1.33
9178.00,1.33
9177.00,1.33
9176.00,1.33
9175.00,1.33
9174.00,1.33
9173.00,1.33
9172.00,1.33
9171.00,1.33
9170.00,1.33
9169.00,1.33
9168.00,1.33
9167.00,1.33
9166.00,1.33
9165.00,1.33
9164.00,1.33
9163.00,1.33
9162.00,1.33
9161.00,1.33
9160.00,1.32
9159.00,1.32
9158.00,1.32
9157.00,1.32
9156.00,1.32
9155.00,1.32
9154.00,1.32
9153.00,1.32
9152.00,1.32
9151.00,1.32
9150.00,1.32
9149.00,1.32
9148.00,1.32
9147.00,1.32
9146.00,1.32
9145.00,1.32
9144.00,1.32
9143.00,1.32
9142.00,1.32
9141.00,1.32
9140.00,1.32
9139.00,1.33
9138.00,1.33
9137.00,1.33
9136.00,1.33
9135.00,1.33
9134.00,1.33
9133.00,1.33
9132.00,1.33
9131.00,1.33
9130.00,1.33
9129.00,1.33
9128.00,1.33
9127.00,1.33
9126.00,1.33
9125.00,1.33
9124.00,1.33
9123.00,1.33
9122.00,1.33
9121.00,1.33
9120.00,1.33
9119.00,1.33
9118.00,1.33
9117.00,1.33
9116.00,1.33
9115.00,1.33
9114.00,1.33
9113.00,1.33
9112.00,1.33
9111.00,1.33
9110.00,1.33
9109.00,1.33
9108.00,1.33
9107.00,1.33
9106.00,1.33
9105.00,1.33
9104.00,1.33
9103.00,1.32
9102.00,1.32
9101.00,1.32
9100.00,1.32
9099.00,1.32
9098.00,1.32
9097.00,1.32
9096.00,1.32
9095.00,1.32
9094.00,1.32
9093.00,1.32
9092.00,1.32
9091.00,1.33
9090.00,1.33
9089.00,1.33
9088.00,1.33
9087.00,1.33
9086.00,1.33
9085.00,1.33
9084.00,1.34
9083.00,1.34
9082.00,1.34
9081.00,1.34
9080.00,1.34
9079.00,1.34
9078.00,1.34
9077.00,1.34
9076.00,1.34
9075.00,1.34
9074.00,1.34
9073.00,1.34
9072.00,1.34
9071.00,1.34
9070.00,1.34
9069.00,1.34
9068.00,1.34
9067.00,1.34
9066.00,1.34
9065.00,1.34
9064.00,1.34
9063.00,1.34
9062.00,1.34
9061.00,1.34
9060.00,1.34
9059.00,1.34
9058.00,1.34
9057.00,1.34
9056.00,1.34
9055.00,1.34
9054.00,1.34
9053.00,1.33
9052.00,1.33
9051.00,1.33
9050.00,1.33
9049.00,1.33
9048.00,1.32
9047.00,1.32
9046.00,1.32
9045.00,1.32
9044.00,1.32
9043.00,1.31
9042.00,1.31
9041.00,1.31
9040.00,1.31
9039.00,1.31
9038.00,1.31
9037.00,1.31
9036.00,1.31
9035.00,1.31
9034.00,1.31
9033.00,1.31
9032.00,1.31
9031.00,1.32
9030.00,1.32
9029.00,1.32
9028.00,1.32
9027.00,1.32
9026.00,1.32
9025.00,1.32
9024.00,1.32
9023.00,1.32
9022.00,1.32
9021.00,1.32
9020.00,1.32
9019.00,1.32
9018.00,1.32
9017.00,1.32
9016.00,1.32
9015.00,1.32
9014.00,1.32
9013.00,1.32
9012.00,1.32
9011.00,1.32
9010.00,1.32
9009.00,1.32
9008.00,1.31
9007.00,1.31
9006.00,1.31
9005.00,1.31
9004.00,1.31
9003.00,1.31
9002.00,1.31
9001.00,1.31
9000.00,1.31
8999.00,1.31
8998.00,1.31
8997.00,1.31
8996.00,1.31
8995.00,1.31
8994.00,1.31
8993.00,1.31
8992.00,1.31
8991.00,1.31
8990.00,1.31
8989.00,1.31
8988.00,1.31
8987.00,1.31
8986.00,1.31
8985.00,1.31
8984.00,1.31
8983.00,1.31
8982.00,1.32
8981.00,1.32
8980.00,1.32
8979.00,1.32
8978.00,1.32
8977.00,1.32
8976.00,1.32
8975.00,1.32
8974.00,1.32
8973.00,1.32
8972.00,1.32
8971.00,1.33
8970.00,1.33
8969.00,1.33
8968.00,1.33
8967.00,1.33
8966.00,1.33
8965.00,1.33
8964.00,1.33
8963.00,1.33
8962.00,1.33
8961.00,1.33
8960.00,1.33
8959.00,1.33
8958.00,1.33
8957.00,1.33
8956.00,1.33
8955.00,1.33
8954.00,1.33
8953.00,1.33
8952.00,1.33
8951.00,1.32
8950.00,1.32
8949.00,1.32
8948.00,1.32
8947.00,1.32
8946.00,1.32
8945.00,1.32
8944.00,1.32
8943.00,1.32
8942.00,1.32
8941.00,1.32
8940.00,1.32
8939.00,1.32
8938.00,1.32
8937.00,1.32
8936.00,1.32
8935.00,1.32
8934.00,1.32
8933.00,1.32
8932.00,1.32
8931.00,1.32
8930.00,1.32
8929.00,1.32
8928.00,1.32
8927.00,1.32
8926.00,1.32
8925.00,1.32
8924.00,1.32
8923.00,1.32
8922.00,1.32
8921.00,1.32
8920.00,1.32
8919.00,1.32
8918.00,1.32
8917.00,1.31
8916.00,1.31
8915.00,1.31
8914.00,1.31
8913.00,1.31
8912.00,1.31
8911.00,1.31
8910.00,1.31
8909.00,1.31
8908.00,1.31
8907.00,1.31
8906.00,1.31
8905.00,1.31
8904.00,1.31
8903.00,1.31
8902.00,1.31
8901.00,1.31
8900.00,1.31
8899.00,1.31
8898.00,1.31
8897.00,1.31
8896.00,1.32
8895.00,1.32
8894.00,1.32
8893.00,1.32
8892.00,1.32
8891.00,1.32
8890.00,1.32
8889.00,1.32
8888.00,1.32
8887.00,1.32
8886.00,1.32
8885.00,1.32
8884.00,1.32
8883.00,1.32
8882.00,1.32
8881.00,1.32
8880.00,1.33
8879.00,1.33
8878.00,1.33
8877.00,1.33
8876.00,1.33
8875.00,1.33
8874.00,1.33
8873.00,1.33
8872.00,1.33
8871.00,1.33
8870.00,1.33
8869.00,1.33
8868.00,1.33
8867.00,1.33
8866.00,1.33
8865.00,1.33
8864.00,1.33
8863.00,1.33
8862.00,1.33
8861.00,1.33
8860.00,1.33
8859.00,1.33
8858.00,1.33
8857.00,1.33
8856.00,1.33
8855.00,1.33
8854.00,1.33
8853.00,1.33
8852.00,1.32
8851.00,1.32
8850.00,1.32
8849.00,1.32
8848.00,1.32
8847.00,1.32
8846.00,1.32
8845.00,1.32
8844.00,1.32
8843.00,1.32
8842.00,1.32
8841.00,1.32
8840.00,1.32
8839.00,1.32
8838.00,1.32
8837.00,1.32
8836.00,1.32
8835.00,1.32
8834.00,1.32
8833.00,1.32
8832.00,1.32
8831.00,1.32
8830.00,1.32
8829.00,1.32
8828.00,1.32
8827.00,1.33
8826.00,1.33
8825.00,1.33
8824.00,1.33
8823.00,1.32
8822.00,1.32
8821.00,1.32
8820.00,1.32
8819.00,1.32
8818.00,1.32
8817.00,1.32
8816.00,1.32
8815.00,1.31
8814.00,1.31
8813.00,1.31
8812.00,1.31
8811.00,1.30
8810.00,1.30
8809.00,1.30
8808.00,1.30
8807.00,1.29
8806.00,1.29
8805.00,1.29
8804.00,1.29
8803.00,1.29
8802.00,1.28
8801.00,1.28
8800.00,1.28
8799.00,1.28
8798.00,1.28
8797.00,1.28
8796.00,1.29
8795.00,1.29
8794.00,1.29
8793.00,1.29
8792.00,1.29
8791.00,1.29
8790.00,1.29
8789.00,1.29
8788.00,1.29
8787.00,1.29
8786.00,1.29
8785.00,1.29
8784.00,1.29
8783.00,1.29
8782.00,1.28
8781.00,1.28
8780.00,1.28
8779.00,1.28
8778.00,1.28
8777.00,1.27
8776.00,1.27
8775.00,1.27
8774.00,1.27
8773.00,1.26
8772.00,1.26
8771.00,1.26
8770.00,1.26
8769.00,1.26
8768.00,1.26
8767.00,1.25
8766.00,1.25
8765.00,1.25
8764.00,1.25
8763.00,1.25
8762.00,1.25
8761.00,1.25
8760.00,1.25
8759.00,1.25
8758.00,1.25
8757.00,1.25
8756.00,1.25
8755.00,1.26
8754.00,1.26
8753.00,1.26
8752.00,1.26
8751.00,1.26
8750.00,1.26
8749.00,1.26
8748.00,1.26
8747.00,1.26
8746.00,1.26
8745.00,1.26
8744.00,1.26
8743.00,1.25
8742.00,1.25
8741.00,1.25
8740.00,1.25
8739.00,1.25
8738.00,1.25
8737.00,1.24
8736.00,1.24
8735.00,1.24
8734.00,1.24
8733.00,1.24
8732.00,1.24
8731.00,1.24
8730.00,1.23
8729.00,1.23
8728.00,1.23
8727.00,1.23
8726.00,1.23
8725.00,1.23
8724.00,1.23
8723.00,1.23
8722.00,1.23
8721.00,1.23
8720.00,1.24
8719.00,1.24
8718.00,1.24
8717.00,1.24
8716.00,1.24
8715.00,1.24
8714.00,1.24
8713.00,1.24
8712.00,1.24
8711.00,1.24
8710.00,1.24
8709.00,1.24
8708.00,1.25
8707.00,1.25
8706.00,1.25
8705.00,1.24
8704.00,1.24
8703.00,1.24
8702.00,1.24
8701.00,1.24
8700.00,1.24
8699.00,1.24
8698.00,1.24
8697.00,1.24
8696.00,1.24
8695.00,1.24
8694.00,1.24
8693.00,1.24
8692.00,1.24
8691.00,1.24
8690.00,1.24
8689.00,1.24
8688.00,1.24
8687.00,1.24
8686.00,1.24
8685.00,1.25
8684.00,1.25
8683.00,1.25
8682.00,1.25
8681.00,1.25
8680.00,1.25
8679.00,1.25
8678.00,1.25
8677.00,1.25
8676.00,1.25
8675.00,1.25
8674.00,1.25
8673.00,1.26
8672.00,1.26
8671.00,1.26
8670.00,1.25
8669.00,1.25
8668.00,1.25
8667.00,1.25
8666.00,1.25
8665.00,1.25
8664.00,1.25
8663.00,1.25
8662.00,1.25
8661.00,1.25
8660.00,1.25
8659.00,1.24
8658.00,1.24
8657.00,1.24
8656.00,1.24
8655.00,1.24
8654.00,1.24
8653.00,1.24
8652.00,1.24
8651.00,1.24
8650.00,1.24
8649.00,1.24
8648.00,1.24
8647.00,1.24
8646.00,1.24
8645.00,1.24
8644.00,1.24
8643.00,1.25
8642.00,1.25
8641.00,1.24
8640.00,1.24
8639.00,1.24
8638.00,1.24
8637.00,1.24
8636.00,1.24
8635.00,1.24
8634.00,1.24
8633.00,1.24
8632.00,1.24
8631.00,1.24
8630.00,1.24
8629.00,1.23
8628.00,1.23
8627.00,1.23
8626.00,1.23
8625.00,1.23
8624.00,1.23
8623.00,1.23
8622.00,1.23
8621.00,1.23
8620.00,1.23
8619.00,1.23
8618.00,1.22
8617.00,1.22
8616.00,1.22
8615.00,1.22
8614.00,1.22
8613.00,1.21
8612.00,1.21
8611.00,1.21
8610.00,1.21
8609.00,1.20
8608.00,1.20
8607.00,1.20
8606.00,1.20
8605.00,1.20
8604.00,1.20
8603.00,1.20
8602.00,1.20
8601.00,1.20
8600.00,1.20
8599.00,1.20
8598.00,1.20
8597.00,1.20
8596.00,1.20
8595.00,1.20
8594.00,1.20
8593.00,1.21
8592.00,1.21
8591.00,1.21
8590.00,1.21
8589.00,1.21
8588.00,1.21
8587.00,1.21
8586.00,1.21
8585.00,1.21
8584.00,1.21
8583.00,1.21
8582.00,1.21
8581.00,1.21
8580.00,1.20
8579.00,1.20
8578.00,1.20
8577.00,1.20
8576.00,1.20
8575.00,1.20
8574.00,1.20
8573.00,1.20
8572.00,1.20
8571.00,1.20
8570.00,1.19
8569.00,1.19
8568.00,1.19
8567.00,1.19
8566.00,1.19
8565.00,1.19
8564.00,1.19
8563.00,1.19
8562.00,1.19
8561.00,1.19
8560.00,1.19
8559.00,1.19
8558.00,1.19
8557.00,1.19
8556.00,1.19
8555.00,1.19
8554.00,1.19
8553.00,1.20
8552.00,1.20
8551.00,1.20
8550.00,1.20
8549.00,1.19
8548.00,1.19
8547.00,1.19
8546.00,1.19
8545.00,1.19
8544.00,1.19
8543.00,1.19
8542.00,1.19
8541.00,1.19
8540.00,1.19
8539.00,1.19
8538.00,1.19
8537.00,1.19
8536.00,1.19
8535.00,1.19
8534.00,1.19
8533.00,1.19
8532.00,1.19
8531.00,1.19
8530.00,1.19
8529.00,1.19
8528.00,1.19
8527.00,1.19
8526.00,1.19
8525.00,1.19
8524.00,1.19
8523.00,1.19
8522.00,1.18
8521.00,1.18
8520.00,1.18
8519.00,1.18
8518.00,1.17
8517.00,1.17
8516.00,1.17
8515.00,1.17
8514.00,1.16
8513.00,1.16
8512.00,1.16
8511.00,1.16
8510.00,1.16
8509.00,1.16
8508.00,1.16
8507.00,1.16
8506.00,1.16
8505.00,1.16
8504.00,1.16
8503.00,1.16
8502.00,1.16
8501.00,1.16
8500.00,1.16
8499.00,1.16
8498.00,1.16
8497.00,1.16
8496.00,1.16
8495.00,1.16
8494.00,1.16
8493.00,1.16
8492.00,1.16
8491.00,1.16
8490.00,1.16
8489.00,1.16
8488.00,1.16
8487.00,1.16
8486.00,1.15
8485.00,1.15
8484.00,1.15
8483.00,1.15
8482.00,1.15
8481.00,1.15
8480.00,1.15
8479.00,1.15
8478.00,1.15
8477.00,1.14
8476.00,1.14
8475.00,1.14
8474.00,1.14
8473.00,1.14
8472.00,1.14
8471.00,1.14
8470.00,1.14
8469.00,1.14
8468.00,1.14
8467.00,1.14
8466.00,1.14
8465.00,1.14
8464.00,1.14
8463.00,1.14
8462.00,1.14
8461.00,1.14
8460.00,1.14
8459.00,1.14
8458.00,1.14
8457.00,1.14
8456.00,1.14
8455.00,1.14
8454.00,1.14
8453.00,1.14
8452.00,1.14
8451.00,1.14
8450.00,1.13
8449.00,1.13
8448.00,1.13
8447.00,1.13
8446.00,1.13
8445.00,1.12
8444.00,1.12
8443.00,1.12
8442.00,1.12
8441.00,1.12
8440.00,1.11
8439.00,1.11
8438.00,1.11
8437.00,1.11
8436.00,1.11
8435.00,1.11
8434.00,1.11
8433.00,1.11
8432.00,1.11
8431.00,1.12
8430.00,1.12
8429.00,1.12
8428.00,1.12
8427.00,1.13
8426.00,1.13
8425.00,1.13
8424.00,1.13
8423.00,1.14
8422.00,1.14
8421.00,1.14
8420.00,1.14
8419.00,1.14
8418.00,1.14
8417.00,1.14
8416.00,1.14
8415.00,1.14
8414.00,1.14
8413.00,1.14
8412.00,1.14
8411.00,1.14
8410.00,1.14
8409.00,1.14
8408.00,1.14
8407.00,1.14
8406.00,1.14
8405.00,1.14
8404.00,1.14
8403.00,1.14
8402.00,1.14
8401.00,1.15
8400.00,1.15
8399.00,1.15
8398.00,1.15
8397.00,1.15
8396.00,1.15
8395.00,1.15
8394.00,1.15
8393.00,1.16
8392.00,1.16
8391.00,1.16
8390.00,1.16
8389.00,1.16
8388.00,1.16
8387.00,1.17
8386.00,1.17
8385.00,1.17
8384.00,1.17
8383.00,1.17
8382.00,1.17
8381.00,1.17
8380.00,1.17
8379.00,1.17
8378.00,1.17
8377.00,1.17
8376.00,1.17
8375.00,1.17
8374.00,1.17
8373.00,1.17
8372.00,1.17
8371.00,1.17
8370.00,1.17
8369.00,1.17
8368.00,1.17
8367.00,1.17
8366.00,1.17
8365.00,1.17
8364.00,1.17
8363.00,1.17
8362.00,1.17
8361.00,1.17
8360.00,1.17
8359.00,1.17
8358.00,1.17
8357.00,1.17
8356.00,1.17
8355.00,1.17
8354.00,1.17
8353.00,1.17
8352.00,1.17
8351.00,1.17
8350.00,1.18
8349.00,1.18
8348.00,1.18
8347.00,1.18
8346.00,1.18
8345.00,1.18
8344.00,1.18
8343.00,1.18
8342.00,1.18
8341.00,1.19
8340.00,1.19
8339.00,1.19
8338.00,1.19
8337.00,1.19
8336.00,1.19
8335.00,1.19
8334.00,1.19
8333.00,1.19
8332.00,1.19
8331.00,1.19
8330.00,1.19
8329.00,1.19
8328.00,1.19
8327.00,1.19
8326.00,1.19
8325.00,1.19
8324.00,1.19
8323.00,1.19
8322.00,1.18
8321.00,1.18
8320.00,1.18
8319.00,1.18
8318.00,1.18
8317.00,1.18
8316.00,1.18
8315.00,1.17
8314.00,1.17
8313.00,1.17
8312.00,1.17
8311.00,1.17
8310.00,1.17
8309.00,1.17
8308.00,1.17
8307.00,1.17
8306.00,1.17
8305.00,1.18
8304.00,1.18
8303.00,1.18
8302.00,1.18
8301.00,1.18
8300.00,1.18
8299.00,1.19
8298.00,1.19
8297.00,1.19
8296.00,1.19
8295.00,1.19
8294.00,1.19
8293.00,1.19
8292.00,1.19
8291.00,1.19
8290.00,1.19
8289.00,1.19
8288.00,1.19
8287.00,1.19
8286.00,1.19
8285.00,1.19
8284.00,1.18
8283.00,1.18
8282.00,1.18
8281.00,1.18
8280.00,1.18
8279.00,1.18
8278.00,1.18
8277.00,1.18
8276.00,1.18
8275.00,1.18
8274.00,1.18
8273.00,1.19
8272.00,1.19
8271.00,1.19
8270.00,1.19
8269.00,1.19
8268.00,1.19
8267.00,1.19
8266.00,1.19
8265.00,1.19
8264.00,1.19
8263.00,1.19
8262.00,1.19
8261.00,1.19
8260.00,1.20
8259.00,1.20
8258.00,1.20
8257.00,1.20
8256.00,1.20
8255.00,1.20
8254.00,1.20
8253.00,1.20
8252.00,1.19
8251.00,1.19
8250.00,1.19
8249.00,1.19
8248.00,1.19
8247.00,1.19
8246.00,1.19
8245.00,1.19
8244.00,1.19
8243.00,1.19
8242.00,1.19
8241.00,1.19
8240.00,1.19
8239.00,1.19
8238.00,1.19
8237.00,1.19
8236.00,1.19
8235.00,1.19
8234.00,1.19
8233.00,1.19
8232.00,1.20
8231.00,1.20
8230.00,1.20
8229.00,1.20
8228.00,1.20
8227.00,1.20
8226.00,1.20
8225.00,1.20
8224.00,1.20
8223.00,1.20
8222.00,1.20
8221.00,1.20
8220.00,1.20
8219.00,1.20
8218.00,1.20
8217.00,1.20
8216.00,1.20
8215.00,1.20
8214.00,1.21
8213.00,1.21
8212.00,1.21
8211.00,1.21
8210.00,1.21
8209.00,1.21
8208.00,1.21
8207.00,1.21
8206.00,1.21
8205.00,1.21
8204.00,1.21
8203.00,1.21
8202.00,1.21
8201.00,1.22
8200.00,1.22
8199.00,1.22
8198.00,1.22
8197.00,1.22
8196.00,1.22
8195.00,1.22
8194.00,1.22
8193.00,1.22
8192.00,1.22
8191.00,1.22
8190.00,1.22
8189.00,1.22
8188.00,1.22
8187.00,1.22
8186.00,1.22
8185.00,1.22
8184.00,1.22
8183.00,1.22
8182.00,1.22
8181.00,1.22
8180.00,1.22
8179.00,1.22
8178.00,1.22
8177.00,1.22
8176.00,1.22
8175.00,1.22
8174.00,1.22
8173.00,1.22
8172.00,1.22
8171.00,1.22
8170.00,1.23
8169.00,1.23
8168.00,1.23
8167.00,1.23
8166.00,1.23
8165.00,1.23
8164.00,1.23
8163.00,1.23
8162.00,1.23
8161.00,1.23
8160.00,1.23
8159.00,1.24
8158.00,1.24
8157.00,1.24
8156.00,1.24
8155.00,1.24
8154.00,1.24
8153.00,1.24
8152.00,1.24
8151.00,1.24
8150.00,1.24
8149.00,1.24
8148.00,1.24
8147.00,1.24
8146.00,1.24
8145.00,1.24
8144.00,1.24
8143.00,1.24
8142.00,1.24
8141.00,1.24
8140.00,1.24
8139.00,1.24
8138.00,1.24
8137.00,1.24
8136.00,1.24
8135.00,1.24
8134.00,1.24
8133.00,1.24
8132.00,1.24
8131.00,1.24
8130.00,1.24
8129.00,1.24
8128.00,1.24
8127.00,1.24
8126.00,1.24
8125.00,1.24
8124.00,1.24
8123.00,1.24
8122.00,1.24
8121.00,1.24
8120.00,1.25
8119.00,1.25
8118.00,1.25
8117.00,1.25
8116.00,1.25
8115.00,1.25
8114.00,1.25
8113.00,1.25
8112.00,1.25
8111.00,1.25
8110.00,1.25
8109.00,1.25
8108.00,1.25
8107.00,1.25
8106.00,1.25
8105.00,1.25
8104.00,1.25
8103.00,1.25
8102.00,1.25
8101.00,1.26
8100.00,1.26
8099.00,1.26
8098.00,1.26
8097.00,1.26
8096.00,1.26
8095.00,1.26
8094.00,1.26
8093.00,1.26
8092.00,1.26
8091.00,1.26
8090.00,1.26
8089.00,1.26
8088.00,1.26
8087.00,1.26
8086.00,1.26
8085.00,1.26
8084.00,1.26
8083.00,1.26
8082.00,1.26
8081.00,1.26
8080.00,1.26
8079.00,1.26
8078.00,1.26
8077.00,1.26
8076.00,1.26
8075.00,1.27
8074.00,1.27
8073.00,1.27
8072.00,1.27
8071.00,1.27
8070.00,1.27
8069.00,1.27
8068.00,1.27
8067.00,1.27
8066.00,1.27
8065.00,1.27
8064.00,1.27
8063.00,1.27
8062.00,1.27
8061.00,1.27
8060.00,1.27
8059.00,1.27
8058.00,1.27
8057.00,1.27
8056.00,1.27
8055.00,1.27
8054.00,1.27
8053.00,1.27
8052.00,1.27
8051.00,1.27
8050.00,1.27
8049.00,1.27
8048.00,1.27
8047.00,1.27
8046.00,1.27
8045.00,1.27
8044.00,1.27
8043.00,1.27
8042.00,1.27
8041.00,1.27
8040.00,1.28
8039.00,1.28
8038.00,1.28
8037.00,1.28
8036.00,1.28
8035.00,1.28
8034.00,1.28
8033.00,1.28
8032.00,1.28
8031.00,1.28
8030.00,1.28
8029.00,1.28
8028.00,1.28
8027.00,1.28
8026.00,1.28
8025.00,1.28
8024.00,1.28
8023.00,1.28
8022.00,1.28
8021.00,1.28
8020.00,1.28
8019.00,1.28
8018.00,1.28
8017.00,1.27
8016.00,1.27
8015.00,1.27
8014.00,1.27
8013.00,1.27
8012.00,1.27
8011.00,1.27
8010.00,1.27
8009.00,1.27
8008.00,1.27
8007.00,1.27
8006.00,1.27
8005.00,1.27
8004.00,1.28
8003.00,1.28
8002.00,1.28
8001.00,1.28
8000.00,1.28
7999.00,1.28
7998.00,1.28
7997.00,1.28
7996.00,1.29
7995.00,1.29
7994.00,1.29
7993.00,1.29
7992.00,1.29
7991.00,1.29
7990.00,1.29
7989.00,1.29
7988.00,1.29
7987.00,1.29
7986.00,1.29
7985.00,1.29
7984.00,1.29
7983.00,1.29
7982.00,1.29
7981.00,1.29
7980.00,1.29
7979.00,1.29
7978.00,1.30
7977.00,1.30
7976.00,1.30
7975.00,1.30
7974.00,1.30
7973.00,1.30
7972.00,1.30
7971.00,1.30
7970.00,1.30
7969.00,1.30
7968.00,1.30
7967.00,1.30
7966.00,1.30
7965.00,1.30
7964.00,1.30
7963.00,1.30
7962.00,1.30
7961.00,1.30
7960.00,1.30
7959.00,1.30
7958.00,1.30
7957.00,1.30
7956.00,1.30
7955.00,1.30
7954.00,1.30
7953.00,1.30
7952.00,1.30
7951.00,1.30
7950.00,1.30
7949.00,1.30
7948.00,1.30
7947.00,1.30
7946.00,1.30
7945.00,1.30
7944.00,1.30
7943.00,1.30
7942.00,1.30
7941.00,1.30
7940.00,1.30
7939.00,1.30
7938.00,1.30
7937.00,1.30
7936.00,1.30
7935.00,1.30
7934.00,1.30
7933.00,1.30
7932.00,1.30
7931.00,1.30
7930.00,1.30
7929.00,1.30
7928.00,1.30
7927.00,1.30
7926.00,1.29
7925.00,1.29
7924.00,1.29
7923.00,1.29
7922.00,1.29
7921.00,1.29
7920.00,1.29
7919.00,1.29
7918.00,1.29
7917.00,1.29
7916.00,1.29
7915.00,1.29
7914.00,1.30
7913.00,1.30
7912.00,1.30
7911.00,1.30
7910.00,1.30
7909.00,1.30
7908.00,1.30
7907.00,1.30
7906.00,1.30
7905.00,1.30
7904.00,1.31
7903.00,1.31
7902.00,1.31
7901.00,1.31
7900.00,1.31
7899.00,1.31
7898.00,1.31
7897.00,1.31
7896.00,1.31
7895.00,1.31
7894.00,1.31
7893.00,1.31
7892.00,1.31
7891.00,1.31
7890.00,1.31
7889.00,1.31
7888.00,1.31
7887.00,1.31
7886.00,1.31
7885.00,1.31
7884.00,1.31
7883.00,1.30
7882.00,1.30
7881.00,1.30
7880.00,1.30
7879.00,1.30
7878.00,1.30
7877.00,1.30
7876.00,1.30
7875.00,1.30
7874.00,1.30
7873.00,1.30
7872.00,1.30
7871.00,1.30
7870.00,1.30
7869.00,1.30
7868.00,1.30
7867.00,1.30
7866.00,1.30
7865.00,1.30
7864.00,1.30
7863.00,1.30
7862.00,1.30
7861.00,1.30
7860.00,1.30
7859.00,1.30
7858.00,1.30
7857.00,1.30
7856.00,1.30
7855.00,1.30
7854.00,1.30
7853.00,1.30
7852.00,1.30
7851.00,1.31
7850.00,1.31
7849.00,1.31
7848.00,1.31
7847.00,1.31
7846.00,1.31
7845.00,1.31
7844.00,1.31
7843.00,1.31
7842.00,1.31
7841.00,1.31
7840.00,1.31
7839.00,1.31
7838.00,1.31
7837.00,1.31
7836.00,1.31
7835.00,1.31
7834.00,1.31
7833.00,1.31
7832.00,1.31
7831.00,1.31
7830.00,1.32
7829.00,1.32
7828.00,1.32
7827.00,1.32
7826.00,1.32
7825.00,1.32
7824.00,1.32
7823.00,1.32
7822.00,1.32
7821.00,1.32
7820.00,1.32
7819.00,1.32
7818.00,1.32
7817.00,1.32
7816.00,1.32
7815.00,1.32
7814.00,1.32
7813.00,1.32
7812.00,1.32
7811.00,1.32
7810.00,1.32
7809.00,1.32
7808.00,1.32
7807.00,1.32
7806.00,1.32
7805.00,1.32
7804.00,1.31
7803.00,1.31
7802.00,1.31
7801.00,1.31
7800.00,1.31
7799.00,1.31
7798.00,1.31
7797.00,1.32
7796.00,1.32
7795.00,1.32
7794.00,1.32
7793.00,1.32
7792.00,1.32
7791.00,1.32
7790.00,1.32
7789.00,1.32
7788.00,1.32
7787.00,1.32
7786.00,1.33
7785.00,1.33
7784.00,1.33
7783.00,1.33
7782.00,1.33
7781.00,1.33
7780.00,1.33
7779.00,1.33
7778.00,1.33
7777.00,1.33
7776.00,1.33
7775.00,1.33
7774.00,1.34
7773.00,1.34
7772.00,1.34
7771.00,1.34
7770.00,1.34
7769.00,1.34
7768.00,1.34
7767.00,1.34
7766.00,1.34
7765.00,1.34
7764.00,1.34
7763.00,1.34
7762.00,1.34
7761.00,1.34
7760.00,1.34
7759.00,1.34
7758.00,1.34
7757.00,1.34
7756.00,1.34
7755.00,1.34
7754.00,1.34
7753.00,1.34
7752.00,1.34
7751.00,1.34
7750.00,1.34
7749.00,1.34
7748.00,1.33
7747.00,1.33
7746.00,1.33
7745.00,1.33
7744.00,1.33
7743.00,1.33
7742.00,1.33
7741.00,1.33
7740.00,1.33
7739.00,1.33
7738.00,1.32
7737.00,1.32
7736.00,1.32
7735.00,1.32
7734.00,1.32
7733.00,1.32
7732.00,1.32
7731.00,1.32
7730.00,1.32
7729.00,1.32
7728.00,1.32
7727.00,1.32
7726.00,1.32
7725.00,1.32
7724.00,1.32
7723.00,1.32
7722.00,1.32
7721.00,1.32
7720.00,1.33
7719.00,1.33
7718.00,1.33
7717.00,1.33
7716.00,1.33
7715.00,1.33
7714.00,1.33
7713.00,1.33
7712.00,1.33
7711.00,1.33
7710.00,1.34
7709.00,1.34
7708.00,1.34
7707.00,1.34
7706.00,1.34
7705.00,1.34
7704.00,1.34
7703.00,1.34
7702.00,1.34
7701.00,1.34
7700.00,1.34
7699.00,1.34
7698.00,1.34
7697.00,1.34
7696.00,1.34
7695.00,1.34
7694.00,1.34
7693.00,1.34
7692.00,1.34
7691.00,1.34
7690.00,1.34
7689.00,1.34
7688.00,1.34
7687.00,1.34
7686.00,1.34
7685.00,1.34
7684.00,1.34
7683.00,1.34
7682.00,1.34
7681.00,1.33
7680.00,1.33
7679.00,1.33
7678.00,1.33
7677.00,1.33
7676.00,1.33
7675.00,1.33
7674.00,1.33
7673.00,1.33
7672.00,1.33
7671.00,1.33
7670.00,1.33
7669.00,1.33
7668.00,1.33
7667.00,1.33
7666.00,1.33
7665.00,1.33
7664.00,1.33
7663.00,1.33
7662.00,1.33
7661.00,1.33
7660.00,1.33
7659.00,1.33
7658.00,1.33
7657.00,1.33
7656.00,1.33
7655.00,1.33
7654.00,1.33
7653.00,1.33
7652.00,1.33
7651.00,1.33
7650.00,1.33
7649.00,1.33
7648.00,1.33
7647.00,1.34
7646.00,1.34
7645.00,1.34
7644.00,1.34
7643.00,1.34
7642.00,1.34
7641.00,1.34
7640.00,1.34
7639.00,1.34
7638.00,1.34
7637.00,1.34
7636.00,1.34
7635.00,1.34
7634.00,1.34
7633.00,1.34
7632.00,1.34
7631.00,1.34
7630.00,1.34
7629.00,1.34
7628.00,1.34
7627.00,1.34
7626.00,1.34
7625.00,1.34
7624.00,1.34
7623.00,1.34
7622.00,1.34
7621.00,1.34
7620.00,1.34
7619.00,1.34
7618.00,1.34
7617.00,1.34
7616.00,1.34
7615.00,1.34
7614.00,1.34
7613.00,1.33
7612.00,1.33
7611.00,1.33
7610.00,1.33
7609.00,1.33
7608.00,1.33
7607.00,1.33
7606.00,1.33
7605.00,1.33
7604.00,1.33
7603.00,1.33
7602.00,1.33
7601.00,1.33
7600.00,1.33
7599.00,1.33
7598.00,1.33
7597.00,1.33
7596.00,1.33
7595.00,1.33
7594.00,1.33
7593.00,1.32
7592.00,1.32
7591.00,1.33
7590.00,1.33
7589.00,1.33
7588.00,1.33
7587.00,1.33
7586.00,1.33
7585.00,1.33
7584.00,1.33
7583.00,1.33
7582.00,1.33
7581.00,1.33
7580.00,1.33
7579.00,1.33
7578.00,1.33
7577.00,1.33
7576.00,1.33
7575.00,1.33
7574.00,1.33
7573.00,1.34
7572.00,1.34
7571.00,1.34
7570.00,1.34
7569.00,1.34
7568.00,1.34
7567.00,1.34
7566.00,1.34
7565.00,1.34
7564.00,1.34
7563.00,1.34
7562.00,1.34
7561.00,1.34
7560.00,1.34
7559.00,1.34
7558.00,1.34
7557.00,1.34
7556.00,1.33
7555.00,1.33
7554.00,1.33
7553.00,1.33
7552.00,1.33
7551.00,1.33
7550.00,1.33
7549.00,1.33
7548.00,1.33
7547.00,1.33
7546.00,1.33
7545.00,1.33
7544.00,1.33
7543.00,1.33
7542.00,1.33
7541.00,1.33
7540.00,1.33
7539.00,1.33
7538.00,1.33
7537.00,1.33
7536.00,1.33
7535.00,1.33
7534.00,1.32
7533.00,1.32
7532.00,1.32
7531.00,1.32
7530.00,1.32
7529.00,1.32
7528.00,1.32
7527.00,1.32
7526.00,1.32
7525.00,1.32
7524.00,1.32
7523.00,1.32
7522.00,1.32
7521.00,1.31
7520.00,1.31
7519.00,1.31
7518.00,1.31
7517.00,1.31
7516.00,1.31
7515.00,1.31
7514.00,1.31
7513.00,1.31
7512.00,1.31
7511.00,1.31
7510.00,1.31
7509.00,1.31
7508.00,1.31
7507.00,1.31
7506.00,1.31
7505.00,1.31
7504.00,1.31
7503.00,1.30
7502.00,1.30
7501.00,1.30
7500.00,1.30
7499.00,1.30
7498.00,1.30
7497.00,1.30
7496.00,1.30
7495.00,1.30
7494.00,1.30
7493.00,1.30
7492.00,1.30
7491.00,1.30
7490.00,1.30
7489.00,1.30
7488.00,1.30
7487.00,1.30
7486.00,1.30
7485.00,1.30
7484.00,1.30
7483.00,1.30
7482.00,1.30
7481.00,1.30
7480.00,1.30
7479.00,1.30
7478.00,1.30
7477.00,1.30
7476.00,1.30
7475.00,1.30
7474.00,1.30
7473.00,1.30
7472.00,1.30
7471.00,1.30
7470.00,1.30
7469.00,1.30
7468.00,1.29
7467.00,1.29
7466.00,1.29
7465.00,1.29
7464.00,1.29
7463.00,1.29
7462.00,1.29
7461.00,1.29
7460.00,1.28
7459.00,1.28
7458.00,1.28
7457.00,1.28
7456.00,1.28
7455.00,1.28
7454.00,1.28
7453.00,1.27
7452.00,1.27
7451.00,1.27
7450.00,1.27
7449.00,1.27
7448.00,1.27
7447.00,1.27
7446.00,1.27
7445.00,1.26
7444.00,1.26
7443.00,1.26
7442.00,1.26
7441.00,1.26
7440.00,1.26
7439.00,1.26
7438.00,1.26
7437.00,1.26
7436.00,1.26
7435.00,1.26
7434.00,1.26
7433.00,1.26
7432.00,1.26
7431.00,1.26
7430.00,1.26
7429.00,1.26
7428.00,1.26
7427.00,1.26
7426.00,1.26
7425.00,1.26
7424.00,1.25
7423.00,1.25
7422.00,1.25
7421.00,1.25
7420.00,1.25
7419.00,1.24
7418.00,1.24
7417.00,1.24
7416.00,1.24
7415.00,1.23
7414.00,1.23
7413.00,1.23
7412.00,1.23
7411.00,1.23
7410.00,1.23
7409.00,1.22
7408.00,1.22
7407.00,1.22
7406.00,1.22
7405.00,1.22
7404.00,1.22
7403.00,1.22
7402.00,1.22
7401.00,1.22
7400.00,1.22
7399.00,1.22
7398.00,1.22
7397.00,1.22
7396.00,1.22
7395.00,1.22
7394.00,1.22
7393.00,1.22
7392.00,1.22
7391.00,1.22
7390.00,1.22
7389.00,1.22
7388.00,1.22
7387.00,1.21
7386.00,1.21
7385.00,1.21
7384.00,1.21
7383.00,1.21
7382.00,1.21
7381.00,1.21
7380.00,1.21
7379.00,1.21
7378.00,1.20
7377.00,1.20
7376.00,1.20
7375.00,1.20
7374.00,1.20
7373.00,1.20
7372.00,1.20
7371.00,1.20
7370.00,1.20
7369.00,1.20
7368.00,1.20
7367.00,1.20
7366.00,1.19
7365.00,1.19
7364.00,1.19
7363.00,1.19
7362.00,1.19
7361.00,1.19
7360.00,1.19
7359.00,1.19
7358.00,1.18
7357.00,1.18
7356.00,1.18
7355.00,1.18
7354.00,1.18
7353.00,1.18
7352.00,1.18
7351.00,1.18
7350.00,1.18
7349.00,1.18
7348.00,1.18
7347.00,1.18
7346.00,1.18
7345.00,1.18
7344.00,1.18
7343.00,1.18
7342.00,1.18
7341.00,1.18
7340.00,1.18
7339.00,1.18
7338.00,1.18
7337.00,1.18
7336.00,1.18
7335.00,1.18
7334.00,1.17
7333.00,1.17
7332.00,1.17
7331.00,1.17
7330.00,1.17
7329.00,1.17
7328.00,1.17
7327.00,1.17
7326.00,1.17
7325.00,1.17
7324.00,1.17
7323.00,1.17
7322.00,1.17
7321.00,1.17
7320.00,1.17
7319.00,1.17
7318.00,1.16
7317.00,1.16
7316.00,1.16
7315.00,1.16
7314.00,1.16
7313.00,1.16
7312.00,1.16
7311.00,1.16
7310.00,1.16
7309.00,1.16
7308.00,1.16
7307.00,1.16
7306.00,1.16
7305.00,1.15
7304.00,1.15
7303.00,1.15
7302.00,1.15
7301.00,1.15
7300.00,1.15
7299.00,1.15
7298.00,1.14
7297.00,1.14
7296.00,1.14
7295.00,1.14
7294.00,1.14
7293.00,1.14
7292.00,1.14
7291.00,1.14
7290.00,1.13
7289.00,1.13
7288.00,1.13
7287.00,1.13
7286.00,1.13
7285.00,1.13
7284.00,1.13
7283.00,1.12
7282.00,1.12
7281.00,1.12
7280.00,1.12
7279.00,1.12
7278.00,1.12
7277.00,1.12
7276.00,1.12
7275.00,1.12
7274.00,1.12
7273.00,1.12
7272.00,1.12
7271.00,1.12
7270.00,1.12
7269.00,1.11
7268.00,1.11
7267.00,1.11
7266.00,1.11
7265.00,1.11
7264.00,1.11
7263.00,1.11
7262.00,1.11
7261.00,1.11
7260.00,1.10
7259.00,1.10
7258.00,1.10
7257.00,1.10
7256.00,1.10
7255.00,1.09
7254.00,1.09
7253.00,1.09
7252.00,1.09
7251.00,1.08
7250.00,1.08
7249.00,1.08
7248.00,1.08
7247.00,1.07
7246.00,1.07
7245.00,1.07
7244.00,1.07
7243.00,1.06
7242.00,1.06
7241.00,1.06
7240.00,1.05
7239.00,1.05
7238.00,1.05
7237.00,1.04
7236.00,1.04
7235.00,1.04
7234.00,1.03
7233.00,1.03
7232.00,1.03
7231.00,1.02
7230.00,1.02
7229.00,1.01
7228.00,1.01
7227.00,1.01
7226.00,1.00
7225.00,1.00
7224.00,0.99
7223.00,0.99
7222.00,0.99
7221.00,0.98
7220.00,0.98
7219.00,0.97
7218.00,0.97
7217.00,0.97
7216.00,0.96
7215.00,0.96
7214.00,0.95
7213.00,0.95
7212.00,0.95
7211.00,0.94
7210.00,0.94
7209.00,0.93
7208.00,0.93
7207.00,0.93
7206.00,0.92
7205.00,0.92
7204.00,0.91
7203.00,0.91
7202.00,0.91
7201.00,0.90
7200.00,0.90
7199.00,0.90
7198.00,0.89
7197.00,0.89
7196.00,0.89
7195.00,0.89
7194.00,0.88
7193.00,0.88
7192.00,0.88
7191.00,0.87
7190.00,0.87
7189.00,0.87
7188.00,0.87
7187.00,0.86
7186.00,0.86
7185.00,0.86
7184.00,0.86
7183.00,0.85
7182.00,0.85
7181.00,0.85
7180.00,0.84
7179.00,0.84
7178.00,0.84
7177.00,0.84
7176.00,0.83
7175.00,0.83
7174.00,0.83
7173.00,0.82
7172.00,0.82
7171.00,0.81
7170.00,0.81
7169.00,0.81
7168.00,0.80
7167.00,0.80
7166.00,0.80
7165.00,0.79
7164.00,0.79
7163.00,0.79
7162.00,0.79
7161.00,0.78
7160.00,0.78
7159.00,0.78
7158.00,0.78
7157.00,0.77
7156.00,0.77
7155.00,0.77
7154.00,0.77
7153.00,0.76
7152.00,0.76
7151.00,0.76
7150.00,0.76
7149.00,0.75
7148.00,0.75
7147.00,0.75
7146.00,0.75
7145.00,0.74
7144.00,0.74
7143.00,0.74
7142.00,0.74
7141.00,0.74
7140.00,0.73
7139.00,0.73
7138.00,0.73
7137.00,0.73
7136.00,0.73
7135.00,0.73
7134.00,0.72
7133.00,0.72
7132.00,0.72
7131.00,0.72
7130.00,0.72
7129.00,0.72
7128.00,0.71
7127.00,0.71
7126.00,0.71
7125.00,0.71
7124.00,0.70
7123.00,0.70
7122.00,0.70
7121.00,0.69
7120.00,0.69
7119.00,0.69
7118.00,0.68
7117.00,0.68
7116.00,0.68
7115.00,0.67
7114.00,0.67
7113.00,0.67
7112.00,0.66
7111.00,0.66
7110.00,0.66
7109.00,0.66
7108.00,0.65
7107.00,0.65
7106.00,0.65
7105.00,0.65
7104.00,0.65
7103.00,0.64
7102.00,0.64
7101.00,0.64
7100.00,0.64
7099.00,0.64
7098.00,0.64
7097.00,0.63
7096.00,0.63
7095.00,0.63
7094.00,0.63
7093.00,0.63
7092.00,0.63
7091.00,0.63
7090.00,0.63
7089.00,0.63
7088.00,0.63
7087.00,0.63
7086.00,0.62
7085.00,0.62
7084.00,0.62
7083.00,0.62
7082.00,0.62
7081.00,0.62
7080.00,0.62
7079.00,0.62
7078.00,0.62
7077.00,0.62
7076.00,0.62
7075.00,0.61
7074.00,0.61
7073.00,0.61
7072.00,0.61
7071.00,0.61
7070.00,0.61
7069.00,0.60
7068.00,0.60
7067.00,0.60
7066.00,0.60
7065.00,0.60
7064.00,0.60
7063.00,0.60
7062.00,0.59
7061.00,0.59
7060.00,0.59
7059.00,0.59
7058.00,0.59
7057.00,0.59
7056.00,0.59
7055.00,0.59
7054.00,0.59
7053.00,0.59
7052.00,0.59
7051.00,0.58
7050.00,0.58
7049.00,0.58
7048.00,0.58
7047.00,0.58
7046.00,0.58
7045.00,0.58
7044.00,0.58
7043.00,0.58
7042.00,0.58
7041.00,0.58
7040.00,0.58
7039.00,0.58
7038.00,0.58
7037.00,0.58
7036.00,0.58
7035.00,0.58
7034.00,0.58
7033.00,0.58
7032.00,0.58
7031.00,0.58
7030.00,0.58
7029.00,0.58
7028.00,0.58
7027.00,0.58
7026.00,0.58
7025.00,0.58
7024.00,0.58
7023.00,0.58
7022.00,0.58
7021.00,0.58
7020.00,0.57
7019.00,0.57
7018.00,0.57
7017.00,0.57
7016.00,0.57
7015.00,0.57
7014.00,0.57
7013.00,0.56
7012.00,0.56
7011.00,0.56
7010.00,0.56
7009.00,0.56
7008.00,0.56
7007.00,0.56
7006.00,0.56
7005.00,0.56
7004.00,0.56
7003.00,0.56
7002.00,0.56
7001.00,0.56
7000.00,0.56
6999.00,0.56
6998.00,0.56
6997.00,0.56
6996.00,0.56
6995.00,0.56
6994.00,0.56
6993.00,0.56
6992.00,0.55
6991.00,0.55
6990.00,0.55
6989.00,0.55
6988.00,0.55
6987.00,0.55
6986.00,0.55
6985.00,0.55
6984.00,0.55
6983.00,0.55
6982.00,0.55
6981.00,0.55
6980.00,0.55
6979.00,0.55
6978.00,0.55
6977.00,0.55
6976.00,0.55
6975.00,0.55
6974.00,0.55
6973.00,0.55
6972.00,0.55
6971.00,0.55
6970.00,0.55
6969.00,0.55
6968.00,0.55
6967.00,0.55
6966.00,0.55
6965.00,0.55
6964.00,0.55
6963.00,0.55
6962.00,0.55
6961.00,0.55
6960.00,0.55
6959.00,0.55
6958.00,0.55
6957.00,0.55
6956.00,0.55
6955.00,0.55
6954.00,0.55
6953.00,0.55
6952.00,0.55
6951.00,0.55
6950.00,0.55
6949.00,0.55
6948.00,0.55
6947.00,0.55
6946.00,0.55
6945.00,0.54
6944.00,0.54
6943.00,0.54
6942.00,0.54
6941.00,0.54
6940.00,0.54
6939.00,0.54
6938.00,0.54
6937.00,0.54
6936.00,0.54
6935.00,0.54
6934.00,0.54
6933.00,0.54
6932.00,0.54
6931.00,0.54
6930.00,0.54
6929.00,0.54
6928.00,0.54
6927.00,0.54
6926.00,0.54
6925.00,0.54
6924.00,0.54
6923.00,0.54
6922.00,0.54
6921.00,0.54
6920.00,0.54
6919.00,0.54
6918.00,0.54
6917.00,0.54
6916.00,0.55
6915.00,0.55
6914.00,0.55
6913.00,0.55
6912.00,0.55
6911.00,0.55
6910.00,0.55
6909.00,0.55
6908.00,0.55
6907.00,0.55
6906.00,0.55
6905.00,0.55
6904.00,0.55
6903.00,0.55
6902.00,0.55
6901.00,0.55
6900.00,0.55
6899.00,0.55
6898.00,0.55
6897.00,0.55
6896.00,0.55
6895.00,0.55
6894.00,0.55
6893.00,0.55
6892.00,0.55
6891.00,0.55
6890.00,0.55
6889.00,0.55
6888.00,0.55
6887.00,0.55
6886.00,0.55
6885.00,0.55
6884.00,0.55
6883.00,0.55
6882.00,0.54
6881.00,0.54
6880.00,0.54
6879.00,0.54
6878.00,0.54
6877.00,0.54
6876.00,0.54
6875.00,0.54
6874.00,0.54
6873.00,0.54
6872.00,0.54
6871.00,0.54
6870.00,0.54
6869.00,0.54
6868.00,0.54
6867.00,0.54
6866.00,0.54
6865.00,0.54
6864.00,0.55
6863.00,0.55
6862.00,0.55
6861.00,0.55
6860.00,0.55
6859.00,0.54
6858.00,0.54
6857.00,0.54
6856.00,0.54
6855.00,0.54
6854.00,0.54
6853.00,0.54
6852.00,0.54
6851.00,0.54
6850.00,0.54
6849.00,0.54
6848.00,0.54
6847.00,0.54
6846.00,0.54
6845.00,0.54
6844.00,0.54
6843.00,0.54
6842.00,0.54
6841.00,0.54
6840.00,0.55
6839.00,0.55
6838.00,0.55
6837.00,0.55
6836.00,0.55
6835.00,0.55
6834.00,0.55
6833.00,0.55
6832.00,0.55
6831.00,0.55
6830.00,0.55
6829.00,0.55
6828.00,0.55
6827.00,0.55
6826.00,0.55
6825.00,0.56
6824.00,0.56
6823.00,0.56
6822.00,0.56
6821.00,0.56
6820.00,0.56
6819.00,0.56
6818.00,0.56
6817.00,0.56
6816.00,0.56
6815.00,0.56
6814.00,0.56
6813.00,0.56
6812.00,0.56
6811.00,0.56
6810.00,0.56
6809.00,0.56
6808.00,0.56
6807.00,0.56
6806.00,0.56
6805.00,0.55
6804.00,0.55
6803.00,0.55
6802.00,0.55
6801.00,0.55
6800.00,0.55
6799.00,0.55
6798.00,0.55
6797.00,0.55
6796.00,0.55
6795.00,0.55
6794.00,0.55
6793.00,0.55
6792.00,0.55
6791.00,0.55
6790.00,0.55
6789.00,0.55
6788.00,0.56
6787.00,0.56
6786.00,0.56
6785.00,0.56
6784.00,0.56
6783.00,0.56
6782.00,0.56
6781.00,0.56
6780.00,0.56
6779.00,0.56
6778.00,0.56
6777.00,0.56
6776.00,0.56
6775.00,0.56
6774.00,0.56
6773.00,0.56
6772.00,0.56
6771.00,0.56
6770.00,0.56
6769.00,0.56
6768.00,0.56
6767.00,0.56
6766.00,0.56
6765.00,0.56
6764.00,0.57
6763.00,0.57
6762.00,0.57
6761.00,0.57
6760.00,0.57
6759.00,0.57
6758.00,0.57
6757.00,0.57
6756.00,0.57
6755.00,0.57
6754.00,0.57
6753.00,0.58
6752.00,0.58
6751.00,0.58
6750.00,0.58
6749.00,0.58
6748.00,0.58
6747.00,0.58
6746.00,0.58
6745.00,0.58
6744.00,0.58
6743.00,0.58
6742.00,0.58
6741.00,0.59
6740.00,0.59
6739.00,0.59
6738.00,0.59
6737.00,0.59
6736.00,0.59
6735.00,0.59
6734.00,0.59
6733.00,0.59
6732.00,0.59
6731.00,0.59
6730.00,0.59
6729.00,0.59
6728.00,0.59
6727.00,0.59
6726.00,0.59
6725.00,0.59
6724.00,0.59
6723.00,0.59
6722.00,0.59
6721.00,0.59
6720.00,0.59
6719.00,0.59
6718.00,0.59
6717.00,0.60
6716.00,0.60
6715.00,0.60
6714.00,0.60
6713.00,0.60
6712.00,0.60
6711.00,0.60
6710.00,0.60
6709.00,0.60
6708.00,0.60
6707.00,0.60
6706.00,0.60
6705.00,0.61
6704.00,0.61
6703.00,0.61
6702.00,0.61
6701.00,0.61
6700.00,0.61
6699.00,0.61
6698.00,0.61
6697.00,0.61
6696.00,0.61
6695.00,0.61
6694.00,0.61
6693.00,0.61
6692.00,0.62
6691.00,0.62
6690.00,0.62
6689.00,0.62
6688.00,0.62
6687.00,0.62
6686.00,0.62
6685.00,0.62
6684.00,0.62
6683.00,0.62
6682.00,0.62
6681.00,0.62
6680.00,0.62
6679.00,0.62
6678.00,0.62
6677.00,0.62
6676.00,0.62
6675.00,0.62
6674.00,0.62
6673.00,0.62
6672.00,0.62
6671.00,0.62
6670.00,0.62
6669.00,0.62
6668.00,0.62
6667.00,0.62
6666.00,0.62
6665.00,0.62
6664.00,0.62
6663.00,0.63
6662.00,0.63
6661.00,0.63
6660.00,0.63
6659.00,0.63
6658.00,0.63
6657.00,0.63
6656.00,0.63
6655.00,0.63
6654.00,0.63
6653.00,0.63
6652.00,0.63
6651.00,0.64
6650.00,0.64
6649.00,0.64
6648.00,0.64
6647.00,0.64
6646.00,0.64
6645.00,0.64
6644.00,0.64
6643.00,0.64
6642.00,0.64
6641.00,0.64
6640.00,0.64
6639.00,0.64
6638.00,0.64
6637.00,0.64
6636.00,0.65
6635.00,0.65
6634.00,0.65
6633.00,0.65
6632.00,0.65
6631.00,0.65
6630.00,0.65
6629.00,0.65
6628.00,0.66
6627.00,0.66
6626.00,0.66
6625.00,0.66
6624.00,0.66
6623.00,0.66
6622.00,0.67
6621.00,0.67
6620.00,0.67
6619.00,0.67
6618.00,0.67
6617.00,0.67
6616.00,0.67
6615.00,0.67
6614.00,0.67
6613.00,0.68
6612.00,0.68
6611.00,0.68
6610.00,0.68
6609.00,0.68
6608.00,0.68
6607.00,0.68
6606.00,0.68
6605.00,0.68
6604.00,0.68
6603.00,0.68
6602.00,0.68
6601.00,0.68
6600.00,0.68
6599.00,0.68
6598.00,0.68
6597.00,0.68
6596.00,0.68
6595.00,0.68
6594.00,0.68
6593.00,0.68
6592.00,0.68
6591.00,0.68
6590.00,0.68
6589.00,0.68
6588.00,0.69
6587.00,0.69
6586.00,0.69
6585.00,0.69
6584.00,0.69
6583.00,0.69
6582.00,0.69
6581.00,0.69
6580.00,0.69
6579.00,0.69
6578.00,0.69
6577.00,0.69
6576.00,0.69
6575.00,0.69
6574.00,0.69
6573.00,0.69
6572.00,0.70
6571.00,0.70
6570.00,0.70
6569.00,0.70
6568.00,0.70
6567.00,0.70
6566.00,0.70
6565.00,0.70
6564.00,0.70
6563.00,0.70
6562.00,0.70
6561.00,0.70
6560.00,0.70
6559.00,0.70
6558.00,0.71
6557.00,0.71
6556.00,0.71
6555.00,0.71
6554.00,0.71
6553.00,0.71
6552.00,0.71
6551.00,0.71
6550.00,0.71
6549.00,0.71
6548.00,0.71
6547.00,0.71
6546.00,0.72
6545.00,0.72
6544.00,0.72
6543.00,0.72
6542.00,0.72
6541.00,0.72
6540.00,0.72
6539.00,0.72
6538.00,0.72
6537.00,0.73
6536.00,0.73
6535.00,0.73
6534.00,0.73
6533.00,0.73
6532.00,0.73
6531.00,0.73
6530.00,0.73
6529.00,0.73
6528.00,0.73
6527.00,0.74
6526.00,0.74
6525.00,0.74
6524.00,0.74
6523.00,0.74
6522.00,0.74
6521.00,0.74
6520.00,0.74
6519.00,0.74
6518.00,0.74
6517.00,0.74
6516.00,0.74
6515.00,0.75
6514.00,0.75
6513.00,0.75
6512.00,0.75
6511.00,0.75
6510.00,0.75
6509.00,0.75
6508.00,0.75
6507.00,0.75
6506.00,0.75
6505.00,0.75
6504.00,0.75
6503.00,0.75
6502.00,0.75
6501.00,0.75
6500.00,0.75
6499.00,0.75
6498.00,0.75
6497.00,0.75
6496.00,0.75
6495.00,0.75
6494.00,0.75
6493.00,0.75
6492.00,0.76
6491.00,0.76
6490.00,0.76
6489.00,0.76
6488.00,0.76
6487.00,0.76
6486.00,0.76
6485.00,0.76
6484.00,0.76
6483.00,0.76
6482.00,0.76
6481.00,0.76
6480.00,0.76
6479.00,0.76
6478.00,0.76
6477.00,0.77
6476.00,0.77
6475.00,0.77
6474.00,0.77
6473.00,0.77
6472.00,0.77
6471.00,0.77
6470.00,0.77
6469.00,0.77
6468.00,0.77
6467.00,0.77
6466.00,0.77
6465.00,0.78
6464.00,0.78
6463.00,0.78
6462.00,0.78
6461.00,0.78
6460.00,0.78
6459.00,0.78
6458.00,0.78
6457.00,0.78
6456.00,0.79
6455.00,0.79
6454.00,0.79
6453.00,0.79
6452.00,0.79
6451.00,0.79
6450.00,0.79
6449.00,0.79
6448.00,0.79
6447.00,0.79
6446.00,0.79
6445.00,0.79
6444.00,0.79
6443.00,0.79
6442.00,0.79
6441.00,0.79
6440.00,0.80
6439.00,0.80
6438.00,0.80
6437.00,0.80
6436.00,0.80
6435.00,0.80
6434.00,0.80
6433.00,0.80
6432.00,0.80
6431.00,0.80
6430.00,0.80
6429.00,0.80
6428.00,0.80
6427.00,0.81
6426.00,0.81
6425.00,0.81
6424.00,0.81
6423.00,0.81
6422.00,0.81
6421.00,0.81
6420.00,0.81
6419.00,0.81
6418.00,0.81
6417.00,0.81
6416.00,0.81
6415.00,0.81
6414.00,0.81
6413.00,0.81
6412.00,0.81
6411.00,0.82
6410.00,0.82
6409.00,0.82
6408.00,0.82
6407.00,0.82
6406.00,0.82
6405.00,0.82
6404.00,0.82
6403.00,0.82
6402.00,0.82
6401.00,0.82
6400.00,0.82
6399.00,0.82
6398.00,0.82
6397.00,0.82
6396.00,0.82
6395.00,0.82
6394.00,0.83
6393.00,0.83
6392.00,0.83
6391.00,0.83
6390.00,0.83
6389.00,0.83
6388.00,0.83
6387.00,0.83
6386.00,0.83
6385.00,0.83
6384.00,0.83
6383.00,0.83
6382.00,0.83
6381.00,0.83
6380.00,0.83
6379.00,0.83
6378.00,0.83
6377.00,0.83
6376.00,0.83
6375.00,0.83
6374.00,0.83
6373.00,0.83
6372.00,0.83
6371.00,0.83
6370.00,0.83
6369.00,0.83
6368.00,0.84
6367.00,0.84
6366.00,0.84
6365.00,0.84
6364.00,0.84
6363.00,0.84
6362.00,0.84
6361.00,0.84
6360.00,0.84
6359.00,0.84
6358.00,0.84
6357.00,0.84
6356.00,0.84
6355.00,0.85
6354.00,0.85
6353.00,0.85
6352.00,0.85
6351.00,0.85
6350.00,0.85
6349.00,0.85
6348.00,0.85
6347.00,0.86
6346.00,0.86
6345.00,0.86
6344.00,0.86
6343.00,0.86
6342.00,0.86
6341.00,0.86
6340.00,0.86
6339.00,0.86
6338.00,0.86
6337.00,0.87
6336.00,0.87
6335.00,0.87
6334.00,0.87
6333.00,0.87
6332.00,0.87
6331.00,0.87
6330.00,0.87
6329.00,0.87
6328.00,0.87
6327.00,0.87
6326.00,0.87
6325.00,0.88
6324.00,0.88
6323.00,0.88
6322.00,0.88
6321.00,0.88
6320.00,0.88
6319.00,0.88
6318.00,0.88
6317.00,0.88
6316.00,0.88
6315.00,0.89
6314.00,0.89
6313.00,0.89
6312.00,0.89
6311.00,0.89
6310.00,0.89
6309.00,0.89
6308.00,0.89
6307.00,0.89
6306.00,0.89
6305.00,0.89
6304.00,0.89
6303.00,0.89
6302.00,0.89
6301.00,0.89
6300.00,0.89
6299.00,0.89
6298.00,0.89
6297.00,0.89
6296.00,0.89
6295.00,0.90
6294.00,0.90
6293.00,0.90
6292.00,0.90
6291.00,0.90
6290.00,0.90
6289.00,0.90
6288.00,0.90
6287.00,0.90
6286.00,0.91
6285.00,0.91
6284.00,0.91
6283.00,0.91
6282.00,0.91
6281.00,0.91
6280.00,0.92
6279.00,0.92
6278.00,0.92
6277.00,0.92
6276.00,0.92
6275.00,0.93
6274.00,0.93
6273.00,0.93
6272.00,0.93
6271.00,0.93
6270.00,0.93
6269.00,0.93
6268.00,0.94
6267.00,0.94
6266.00,0.94
6265.00,0.94
6264.00,0.94
6263.00,0.94
6262.00,0.94
6261.00,0.95
6260.00,0.95
6259.00,0.95
6258.00,0.95
6257.00,0.95
6256.00,0.95
6255.00,0.95
6254.00,0.95
6253.00,0.96
6252.00,0.96
6251.00,0.96
6250.00,0.96
6249.00,0.96
6248.00,0.96
6247.00,0.96
6246.00,0.96
6245.00,0.96
6244.00,0.96
6243.00,0.96
6242.00,0.96
6241.00,0.97
6240.00,0.97
6239.00,0.97
6238.00,0.97
6237.00,0.97
6236.00,0.97
6235.00,0.97
6234.00,0.97
6233.00,0.98
6232.00,0.98
6231.00,0.98
6230.00,0.98
6229.00,0.98
6228.00,0.98
6227.00,0.99
6226.00,0.99
6225.00,0.99
6224.00,0.99
6223.00,0.99
6222.00,0.99
6221.00,1.00
6220.00,1.00
6219.00,1.00
6218.00,1.00
6217.00,1.00
6216.00,1.00
6215.00,1.00
6214.00,1.00
6213.00,1.00
6212.00,1.00
6211.00,1.01
6210.00,1.01
6209.00,1.01
6208.00,1.01
6207.00,1.01
6206.00,1.01
6205.00,1.01
6204.00,1.01
6203.00,1.01
6202.00,1.01
6201.00,1.01
6200.00,1.02
6199.00,1.02
6198.00,1.02
6197.00,1.02
6196.00,1.02
6195.00,1.02
6194.00,1.02
6193.00,1.02
6192.00,1.02
6191.00,1.02
6190.00,1.02
6189.00,1.03
6188.00,1.03
6187.00,1.03
6186.00,1.03
6185.00,1.03
6184.00,1.03
6183.00,1.03
6182.00,1.04
6181.00,1.04
6180.00,1.04
6179.00,1.04
6178.00,1.04
6177.00,1.04
6176.00,1.05
6175.00,1.05
6174.00,1.05
6173.00,1.05
6172.00,1.05
6171.00,1.06
6170.00,1.06
6169.00,1.06
6168.00,1.06
6167.00,1.06
6166.00,1.06
6165.00,1.07
6164.00,1.07
6163.00,1.07
6162.00,1.07
6161.00,1.07
6160.00,1.07
6159.00,1.08
6158.00,1.08
6157.00,1.08
6156.00,1.08
6155.00,1.08
6154.00,1.08
6153.00,1.08
6152.00,1.09
6151.00,1.09
6150.00,1.09
6149.00,1.09
6148.00,1.09
6147.00,1.09
6146.00,1.09
6145.00,1.10
6144.00,1.10
6143.00,1.10
6142.00,1.10
6141.00,1.10
6140.00,1.10
6139.00,1.10
6138.00,1.11
6137.00,1.11
6136.00,1.11
6135.00,1.11
6134.00,1.11
6133.00,1.11
6132.00,1.11
6131.00,1.11
6130.00,1.11
6129.00,1.11
6128.00,1.11
6127.00,1.12
6126.00,1.12
6125.00,1.12
6124.00,1.12
6123.00,1.12
6122.00,1.12
6121.00,1.12
6120.00,1.13
6119.00,1.13
6118.00,1.13
6117.00,1.13
6116.00,1.13
6115.00,1.14
6114.00,1.14
6113.00,1.14
6112.00,1.14
6111.00,1.14
6110.00,1.15
6109.00,1.15
6108.00,1.15
6107.00,1.15
6106.00,1.15
6105.00,1.15
6104.00,1.16
6103.00,1.16
6102.00,1.16
6101.00,1.16
6100.00,1.16
6099.00,1.16
6098.00,1.16
6097.00,1.16
6096.00,1.16
6095.00,1.16
6094.00,1.17
6093.00,1.17
6092.00,1.17
6091.00,1.17
6090.00,1.17
6089.00,1.17
6088.00,1.17
6087.00,1.17
6086.00,1.18
6085.00,1.18
6084.00,1.18
6083.00,1.18
6082.00,1.18
6081.00,1.18
6080.00,1.19
6079.00,1.19
6078.00,1.19
6077.00,1.19
6076.00,1.19
6075.00,1.20
6074.00,1.20
6073.00,1.20
6072.00,1.20
6071.00,1.20
6070.00,1.20
6069.00,1.20
6068.00,1.20
6067.00,1.20
6066.00,1.20
6065.00,1.20
6064.00,1.20
6063.00,1.21
6062.00,1.21
6061.00,1.21
6060.00,1.21
6059.00,1.21
6058.00,1.21
6057.00,1.21
6056.00,1.21
6055.00,1.21
6054.00,1.21
6053.00,1.21
6052.00,1.21
6051.00,1.22
6050.00,1.22
6049.00,1.22
6048.00,1.22
6047.00,1.22
6046.00,1.22
6045.00,1.22
6044.00,1.22
6043.00,1.22
6042.00,1.22
6041.00,1.22
6040.00,1.22
6039.00,1.22
6038.00,1.23
6037.00,1.23
6036.00,1.23
6035.00,1.23
6034.00,1.23
6033.00,1.23
6032.00,1.23
6031.00,1.23
6030.00,1.23
6029.00,1.23
6028.00,1.23
6027.00,1.23
6026.00,1.23
6025.00,1.23
6024.00,1.23
6023.00,1.23
6022.00,1.24
6021.00,1.24
6020.00,1.24
6019.00,1.24
6018.00,1.24
6017.00,1.24
6016.00,1.24
6015.00,1.24
6014.00,1.24
6013.00,1.24
6012.00,1.24
6011.00,1.24
6010.00,1.24
6009.00,1.24
6008.00,1.24
6007.00,1.24
6006.00,1.24
6005.00,1.24
6004.00,1.24
6003.00,1.24
6002.00,1.24
6001.00,1.23
6000.00,1.23
5999.00,1.23
5998.00,1.23
5997.00,1.23
5996.00,1.23
5995.00,1.23
5994.00,1.23
5993.00,1.22
5992.00,1.22
5991.00,1.22
5990.00,1.22
5989.00,1.22
5988.00,1.22
5987.00,1.21
5986.00,1.21
5985.00,1.21
5984.00,1.20
5983.00,1.20
5982.00,1.20
5981.00,1.19
5980.00,1.19
5979.00,1.19
5978.00,1.18
5977.00,1.18
5976.00,1.17
5975.00,1.17
5974.00,1.16
5973.00,1.16
5972.00,1.15
5971.00,1.15
5970.00,1.14
5969.00,1.14
5968.00,1.13
5967.00,1.13
5966.00,1.12
5965.00,1.11
5964.00,1.11
5963.00,1.10
5962.00,1.10
5961.00,1.09
5960.00,1.08
5959.00,1.08
5958.00,1.07
5957.00,1.06
5956.00,1.06
5955.00,1.05
5954.00,1.04
5953.00,1.04
5952.00,1.03
5951.00,1.03
5950.00,1.02
5949.00,1.02
5948.00,1.01
5947.00,1.01
5946.00,1.00
5945.00,1.00
5944.00,1.00
5943.00,1.00
5942.00,0.99
5941.00,0.99
5940.00,0.99
5939.00,0.99
5938.00,0.99
5937.00,0.99
5936.00,0.99
5935.00,0.99
5934.00,0.99
5933.00,0.99
5932.00,0.99
5931.00,0.99
5930.00,0.99
5929.00,0.99
5928.00,0.99
5927.00,0.99
5926.00,0.98
5925.00,0.98
5924.00,0.98
5923.00,0.98
5922.00,0.98
5921.00,0.98
5920.00,0.97
5919.00,0.97
5918.00,0.97
5917.00,0.97
5916.00,0.96
5915.00,0.96
5914.00,0.96
5913.00,0.96
5912.00,0.95
5911.00,0.95
5910.00,0.95
5909.00,0.95
5908.00,0.95
5907.00,0.94
5906.00,0.94
5905.00,0.94
5904.00,0.94
5903.00,0.94
5902.00,0.94
5901.00,0.94
5900.00,0.94
5899.00,0.94
5898.00,0.94
5897.00,0.94
5896.00,0.94
5895.00,0.94
5894.00,0.95
5893.00,0.95
5892.00,0.95
5891.00,0.95
5890.00,0.96
5889.00,0.96
5888.00,0.96
5887.00,0.97
5886.00,0.97
5885.00,0.97
5884.00,0.97
5883.00,0.98
5882.00,0.98
5881.00,0.98
5880.00,0.99
5879.00,0.99
5878.00,0.99
5877.00,0.99
5876.00,0.99
5875.00,1.00
5874.00,1.00
5873.00,1.00
5872.00,1.00
5871.00,1.00
5870.00,1.01
5869.00,1.01
5868.00,1.01
5867.00,1.01
5866.00,1.01
5865.00,1.02
5864.00,1.02
5863.00,1.02
5862.00,1.02
5861.00,1.02
5860.00,1.02
5859.00,1.03
5858.00,1.03
5857.00,1.03
5856.00,1.03
5855.00,1.03
5854.00,1.03
5853.00,1.03
5852.00,1.03
5851.00,1.03
5850.00,1.03
5849.00,1.03
5848.00,1.03
5847.00,1.03
5846.00,1.04
5845.00,1.04
5844.00,1.04
5843.00,1.04
5842.00,1.04
5841.00,1.04
5840.00,1.04
5839.00,1.03
5838.00,1.03
5837.00,1.03
5836.00,1.03
5835.00,1.03
5834.00,1.03
5833.00,1.03
5832.00,1.03
5831.00,1.03
5830.00,1.03
5829.00,1.03
5828.00,1.03
5827.00,1.03
5826.00,1.03
5825.00,1.03
5824.00,1.03
5823.00,1.03
5822.00,1.03
5821.00,1.03
5820.00,1.03
5819.00,1.03
5818.00,1.03
5817.00,1.03
5816.00,1.03
5815.00,1.03
5814.00,1.03
5813.00,1.03
5812.00,1.03
5811.00,1.03
5810.00,1.04
5809.00,1.04
5808.00,1.04
5807.00,1.04
5806.00,1.04
5805.00,1.04
5804.00,1.03
5803.00,1.03
5802.00,1.03
5801.00,1.03
5800.00,1.03
5799.00,1.03
5798.00,1.03
5797.00,1.03
5796.00,1.02
5795.00,1.02
5794.00,1.02
5793.00,1.02
5792.00,1.02
5791.00,1.01
5790.00,1.01
5789.00,1.01
5788.00,1.01
5787.00,1.01
5786.00,1.01
5785.00,1.00
5784.00,1.00
5783.00,1.00
5782.00,1.00
5781.00,1.00
5780.00,1.00
5779.00,0.99
5778.00,0.99
5777.00,0.99
5776.00,0.99
5775.00,0.99
5774.00,0.99
5773.00,0.99
5772.00,0.99
5771.00,0.99
5770.00,0.99
5769.00,0.99
5768.00,0.99
5767.00,0.99
5766.00,0.99
5765.00,1.00
5764.00,1.00
5763.00,1.00
5762.00,1.00
5761.00,1.01
5760.00,1.01
5759.00,1.01
5758.00,1.01
5757.00,1.02
5756.00,1.02
5755.00,1.02
5754.00,1.03
5753.00,1.03
5752.00,1.03
5751.00,1.04
5750.00,1.04
5749.00,1.04
5748.00,1.05
5747.00,1.05
5746.00,1.05
5745.00,1.06
5744.00,1.06
5743.00,1.06
5742.00,1.06
5741.00,1.07
5740.00,1.07
5739.00,1.07
5738.00,1.07
5737.00,1.07
5736.00,1.08
5735.00,1.08
5734.00,1.08
5733.00,1.08
5732.00,1.08
5731.00,1.09
5730.00,1.09
5729.00,1.09
5728.00,1.09
5727.00,1.09
5726.00,1.09
5725.00,1.09
5724.00,1.09
5723.00,1.09
5722.00,1.09
5721.00,1.09
5720.00,1.09
5719.00,1.09
5718.00,1.09
5717.00,1.09
5716.00,1.09
5715.00,1.09
5714.00,1.09
5713.00,1.09
5712.00,1.09
5711.00,1.09
5710.00,1.09
5709.00,1.09
5708.00,1.09
5707.00,1.09
5706.00,1.09
5705.00,1.09
5704.00,1.09
5703.00,1.09
5702.00,1.09
5701.00,1.09
5700.00,1.09
5699.00,1.09
5698.00,1.08
5697.00,1.08
5696.00,1.08
5695.00,1.08
5694.00,1.08
5693.00,1.08
5692.00,1.08
5691.00,1.07
5690.00,1.07
5689.00,1.07
5688.00,1.07
5687.00,1.07
5686.00,1.07
5685.00,1.06
5684.00,1.06
5683.00,1.06
5682.00,1.06
5681.00,1.06
5680.00,1.06
5679.00,1.06
5678.00,1.06
5677.00,1.06
5676.00,1.06
5675.00,1.06
5674.00,1.06
5673.00,1.06
5672.00,1.06
5671.00,1.06
5670.00,1.06
5669.00,1.06
5668.00,1.06
5667.00,1.06
5666.00,1.06
5665.00,1.06
5664.00,1.06
5663.00,1.07
5662.00,1.07
5661.00,1.07
5660.00,1.07
5659.00,1.07
5658.00,1.07
5657.00,1.07
5656.00,1.08
5655.00,1.08
5654.00,1.08
5653.00,1.08
5652.00,1.08
5651.00,1.08
5650.00,1.08
5649.00,1.08
5648.00,1.09
5647.00,1.09
5646.00,1.09
5645.00,1.09
5644.00,1.09
5643.00,1.09
5642.00,1.10
5641.00,1.10
5640.00,1.10
5639.00,1.10
5638.00,1.10
5637.00,1.11
5636.00,1.11
5635.00,1.11
5634.00,1.11
5633.00,1.11
5632.00,1.12
5631.00,1.12
5630.00,1.12
5629.00,1.12
5628.00,1.12
5627.00,1.13
5626.00,1.13
5625.00,1.13
5624.00,1.13
5623.00,1.13
5622.00,1.14
5621.00,1.14
5620.00,1.14
5619.00,1.14
5618.00,1.14
5617.00,1.14
5616.00,1.15
5615.00,1.15
5614.00,1.15
5613.00,1.15
5612.00,1.15
5611.00,1.15
5610.00,1.16
5609.00,1.16
5608.00,1.16
5607.00,1.16
5606.00,1.16
5605.00,1.16
5604.00,1.16
5603.00,1.17
5602.00,1.17
5601.00,1.17
5600.00,1.17
5599.00,1.17
5598.00,1.17
5597.00,1.17
5596.00,1.18
5595.00,1.18
5594.00,1.18
5593.00,1.18
5592.00,1.18
5591.00,1.18
5590.00,1.18
5589.00,1.18
5588.00,1.18
5587.00,1.19
5586.00,1.19
5585.00,1.19
5584.00,1.19
5583.00,1.19
5582.00,1.19
5581.00,1.19
5580.00,1.19
5579.00,1.19
5578.00,1.20
5577.00,1.20
5576.00,1.20
5575.00,1.20
5574.00,1.20
5573.00,1.20
5572.00,1.20
5571.00,1.20
5570.00,1.21
5569.00,1.21
5568.00,1.21
5567.00,1.21
5566.00,1.21
5565.00,1.21
5564.00,1.22
5563.00,1.22
5562.00,1.22
5561.00,1.22
5560.00,1.22
5559.00,1.22
5558.00,1.23
5557.00,1.23
5556.00,1.23
5555.00,1.23
5554.00,1.23
5553.00,1.23
5552.00,1.24
5551.00,1.24
5550.00,1.24
5549.00,1.24
5548.00,1.24
5547.00,1.24
5546.00,1.24
5545.00,1.24
5544.00,1.25
5543.00,1.25
5542.00,1.25
5541.00,1.25
5540.00,1.25
5539.00,1.25
5538.00,1.25
5537.00,1.25
5536.00,1.25
5535.00,1.25
5534.00,1.25
5533.00,1.25
5532.00,1.26
5531.00,1.26
5530.00,1.26
5529.00,1.26
5528.00,1.26
5527.00,1.26
5526.00,1.26
5525.00,1.26
5524.00,1.26
5523.00,1.26
5522.00,1.26
5521.00,1.27
5520.00,1.27
5519.00,1.27
5518.00,1.27
5517.00,1.27
5516.00,1.27
5515.00,1.27
5514.00,1.27
5513.00,1.27
5512.00,1.27
5511.00,1.27
5510.00,1.28
5509.00,1.28
5508.00,1.28
5507.00,1.28
5506.00,1.28
5505.00,1.28
5504.00,1.28
5503.00,1.28
5502.00,1.28
5501.00,1.28
5500.00,1.28
5499.00,1.28
5498.00,1.28
5497.00,1.28
5496.00,1.28
5495.00,1.29
5494.00,1.29
5493.00,1.29
5492.00,1.29
5491.00,1.29
5490.00,1.29
5489.00,1.29
5488.00,1.29
5487.00,1.30
5486.00,1.30
5485.00,1.30
5484.00,1.30
5483.00,1.30
5482.00,1.31
5481.00,1.31
5480.00,1.31
5479.00,1.31
5478.00,1.31
5477.00,1.31
5476.00,1.31
5475.00,1.31
5474.00,1.32
5473.00,1.32
5472.00,1.32
5471.00,1.32
5470.00,1.32
5469.00,1.32
5468.00,1.32
5467.00,1.32
5466.00,1.32
5465.00,1.32
5464.00,1.32
5463.00,1.32
5462.00,1.32
5461.00,1.32
5460.00,1.33
5459.00,1.33
5458.00,1.33
5457.00,1.33
5456.00,1.33
5455.00,1.33
5454.00,1.33
5453.00,1.34
5452.00,1.34
5451.00,1.34
5450.00,1.34
5449.00,1.34
5448.00,1.34
5447.00,1.34
5446.00,1.34
5445.00,1.34
5444.00,1.34
5443.00,1.34
5442.00,1.34
5441.00,1.34
5440.00,1.34
5439.00,1.34
5438.00,1.34
5437.00,1.34
5436.00,1.34
5435.00,1.34
5434.00,1.34
5433.00,1.34
5432.00,1.34
5431.00,1.34
5430.00,1.34
5429.00,1.34
5428.00,1.34
5427.00,1.34
5426.00,1.34
5425.00,1.34
5424.00,1.34
5423.00,1.34
5422.00,1.34
5421.00,1.34
5420.00,1.34
5419.00,1.34
5418.00,1.34
5417.00,1.34
5416.00,1.34
5415.00,1.34
5414.00,1.34
5413.00,1.34
5412.00,1.34
5411.00,1.34
5410.00,1.34
5409.00,1.34
5408.00,1.34
5407.00,1.34
5406.00,1.34
5405.00,1.34
5404.00,1.34
5403.00,1.33
5402.00,1.33
5401.00,1.33
5400.00,1.33
5399.00,1.33
5398.00,1.33
5397.00,1.33
5396.00,1.33
5395.00,1.33
5394.00,1.33
5393.00,1.33
5392.00,1.33
5391.00,1.32
5390.00,1.32
5389.00,1.32
5388.00,1.32
5387.00,1.31
5386.00,1.31
5385.00,1.31
5384.00,1.30
5383.00,1.30
5382.00,1.30
5381.00,1.29
5380.00,1.29
5379.00,1.29
5378.00,1.28
5377.00,1.28
5376.00,1.27
5375.00,1.27
5374.00,1.26
5373.00,1.26
5372.00,1.25
5371.00,1.25
5370.00,1.24
5369.00,1.24
5368.00,1.23
5367.00,1.23
5366.00,1.22
5365.00,1.22
5364.00,1.21
5363.00,1.21
5362.00,1.20
5361.00,1.19
5360.00,1.19
5359.00,1.18
5358.00,1.17
5357.00,1.16
5356.00,1.16
5355.00,1.15
5354.00,1.14
5353.00,1.13
5352.00,1.12
5351.00,1.12
5350.00,1.11
5349.00,1.10
5348.00,1.09
5347.00,1.08
5346.00,1.07
5345.00,1.06
5344.00,1.05
5343.00,1.05
5342.00,1.04
5341.00,1.03
5340.00,1.02
5339.00,1.01
5338.00,1.00
5337.00,0.99
5336.00,0.99
5335.00,0.98
5334.00,0.97
5333.00,0.96
5332.00,0.95
5331.00,0.95
5330.00,0.94
5329.00,0.93
5328.00,0.93
5327.00,0.92
5326.00,0.91
5325.00,0.91
5324.00,0.90
5323.00,0.89
5322.00,0.89
5321.00,0.88
5320.00,0.87
5319.00,0.87
5318.00,0.86
5317.00,0.86
5316.00,0.85
5315.00,0.84
5314.00,0.84
5313.00,0.83
5312.00,0.83
5311.00,0.82
5310.00,0.82
5309.00,0.81
5308.00,0.81
5307.00,0.81
5306.00,0.80
5305.00,0.80
5304.00,0.79
5303.00,0.79
5302.00,0.79
5301.00,0.79
5300.00,0.78
5299.00,0.78
5298.00,0.78
5297.00,0.78
5296.00,0.77
5295.00,0.77
5294.00,0.77
5293.00,0.77
5292.00,0.77
5291.00,0.77
5290.00,0.77
5289.00,0.77
5288.00,0.76
5287.00,0.76
5286.00,0.76
5285.00,0.76
5284.00,0.76
5283.00,0.76
5282.00,0.76
5281.00,0.76
5280.00,0.76
5279.00,0.76
5278.00,0.76
5277.00,0.76
5276.00,0.76
5275.00,0.76
5274.00,0.76
5273.00,0.76
5272.00,0.76
5271.00,0.76
5270.00,0.76
5269.00,0.76
5268.00,0.76
5267.00,0.77
5266.00,0.77
5265.00,0.77
5264.00,0.77
5263.00,0.77
5262.00,0.77
5261.00,0.77
5260.00,0.77
5259.00,0.77
5258.00,0.77
5257.00,0.77
5256.00,0.77
5255.00,0.77
5254.00,0.77
5253.00,0.77
5252.00,0.77
5251.00,0.77
5250.00,0.77
5249.00,0.77
5248.00,0.77
5247.00,0.77
5246.00,0.76
5245.00,0.76
5244.00,0.76
5243.00,0.76
5242.00,0.76
5241.00,0.77
5240.00,0.77
5239.00,0.77
5238.00,0.77
5237.00,0.77
5236.00,0.77
5235.00,0.77
5234.00,0.77
5233.00,0.77
5232.00,0.77
5231.00,0.77
5230.00,0.77
5229.00,0.77
5228.00,0.77
5227.00,0.77
5226.00,0.77
5225.00,0.77
5224.00,0.77
5223.00,0.77
5222.00,0.77
5221.00,0.77
5220.00,0.77
5219.00,0.78
5218.00,0.78
5217.00,0.78
5216.00,0.78
5215.00,0.78
5214.00,0.78
5213.00,0.78
5212.00,0.78
5211.00,0.78
5210.00,0.78
5209.00,0.78
5208.00,0.78
5207.00,0.78
5206.00,0.78
5205.00,0.78
5204.00,0.78
5203.00,0.78
5202.00,0.78
5201.00,0.78
5200.00,0.78
5199.00,0.78
5198.00,0.78
5197.00,0.78
5196.00,0.78
5195.00,0.78
5194.00,0.78
5193.00,0.78
5192.00,0.78
5191.00,0.78
5190.00,0.78
5189.00,0.78
5188.00,0.78
5187.00,0.78
5186.00,0.79
5185.00,0.79
5184.00,0.79
5183.00,0.79
5182.00,0.79
5181.00,0.79
5180.00,0.79
5179.00,0.79
5178.00,0.79
5177.00,0.79
5176.00,0.79
5175.00,0.79
5174.00,0.79
5173.00,0.79
5172.00,0.79
5171.00,0.79
5170.00,0.79
5169.00,0.79
5168.00,0.79
5167.00,0.79
5166.00,0.79
5165.00,0.79
5164.00,0.79
5163.00,0.79
5162.00,0.79
5161.00,0.79
5160.00,0.79
5159.00,0.79
5158.00,0.79
5157.00,0.79
5156.00,0.79
5155.00,0.79
5154.00,0.79
5153.00,0.79
5152.00,0.79
5151.00,0.79
5150.00,0.79
5149.00,0.79
5148.00,0.80
5147.00,0.80
5146.00,0.80
5145.00,0.80
5144.00,0.80
5143.00,0.80
5142.00,0.80
5141.00,0.80
5140.00,0.80
5139.00,0.80
5138.00,0.81
5137.00,0.81
5136.00,0.81
5135.00,0.81
5134.00,0.81
5133.00,0.81
5132.00,0.81
5131.00,0.81
5130.00,0.81
5129.00,0.81
5128.00,0.81
5127.00,0.81
5126.00,0.81
5125.00,0.81
5124.00,0.81
5123.00,0.81
5122.00,0.82
5121.00,0.82
5120.00,0.82
5119.00,0.82
5118.00,0.82
5117.00,0.81
5116.00,0.81
5115.00,0.81
5114.00,0.81
5113.00,0.81
5112.00,0.82
5111.00,0.82
5110.00,0.82
5109.00,0.82
5108.00,0.82
5107.00,0.82
5106.00,0.82
5105.00,0.82
5104.00,0.82
5103.00,0.82
5102.00,0.82
5101.00,0.82
5100.00,0.82
5099.00,0.82
5098.00,0.82
5097.00,0.82
5096.00,0.82
5095.00,0.82
5094.00,0.82
5093.00,0.82
5092.00,0.82
5091.00,0.82
5090.00,0.83
5089.00,0.83
5088.00,0.83
5087.00,0.83
5086.00,0.83
5085.00,0.83
5084.00,0.83
5083.00,0.83
5082.00,0.83
5081.00,0.83
5080.00,0.83
5079.00,0.83
5078.00,0.83
5077.00,0.83
5076.00,0.83
5075.00,0.84
5074.00,0.84
5073.00,0.84
5072.00,0.84
5071.00,0.84
5070.00,0.84
5069.00,0.84
5068.00,0.84
5067.00,0.84
5066.00,0.84
5065.00,0.84
5064.00,0.84
5063.00,0.84
5062.00,0.84
5061.00,0.84
5060.00,0.84
5059.00,0.84
5058.00,0.84
5057.00,0.84
5056.00,0.84
5055.00,0.84
5054.00,0.84
5053.00,0.84
5052.00,0.85
5051.00,0.85
5050.00,0.85
5049.00,0.85
5048.00,0.85
5047.00,0.85
5046.00,0.85
5045.00,0.85
5044.00,0.85
5043.00,0.85
5042.00,0.85
5041.00,0.85
5040.00,0.85
5039.00,0.85
5038.00,0.85
5037.00,0.85
5036.00,0.85
5035.00,0.85
5034.00,0.85
5033.00,0.85
5032.00,0.85
5031.00,0.85
5030.00,0.85
5029.00,0.85
5028.00,0.85
5027.00,0.85
5026.00,0.85
5025.00,0.85
5024.00,0.85
5023.00,0.85
5022.00,0.85
5021.00,0.86
5020.00,0.86
5019.00,0.86
5018.00,0.86
5017.00,0.86
5016.00,0.86
5015.00,0.86
5014.00,0.86
5013.00,0.86
5012.00,0.86
5011.00,0.86
5010.00,0.86
5009.00,0.86
5008.00,0.86
5007.00,0.86
5006.00,0.86
5005.00,0.86
5004.00,0.86
5003.00,0.86
5002.00,0.86
5001.00,0.86
5000.00,0.86
4999.00,0.86
4998.00,0.86
4997.00,0.86
4996.00,0.87
4995.00,0.87
4994.00,0.87
4993.00,0.87
4992.00,0.87
4991.00,0.87
4990.00,0.87
4989.00,0.87
4988.00,0.87
4987.00,0.87
4986.00,0.87
4985.00,0.87
4984.00,0.87
4983.00,0.87
4982.00,0.87
4981.00,0.87
4980.00,0.88
4979.00,0.88
4978.00,0.88
4977.00,0.88
4976.00,0.88
4975.00,0.88
4974.00,0.88
4973.00,0.88
4972.00,0.88
4971.00,0.88
4970.00,0.88
4969.00,0.88
4968.00,0.88
4967.00,0.88
4966.00,0.88
4965.00,0.89
4964.00,0.89
4963.00,0.89
4962.00,0.89
4961.00,0.89
4960.00,0.89
4959.00,0.89
4958.00,0.89
4957.00,0.89
4956.00,0.89
4955.00,0.89
4954.00,0.89
4953.00,0.89
4952.00,0.89
4951.00,0.89
4950.00,0.89
4949.00,0.89
4948.00,0.89
4947.00,0.89
4946.00,0.89
4945.00,0.89
4944.00,0.89
4943.00,0.89
4942.00,0.90
4941.00,0.90
4940.00,0.90
4939.00,0.90
4938.00,0.90
4937.00,0.90
4936.00,0.90
4935.00,0.90
4934.00,0.90
4933.00,0.90
4932.00,0.90
4931.00,0.90
4930.00,0.90
4929.00,0.90
4928.00,0.90
4927.00,0.90
4926.00,0.90
4925.00,0.90
4924.00,0.90
4923.00,0.91
4922.00,0.91
4921.00,0.91
4920.00,0.91
4919.00,0.91
4918.00,0.91
4917.00,0.91
4916.00,0.91
4915.00,0.91
4914.00,0.91
4913.00,0.91
4912.00,0.92
4911.00,0.92
4910.00,0.92
4909.00,0.92
4908.00,0.92
4907.00,0.92
4906.00,0.92
4905.00,0.92
4904.00,0.92
4903.00,0.92
4902.00,0.92
4901.00,0.92
4900.00,0.92
4899.00,0.93
4898.00,0.93
4897.00,0.93
4896.00,0.93
4895.00,0.93
4894.00,0.93
4893.00,0.93
4892.00,0.93
4891.00,0.93
4890.00,0.93
4889.00,0.93
4888.00,0.93
4887.00,0.93
4886.00,0.93
4885.00,0.93
4884.00,0.93
4883.00,0.93
4882.00,0.93
4881.00,0.93
4880.00,0.94
4879.00,0.94
4878.00,0.94
4877.00,0.94
4876.00,0.94
4875.00,0.94
4874.00,0.94
4873.00,0.94
4872.00,0.94
4871.00,0.94
4870.00,0.94
4869.00,0.94
4868.00,0.94
4867.00,0.94
4866.00,0.94
4865.00,0.94
4864.00,0.94
4863.00,0.94
4862.00,0.94
4861.00,0.94
4860.00,0.94
4859.00,0.94
4858.00,0.94
4857.00,0.94
4856.00,0.94
4855.00,0.94
4854.00,0.94
4853.00,0.94
4852.00,0.94
4851.00,0.94
4850.00,0.94
4849.00,0.95
4848.00,0.95
4847.00,0.95
4846.00,0.95
4845.00,0.95
4844.00,0.95
4843.00,0.95
4842.00,0.95
4841.00,0.95
4840.00,0.95
4839.00,0.95
4838.00,0.95
4837.00,0.95
4836.00,0.95
4835.00,0.95
4834.00,0.95
4833.00,0.95
4832.00,0.95
4831.00,0.95
4830.00,0.96
4829.00,0.96
4828.00,0.96
4827.00,0.96
4826.00,0.96
4825.00,0.96
4824.00,0.96
4823.00,0.97
4822.00,0.97
4821.00,0.97
4820.00,0.97
4819.00,0.97
4818.00,0.97
4817.00,0.97
4816.00,0.97
4815.00,0.97
4814.00,0.97
4813.00,0.97
4812.00,0.97
4811.00,0.97
4810.00,0.97
4809.00,0.97
4808.00,0.97
4807.00,0.97
4806.00,0.97
4805.00,0.97
4804.00,0.97
4803.00,0.97
4802.00,0.97
4801.00,0.97
4800.00,0.97
4799.00,0.98
4798.00,0.98
4797.00,0.98
4796.00,0.98
4795.00,0.98
4794.00,0.98
4793.00,0.98
4792.00,0.98
4791.00,0.98
4790.00,0.98
4789.00,0.99
4788.00,0.99
4787.00,0.99
4786.00,0.99
4785.00,0.99
4784.00,0.99
4783.00,0.99
4782.00,1.00
4781.00,1.00
4780.00,1.00
4779.00,1.00
4778.00,1.00
4777.00,1.00
4776.00,1.00
4775.00,1.00
4774.00,1.00
4773.00,1.00
4772.00,1.01
4771.00,1.01
4770.00,1.01
4769.00,1.01
4768.00,1.01
4767.00,1.01
4766.00,1.01
4765.00,1.02
4764.00,1.02
4763.00,1.02
4762.00,1.02
4761.00,1.02
4760.00,1.02
4759.00,1.02
4758.00,1.03
4757.00,1.03
4756.00,1.03
4755.00,1.03
4754.00,1.03
4753.00,1.03
4752.00,1.03
4751.00,1.03
4750.00,1.03
4749.00,1.03
4748.00,1.03
4747.00,1.03
4746.00,1.03
4745.00,1.03
4744.00,1.03
4743.00,1.03
4742.00,1.03
4741.00,1.03
4740.00,1.03
4739.00,1.03
4738.00,1.03
4737.00,1.03
4736.00,1.03
4735.00,1.03
4734.00,1.03
4733.00,1.03
4732.00,1.03
4731.00,1.03
4730.00,1.03
4729.00,1.03
4728.00,1.03
4727.00,1.03
4726.00,1.03
4725.00,1.04
4724.00,1.04
4723.00,1.04
4722.00,1.04
4721.00,1.04
4720.00,1.04
4719.00,1.04
4718.00,1.05
4717.00,1.05
4716.00,1.05
4715.00,1.05
4714.00,1.05
4713.00,1.05
4712.00,1.06
4711.00,1.06
4710.00,1.06
4709.00,1.06
4708.00,1.06
4707.00,1.06
4706.00,1.06
4705.00,1.06
4704.00,1.06
4703.00,1.06
4702.00,1.06
4701.00,1.06
4700.00,1.07
4699.00,1.07
4698.00,1.07
4697.00,1.07
4696.00,1.07
4695.00,1.07
4694.00,1.07
4693.00,1.07
4692.00,1.07
4691.00,1.07
4690.00,1.07
4689.00,1.07
4688.00,1.07
4687.00,1.07
4686.00,1.07
4685.00,1.07
4684.00,1.07
4683.00,1.08
4682.00,1.08
4681.00,1.08
4680.00,1.08
4679.00,1.08
4678.00,1.09
4677.00,1.09
4676.00,1.09
4675.00,1.09
4674.00,1.09
4673.00,1.09
4672.00,1.10
4671.00,1.10
4670.00,1.10
4669.00,1.10
4668.00,1.10
4667.00,1.10
4666.00,1.10
4665.00,1.10
4664.00,1.11
4663.00,1.11
4662.00,1.11
4661.00,1.11
4660.00,1.11
4659.00,1.11
4658.00,1.11
4657.00,1.11
4656.00,1.11
4655.00,1.11
4654.00,1.11
4653.00,1.12
4652.00,1.12
4651.00,1.12
4650.00,1.12
4649.00,1.12
4648.00,1.12
4647.00,1.12
4646.00,1.12
4645.00,1.12
4644.00,1.12
4643.00,1.12
4642.00,1.12
4641.00,1.12
4640.00,1.12
4639.00,1.12
4638.00,1.12
4637.00,1.12
4636.00,1.12
4635.00,1.12
4634.00,1.12
4633.00,1.12
4632.00,1.12
4631.00,1.12
4630.00,1.12
4629.00,1.13
4628.00,1.13
4627.00,1.13
4626.00,1.13
4625.00,1.13
4624.00,1.13
4623.00,1.13
4622.00,1.13
4621.00,1.13
4620.00,1.13
4619.00,1.13
4618.00,1.13
4617.00,1.13
4616.00,1.13
4615.00,1.13
4614.00,1.13
4613.00,1.13
4612.00,1.13
4611.00,1.14
4610.00,1.14
4609.00,1.14
4608.00,1.14
4607.00,1.14
4606.00,1.14
4605.00,1.14
4604.00,1.14
4603.00,1.14
4602.00,1.14
4601.00,1.14
4600.00,1.14
4599.00,1.15
4598.00,1.15
4597.00,1.15
4596.00,1.15
4595.00,1.15
4594.00,1.15
4593.00,1.15
4592.00,1.15
4591.00,1.15
4590.00,1.16
4589.00,1.16
4588.00,1.16
4587.00,1.16
4586.00,1.16
4585.00,1.16
4584.00,1.16
4583.00,1.16
4582.00,1.16
4581.00,1.16
4580.00,1.16
4579.00,1.17
4578.00,1.17
4577.00,1.17
4576.00,1.17
4575.00,1.17
4574.00,1.17
4573.00,1.17
4572.00,1.17
4571.00,1.17
4570.00,1.17
4569.00,1.17
4568.00,1.17
4567.00,1.17
4566.00,1.17
4565.00,1.17
4564.00,1.17
4563.00,1.17
4562.00,1.17
4561.00,1.17
4560.00,1.17
4559.00,1.17
4558.00,1.17
4557.00,1.17
4556.00,1.17
4555.00,1.17
4554.00,1.18
4553.00,1.18
4552.00,1.18
4551.00,1.18
4550.00,1.18
4549.00,1.18
4548.00,1.18
4547.00,1.18
4546.00,1.18
4545.00,1.18
4544.00,1.18
4543.00,1.18
4542.00,1.19
4541.00,1.19
4540.00,1.19
4539.00,1.19
4538.00,1.19
4537.00,1.19
4536.00,1.19
4535.00,1.19
4534.00,1.19
4533.00,1.19
4532.00,1.20
4531.00,1.20
4530.00,1.20
4529.00,1.20
4528.00,1.20
4527.00,1.20
4526.00,1.20
4525.00,1.20
4524.00,1.20
4523.00,1.20
4522.00,1.20
4521.00,1.20
4520.00,1.20
4519.00,1.20
4518.00,1.20
4517.00,1.20
4516.00,1.20
4515.00,1.20
4514.00,1.20
4513.00,1.20
4512.00,1.20
4511.00,1.20
4510.00,1.20
4509.00,1.20
4508.00,1.20
4507.00,1.20
4506.00,1.20
4505.00,1.20
4504.00,1.20
4503.00,1.20
4502.00,1.20
4501.00,1.20
4500.00,1.20
4499.00,1.19
4498.00,1.19
4497.00,1.19
4496.00,1.19
4495.00,1.19
4494.00,1.19
4493.00,1.19
4492.00,1.19
4491.00,1.19
4490.00,1.19
4489.00,1.19
4488.00,1.19
4487.00,1.19
4486.00,1.19
4485.00,1.19
4484.00,1.19
4483.00,1.19
4482.00,1.19
4481.00,1.19
4480.00,1.19
4479.00,1.19
4478.00,1.19
4477.00,1.19
4476.00,1.19
4475.00,1.19
4474.00,1.19
4473.00,1.19
4472.00,1.19
4471.00,1.18
4470.00,1.18
4469.00,1.18
4468.00,1.18
4467.00,1.18
4466.00,1.18
4465.00,1.18
4464.00,1.18
4463.00,1.17
4462.00,1.17
4461.00,1.17
4460.00,1.17
4459.00,1.17
4458.00,1.17
4457.00,1.17
4456.00,1.16
4455.00,1.16
4454.00,1.16
4453.00,1.16
4452.00,1.16
4451.00,1.16
4450.00,1.15
4449.00,1.15
4448.00,1.15
4447.00,1.15
4446.00,1.15
4445.00,1.14
4444.00,1.14
4443.00,1.14
4442.00,1.14
4441.00,1.14
4440.00,1.13
4439.00,1.13
4438.00,1.13
4437.00,1.13
4436.00,1.13
4435.00,1.13
4434.00,1.13
4433.00,1.13
4432.00,1.13
4431.00,1.13
4430.00,1.13
4429.00,1.13
4428.00,1.13
4427.00,1.13
4426.00,1.13
4425.00,1.13
4424.00,1.13
4423.00,1.13
4422.00,1.13
4421.00,1.13
4420.00,1.13
4419.00,1.13
4418.00,1.13
4417.00,1.13
4416.00,1.13
4415.00,1.13
4414.00,1.13
4413.00,1.13
4412.00,1.13
4411.00,1.13
4410.00,1.13
4409.00,1.13
4408.00,1.13
4407.00,1.13
4406.00,1.13
4405.00,1.14
4404.00,1.14
4403.00,1.14
4402.00,1.14
4401.00,1.14
4400.00,1.14
4399.00,1.14
4398.00,1.14
4397.00,1.14
4396.00,1.14
4395.00,1.14
4394.00,1.15
4393.00,1.15
4392.00,1.15
4391.00,1.15
4390.00,1.15
4389.00,1.15
4388.00,1.15
4387.00,1.15
4386.00,1.15
4385.00,1.16
4384.00,1.16
4383.00,1.16
4382.00,1.16
4381.00,1.16
4380.00,1.16
4379.00,1.16
4378.00,1.16
4377.00,1.16
4376.00,1.16
4375.00,1.16
4374.00,1.16
4373.00,1.16
4372.00,1.16
4371.00,1.16
4370.00,1.16
4369.00,1.16
4368.00,1.16
4367.00,1.16
4366.00,1.16
4365.00,1.16
4364.00,1.16
4363.00,1.16
4362.00,1.16
4361.00,1.16
4360.00,1.16
4359.00,1.16
4358.00,1.16
4357.00,1.16
4356.00,1.16
4355.00,1.16
4354.00,1.16
4353.00,1.16
4352.00,1.16
4351.00,1.16
4350.00,1.16
4349.00,1.16
4348.00,1.17
4347.00,1.17
4346.00,1.17
4345.00,1.17
4344.00,1.17
4343.00,1.17
4342.00,1.17
4341.00,1.17
4340.00,1.17
4339.00,1.17
4338.00,1.18
4337.00,1.18
4336.00,1.18
4335.00,1.18
4334.00,1.18
4333.00,1.18
4332.00,1.18
4331.00,1.18
4330.00,1.18
4329.00,1.18
4328.00,1.18
4327.00,1.18
4326.00,1.18
4325.00,1.18
4324.00,1.18
4323.00,1.18
4322.00,1.18
4321.00,1.18
4320.00,1.18
4319.00,1.18
4318.00,1.18
4317.00,1.18
4316.00,1.18
4315.00,1.18
4314.00,1.18
4313.00,1.18
4312.00,1.18
4311.00,1.18
4310.00,1.19
4309.00,1.19
4308.00,1.19
4307.00,1.19
4306.00,1.19
4305.00,1.19
4304.00,1.19
4303.00,1.19
4302.00,1.19
4301.00,1.19
4300.00,1.19
4299.00,1.19
4298.00,1.19
4297.00,1.19
4296.00,1.19
4295.00,1.20
4294.00,1.20
4293.00,1.20
4292.00,1.20
4291.00,1.20
4290.00,1.20
4289.00,1.20
4288.00,1.20
4287.00,1.20
4286.00,1.20
4285.00,1.20
4284.00,1.20
4283.00,1.21
4282.00,1.21
4281.00,1.21
4280.00,1.21
4279.00,1.21
4278.00,1.22
4277.00,1.22
4276.00,1.22
4275.00,1.22
4274.00,1.22
4273.00,1.23
4272.00,1.23
4271.00,1.23
4270.00,1.23
4269.00,1.23
4268.00,1.23
4267.00,1.23
4266.00,1.23
4265.00,1.24
4264.00,1.24
4263.00,1.24
4262.00,1.24
4261.00,1.24
4260.00,1.24
4259.00,1.24
4258.00,1.24
4257.00,1.24
4256.00,1.24
4255.00,1.24
4254.00,1.24
4253.00,1.24
4252.00,1.24
4251.00,1.24
4250.00,1.24
4249.00,1.24
4248.00,1.24
4247.00,1.24
4246.00,1.24
4245.00,1.24
4244.00,1.24
4243.00,1.24
4242.00,1.24
4241.00,1.24
4240.00,1.24
4239.00,1.24
4238.00,1.24
4237.00,1.24
4236.00,1.24
4235.00,1.24
4234.00,1.24
4233.00,1.24
4232.00,1.24
4231.00,1.24
4230.00,1.24
4229.00,1.24
4228.00,1.24
4227.00,1.24
4226.00,1.24
4225.00,1.24
4224.00,1.24
4223.00,1.24
4222.00,1.24
4221.00,1.24
4220.00,1.24
4219.00,1.24
4218.00,1.24
4217.00,1.24
4216.00,1.24
4215.00,1.24
4214.00,1.25
4213.00,1.25
4212.00,1.25
4211.00,1.25
4210.00,1.25
4209.00,1.25
4208.00,1.25
4207.00,1.25
4206.00,1.25
4205.00,1.25
4204.00,1.25
4203.00,1.25
4202.00,1.25
4201.00,1.25
4200.00,1.26
4199.00,1.26
4198.00,1.26
4197.00,1.26
4196.00,1.26
4195.00,1.26
4194.00,1.26
4193.00,1.26
4192.00,1.26
4191.00,1.26
4190.00,1.26
4189.00,1.26
4188.00,1.27
4187.00,1.27
4186.00,1.27
4185.00,1.27
4184.00,1.27
4183.00,1.27
4182.00,1.27
4181.00,1.27
4180.00,1.27
4179.00,1.28
4178.00,1.28
4177.00,1.28
4176.00,1.28
4175.00,1.28
4174.00,1.28
4173.00,1.28
4172.00,1.28
4171.00,1.28
4170.00,1.28
4169.00,1.28
4168.00,1.28
4167.00,1.28
4166.00,1.28
4165.00,1.28
4164.00,1.28
4163.00,1.28
4162.00,1.28
4161.00,1.28
4160.00,1.28
4159.00,1.28
4158.00,1.28
4157.00,1.28
4156.00,1.28
4155.00,1.28
4154.00,1.28
4153.00,1.28
4152.00,1.28
4151.00,1.28
4150.00,1.28
4149.00,1.28
4148.00,1.28
4147.00,1.28
4146.00,1.28
4145.00,1.28
4144.00,1.28
4143.00,1.28
4142.00,1.28
4141.00,1.28
4140.00,1.28
4139.00,1.28
4138.00,1.28
4137.00,1.28
4136.00,1.28
4135.00,1.28
4134.00,1.28
4133.00,1.28
4132.00,1.28
4131.00,1.28
4130.00,1.28
4129.00,1.28
4128.00,1.28
4127.00,1.28
4126.00,1.28
4125.00,1.28
4124.00,1.28
4123.00,1.28
4122.00,1.28
4121.00,1.28
4120.00,1.28
4119.00,1.29
4118.00,1.29
4117.00,1.29
4116.00,1.29
4115.00,1.29
4114.00,1.29
4113.00,1.29
4112.00,1.29
4111.00,1.29
4110.00,1.30
4109.00,1.30
4108.00,1.30
4107.00,1.30
4106.00,1.30
4105.00,1.30
4104.00,1.30
4103.00,1.30
4102.00,1.31
4101.00,1.31
4100.00,1.31
4099.00,1.31
4098.00,1.31
4097.00,1.31
4096.00,1.31
4095.00,1.32
4094.00,1.32
4093.00,1.32
4092.00,1.32
4091.00,1.32
4090.00,1.32
4089.00,1.32
4088.00,1.32
4087.00,1.32
4086.00,1.32
4085.00,1.32
4084.00,1.32
4083.00,1.32
4082.00,1.32
4081.00,1.32
4080.00,1.32
4079.00,1.32
4078.00,1.32
4077.00,1.32
4076.00,1.32
4075.00,1.32
4074.00,1.32
4073.00,1.32
4072.00,1.32
4071.00,1.32
4070.00,1.32
4069.00,1.32
4068.00,1.32
4067.00,1.32
4066.00,1.32
4065.00,1.32
4064.00,1.32
4063.00,1.32
4062.00,1.32
4061.00,1.32
4060.00,1.32
4059.00,1.32
4058.00,1.32
4057.00,1.32
4056.00,1.32
4055.00,1.32
4054.00,1.32
4053.00,1.32
4052.00,1.33
4051.00,1.33
4050.00,1.33
4049.00,1.33
4048.00,1.33
4047.00,1.33
4046.00,1.33
4045.00,1.33
4044.00,1.33
4043.00,1.33
4042.00,1.33
4041.00,1.33
4040.00,1.33
4039.00,1.33
4038.00,1.33
4037.00,1.33
4036.00,1.33
4035.00,1.33
4034.00,1.33
4033.00,1.33
4032.00,1.33
4031.00,1.33
4030.00,1.33
4029.00,1.33
4028.00,1.33
4027.00,1.33
4026.00,1.33
4025.00,1.34
4024.00,1.34
4023.00,1.34
4022.00,1.33
4021.00,1.33
4020.00,1.33
4019.00,1.33
4018.00,1.33
4017.00,1.33
4016.00,1.33
4015.00,1.33
4014.00,1.33
4013.00,1.33
4012.00,1.33
4011.00,1.33
4010.00,1.33
4009.00,1.33
4008.00,1.33
4007.00,1.33
4006.00,1.33
4005.00,1.33
4004.00,1.34
4003.00,1.34
4002.00,1.34
4001.00,1.35
4000.00,1.35
