创建为新数据集,样品 288 用户 Administrator 日期 星期日, 七月 22 2018
cm-1,%T
10000.00,1.35
9999.00,1.34
9998.00,1.34
9997.00,1.34
9996.00,1.34
9995.00,1.34
9994.00,1.34
9993.00,1.34
9992.00,1.34
9991.00,1.34
9990.00,1.34
9989.00,1.34
9988.00,1.34
9987.00,1.34
9986.00,1.34
9985.00,1.34
9984.00,1.34
9983.00,1.34
9982.00,1.34
9981.00,1.34
9980.00,1.34
9979.00,1.34
9978.00,1.34
9977.00,1.34
9976.00,1.34
9975.00,1.34
9974.00,1.34
9973.00,1.34
9972.00,1.34
9971.00,1.34
9970.00,1.34
9969.00,1.33
9968.00,1.33
9967.00,1.33
9966.00,1.33
9965.00,1.33
9964.00,1.33
9963.00,1.33
9962.00,1.33
9961.00,1.33
9960.00,1.33
9959.00,1.33
9958.00,1.33
9957.00,1.33
9956.00,1.33
9955.00,1.33
9954.00,1.33
9953.00,1.33
9952.00,1.33
9951.00,1.33
9950.00,1.33
9949.00,1.33
9948.00,1.33
9947.00,1.33
9946.00,1.33
9945.00,1.33
9944.00,1.33
9943.00,1.33
9942.00,1.33
9941.00,1.33
9940.00,1.33
9939.00,1.33
9938.00,1.33
9937.00,1.33
9936.00,1.33
9935.00,1.34
9934.00,1.34
9933.00,1.34
9932.00,1.34
9931.00,1.34
9930.00,1.34
9929.00,1.35
9928.00,1.35
9927.00,1.35
9926.00,1.35
9925.00,1.35
9924.00,1.36
9923.00,1.36
9922.00,1.36
9921.00,1.36
9920.00,1.35
9919.00,1.35
9918.00,1.35
9917.00,1.35
9916.00,1.34
9915.00,1.34
9914.00,1.33
9913.00,1.33
9912.00,1.32
9911.00,1.32
9910.00,1.32
9909.00,1.31
9908.00,1.31
9907.00,1.31
9906.00,1.31
9905.00,1.30
9904.00,1.30
9903.00,1.30
9902.00,1.30
9901.00,1.30
9900.00,1.31
9899.00,1.31
9898.00,1.31
9897.00,1.31
9896.00,1.32
9895.00,1.32
9894.00,1.32
9893.00,1.32
9892.00,1.33
9891.00,1.33
9890.00,1.33
9889.00,1.33
9888.00,1.33
9887.00,1.34
9886.00,1.34
9885.00,1.34
9884.00,1.34
9883.00,1.34
9882.00,1.34
9881.00,1.34
9880.00,1.34
9879.00,1.34
9878.00,1.34
9877.00,1.34
9876.00,1.34
9875.00,1.34
9874.00,1.34
9873.00,1.34
9872.00,1.34
9871.00,1.34
9870.00,1.34
9869.00,1.33
9868.00,1.33
9867.00,1.33
9866.00,1.33
9865.00,1.33
9864.00,1.32
9863.00,1.32
9862.00,1.32
9861.00,1.32
9860.00,1.32
9859.00,1.32
9858.00,1.32
9857.00,1.32
9856.00,1.32
9855.00,1.32
9854.00,1.32
9853.00,1.32
9852.00,1.33
9851.00,1.33
9850.00,1.33
9849.00,1.33
9848.00,1.34
9847.00,1.34
9846.00,1.34
9845.00,1.34
9844.00,1.34
9843.00,1.34
9842.00,1.34
9841.00,1.34
9840.00,1.34
9839.00,1.34
9838.00,1.34
9837.00,1.34
9836.00,1.34
9835.00,1.33
9834.00,1.33
9833.00,1.33
9832.00,1.33
9831.00,1.33
9830.00,1.32
9829.00,1.32
9828.00,1.32
9827.00,1.32
9826.00,1.32
9825.00,1.32
9824.00,1.31
9823.00,1.31
9822.00,1.31
9821.00,1.31
9820.00,1.31
9819.00,1.31
9818.00,1.30
9817.00,1.30
9816.00,1.30
9815.00,1.31
9814.00,1.31
9813.00,1.31
9812.00,1.31
9811.00,1.31
9810.00,1.32
9809.00,1.32
9808.00,1.32
9807.00,1.33
9806.00,1.33
9805.00,1.33
9804.00,1.33
9803.00,1.34
9802.00,1.34
9801.00,1.34
9800.00,1.34
9799.00,1.34
9798.00,1.34
9797.00,1.34
9796.00,1.34
9795.00,1.34
9794.00,1.33
9793.00,1.33
9792.00,1.33
9791.00,1.33
9790.00,1.32
9789.00,1.32
9788.00,1.32
9787.00,1.32
9786.00,1.31
9785.00,1.31
9784.00,1.31
9783.00,1.31
9782.00,1.31
9781.00,1.31
9780.00,1.31
9779.00,1.30
9778.00,1.30
9777.00,1.30
9776.00,1.30
9775.00,1.30
9774.00,1.30
9773.00,1.30
9772.00,1.30
9771.00,1.30
9770.00,1.30
9769.00,1.30
9768.00,1.30
9767.00,1.30
9766.00,1.30
9765.00,1.30
9764.00,1.30
9763.00,1.30
9762.00,1.30
9761.00,1.30
9760.00,1.30
9759.00,1.30
9758.00,1.30
9757.00,1.30
9756.00,1.31
9755.00,1.31
9754.00,1.31
9753.00,1.31
9752.00,1.31
9751.00,1.31
9750.00,1.31
9749.00,1.32
9748.00,1.32
9747.00,1.32
9746.00,1.32
9745.00,1.32
9744.00,1.32
9743.00,1.33
9742.00,1.33
9741.00,1.33
9740.00,1.33
9739.00,1.33
9738.00,1.33
9737.00,1.33
9736.00,1.33
9735.00,1.34
9734.00,1.34
9733.00,1.34
9732.00,1.34
9731.00,1.33
9730.00,1.33
9729.00,1.33
9728.00,1.33
9727.00,1.33
9726.00,1.33
9725.00,1.33
9724.00,1.33
9723.00,1.33
9722.00,1.33
9721.00,1.33
9720.00,1.33
9719.00,1.33
9718.00,1.32
9717.00,1.32
9716.00,1.32
9715.00,1.32
9714.00,1.32
9713.00,1.32
9712.00,1.32
9711.00,1.32
9710.00,1.32
9709.00,1.32
9708.00,1.32
9707.00,1.32
9706.00,1.32
9705.00,1.32
9704.00,1.32
9703.00,1.32
9702.00,1.31
9701.00,1.31
9700.00,1.31
9699.00,1.31
9698.00,1.31
9697.00,1.31
9696.00,1.31
9695.00,1.30
9694.00,1.30
9693.00,1.30
9692.00,1.30
9691.00,1.30
9690.00,1.30
9689.00,1.30
9688.00,1.30
9687.00,1.30
9686.00,1.30
9685.00,1.31
9684.00,1.31
9683.00,1.31
9682.00,1.31
9681.00,1.31
9680.00,1.32
9679.00,1.32
9678.00,1.32
9677.00,1.32
9676.00,1.32
9675.00,1.33
9674.00,1.33
9673.00,1.33
9672.00,1.33
9671.00,1.33
9670.00,1.33
9669.00,1.32
9668.00,1.32
9667.00,1.32
9666.00,1.32
9665.00,1.32
9664.00,1.32
9663.00,1.31
9662.00,1.31
9661.00,1.31
9660.00,1.31
9659.00,1.31
9658.00,1.31
9657.00,1.31
9656.00,1.31
9655.00,1.30
9654.00,1.30
9653.00,1.30
9652.00,1.30
9651.00,1.30
9650.00,1.30
9649.00,1.30
9648.00,1.30
9647.00,1.30
9646.00,1.30
9645.00,1.30
9644.00,1.30
9643.00,1.30
9642.00,1.30
9641.00,1.30
9640.00,1.30
9639.00,1.31
9638.00,1.31
9637.00,1.31
9636.00,1.31
9635.00,1.31
9634.00,1.31
9633.00,1.31
9632.00,1.31
9631.00,1.31
9630.00,1.31
9629.00,1.31
9628.00,1.31
9627.00,1.31
9626.00,1.31
9625.00,1.31
9624.00,1.31
9623.00,1.31
9622.00,1.30
9621.00,1.30
9620.00,1.30
9619.00,1.30
9618.00,1.30
9617.00,1.30
9616.00,1.29
9615.00,1.29
9614.00,1.29
9613.00,1.29
9612.00,1.29
9611.00,1.29
9610.00,1.29
9609.00,1.29
9608.00,1.30
9607.00,1.30
9606.00,1.30
9605.00,1.30
9604.00,1.30
9603.00,1.30
9602.00,1.31
9601.00,1.31
9600.00,1.31
9599.00,1.31
9598.00,1.31
9597.00,1.31
9596.00,1.31
9595.00,1.31
9594.00,1.31
9593.00,1.31
9592.00,1.31
9591.00,1.31
9590.00,1.30
9589.00,1.30
9588.00,1.30
9587.00,1.30
9586.00,1.30
9585.00,1.29
9584.00,1.29
9583.00,1.29
9582.00,1.29
9581.00,1.29
9580.00,1.29
9579.00,1.29
9578.00,1.29
9577.00,1.29
9576.00,1.29
9575.00,1.29
9574.00,1.30
9573.00,1.30
9572.00,1.30
9571.00,1.30
9570.00,1.30
9569.00,1.31
9568.00,1.31
9567.00,1.31
9566.00,1.31
9565.00,1.31
9564.00,1.31
9563.00,1.31
9562.00,1.31
9561.00,1.32
9560.00,1.32
9559.00,1.32
9558.00,1.32
9557.00,1.32
9556.00,1.32
9555.00,1.32
9554.00,1.32
9553.00,1.32
9552.00,1.32
9551.00,1.32
9550.00,1.32
9549.00,1.32
9548.00,1.32
9547.00,1.32
9546.00,1.32
9545.00,1.32
9544.00,1.32
9543.00,1.32
9542.00,1.32
9541.00,1.31
9540.00,1.31
9539.00,1.31
9538.00,1.31
9537.00,1.31
9536.00,1.31
9535.00,1.31
9534.00,1.31
9533.00,1.31
9532.00,1.31
9531.00,1.31
9530.00,1.32
9529.00,1.32
9528.00,1.32
9527.00,1.32
9526.00,1.32
9525.00,1.33
9524.00,1.33
9523.00,1.33
9522.00,1.33
9521.00,1.33
9520.00,1.34
9519.00,1.34
9518.00,1.34
9517.00,1.34
9516.00,1.34
9515.00,1.34
9514.00,1.34
9513.00,1.34
9512.00,1.34
9511.00,1.34
9510.00,1.34
9509.00,1.34
9508.00,1.34
9507.00,1.34
9506.00,1.34
9505.00,1.34
9504.00,1.34
9503.00,1.34
9502.00,1.34
9501.00,1.34
9500.00,1.34
9499.00,1.34
9498.00,1.34
9497.00,1.34
9496.00,1.34
9495.00,1.34
9494.00,1.34
9493.00,1.34
9492.00,1.34
9491.00,1.34
9490.00,1.34
9489.00,1.34
9488.00,1.34
9487.00,1.34
9486.00,1.34
9485.00,1.34
9484.00,1.34
9483.00,1.34
9482.00,1.34
9481.00,1.34
9480.00,1.34
9479.00,1.34
9478.00,1.34
9477.00,1.34
9476.00,1.34
9475.00,1.34
9474.00,1.34
9473.00,1.34
9472.00,1.34
9471.00,1.34
9470.00,1.34
9469.00,1.34
9468.00,1.33
9467.00,1.33
9466.00,1.33
9465.00,1.32
9464.00,1.32
9463.00,1.32
9462.00,1.32
9461.00,1.31
9460.00,1.31
9459.00,1.31
9458.00,1.30
9457.00,1.30
9456.00,1.30
9455.00,1.30
9454.00,1.30
9453.00,1.30
9452.00,1.30
9451.00,1.30
9450.00,1.30
9449.00,1.30
9448.00,1.30
9447.00,1.30
9446.00,1.30
9445.00,1.30
9444.00,1.30
9443.00,1.30
9442.00,1.30
9441.00,1.30
9440.00,1.30
9439.00,1.30
9438.00,1.30
9437.00,1.30
9436.00,1.30
9435.00,1.30
9434.00,1.31
9433.00,1.31
9432.00,1.31
9431.00,1.31
9430.00,1.31
9429.00,1.31
9428.00,1.31
9427.00,1.31
9426.00,1.31
9425.00,1.31
9424.00,1.31
9423.00,1.31
9422.00,1.31
9421.00,1.31
9420.00,1.31
9419.00,1.31
9418.00,1.31
9417.00,1.31
9416.00,1.31
9415.00,1.31
9414.00,1.31
9413.00,1.30
9412.00,1.30
9411.00,1.30
9410.00,1.30
9409.00,1.30
9408.00,1.30
9407.00,1.30
9406.00,1.30
9405.00,1.30
9404.00,1.30
9403.00,1.30
9402.00,1.30
9401.00,1.30
9400.00,1.30
9399.00,1.30
9398.00,1.30
9397.00,1.30
9396.00,1.30
9395.00,1.30
9394.00,1.31
9393.00,1.31
9392.00,1.31
9391.00,1.31
9390.00,1.31
9389.00,1.31
9388.00,1.31
9387.00,1.31
9386.00,1.31
9385.00,1.31
9384.00,1.31
9383.00,1.31
9382.00,1.31
9381.00,1.31
9380.00,1.31
9379.00,1.31
9378.00,1.31
9377.00,1.31
9376.00,1.32
9375.00,1.32
9374.00,1.32
9373.00,1.32
9372.00,1.32
9371.00,1.32
9370.00,1.32
9369.00,1.32
9368.00,1.32
9367.00,1.32
9366.00,1.32
9365.00,1.32
9364.00,1.32
9363.00,1.33
9362.00,1.33
9361.00,1.33
9360.00,1.33
9359.00,1.33
9358.00,1.33
9357.00,1.32
9356.00,1.32
9355.00,1.32
9354.00,1.32
9353.00,1.32
9352.00,1.32
9351.00,1.31
9350.00,1.31
9349.00,1.31
9348.00,1.31
9347.00,1.31
9346.00,1.31
9345.00,1.30
9344.00,1.30
9343.00,1.30
9342.00,1.30
9341.00,1.30
9340.00,1.30
9339.00,1.30
9338.00,1.30
9337.00,1.31
9336.00,1.31
9335.00,1.31
9334.00,1.31
9333.00,1.31
9332.00,1.31
9331.00,1.32
9330.00,1.32
9329.00,1.32
9328.00,1.32
9327.00,1.32
9326.00,1.32
9325.00,1.32
9324.00,1.32
9323.00,1.32
9322.00,1.32
9321.00,1.32
9320.00,1.32
9319.00,1.32
9318.00,1.32
9317.00,1.32
9316.00,1.31
9315.00,1.31
9314.00,1.31
9313.00,1.31
9312.00,1.30
9311.00,1.30
9310.00,1.30
9309.00,1.30
9308.00,1.30
9307.00,1.30
9306.00,1.30
9305.00,1.30
9304.00,1.30
9303.00,1.30
9302.00,1.30
9301.00,1.30
9300.00,1.30
9299.00,1.30
9298.00,1.31
9297.00,1.31
9296.00,1.31
9295.00,1.31
9294.00,1.31
9293.00,1.31
9292.00,1.31
9291.00,1.31
9290.00,1.31
9289.00,1.31
9288.00,1.31
9287.00,1.31
9286.00,1.31
9285.00,1.31
9284.00,1.31
9283.00,1.31
9282.00,1.31
9281.00,1.31
9280.00,1.31
9279.00,1.31
9278.00,1.31
9277.00,1.31
9276.00,1.31
9275.00,1.31
9274.00,1.31
9273.00,1.31
9272.00,1.31
9271.00,1.31
9270.00,1.31
9269.00,1.31
9268.00,1.31
9267.00,1.31
9266.00,1.31
9265.00,1.31
9264.00,1.31
9263.00,1.31
9262.00,1.31
9261.00,1.31
9260.00,1.31
9259.00,1.31
9258.00,1.31
9257.00,1.31
9256.00,1.31
9255.00,1.31
9254.00,1.31
9253.00,1.31
9252.00,1.31
9251.00,1.31
9250.00,1.30
9249.00,1.30
9248.00,1.30
9247.00,1.30
9246.00,1.30
9245.00,1.30
9244.00,1.30
9243.00,1.30
9242.00,1.30
9241.00,1.30
9240.00,1.30
9239.00,1.30
9238.00,1.30
9237.00,1.30
9236.00,1.30
9235.00,1.30
9234.00,1.30
9233.00,1.30
9232.00,1.30
9231.00,1.30
9230.00,1.30
9229.00,1.30
9228.00,1.30
9227.00,1.30
9226.00,1.30
9225.00,1.30
9224.00,1.30
9223.00,1.30
9222.00,1.30
9221.00,1.31
9220.00,1.31
9219.00,1.31
9218.00,1.31
9217.00,1.31
9216.00,1.31
9215.00,1.31
9214.00,1.31
9213.00,1.31
9212.00,1.31
9211.00,1.31
9210.00,1.31
9209.00,1.31
9208.00,1.31
9207.00,1.31
9206.00,1.31
9205.00,1.31
9204.00,1.32
9203.00,1.32
9202.00,1.32
9201.00,1.32
9200.00,1.32
9199.00,1.32
9198.00,1.32
9197.00,1.32
9196.00,1.32
9195.00,1.32
9194.00,1.32
9193.00,1.32
9192.00,1.32
9191.00,1.32
9190.00,1.32
9189.00,1.32
9188.00,1.32
9187.00,1.33
9186.00,1.33
9185.00,1.33
9184.00,1.33
9183.00,1.33
9182.00,1.33
9181.00,1.34
9180.00,1.34
9179.00,1.34
9178.00,1.34
9177.00,1.34
9176.00,1.34
9175.00,1.34
9174.00,1.34
9173.00,1.34
9172.00,1.34
9171.00,1.34
9170.00,1.34
9169.00,1.34
9168.00,1.34
9167.00,1.33
9166.00,1.33
9165.00,1.33
9164.00,1.33
9163.00,1.33
9162.00,1.33
9161.00,1.33
9160.00,1.33
9159.00,1.33
9158.00,1.33
9157.00,1.33
9156.00,1.33
9155.00,1.33
9154.00,1.33
9153.00,1.33
9152.00,1.33
9151.00,1.33
9150.00,1.33
9149.00,1.33
9148.00,1.34
9147.00,1.34
9146.00,1.34
9145.00,1.34
9144.00,1.34
9143.00,1.34
9142.00,1.34
9141.00,1.34
9140.00,1.34
9139.00,1.34
9138.00,1.34
9137.00,1.34
9136.00,1.34
9135.00,1.34
9134.00,1.34
9133.00,1.34
9132.00,1.34
9131.00,1.34
9130.00,1.34
9129.00,1.34
9128.00,1.34
9127.00,1.33
9126.00,1.33
9125.00,1.33
9124.00,1.33
9123.00,1.33
9122.00,1.33
9121.00,1.32
9120.00,1.32
9119.00,1.32
9118.00,1.32
9117.00,1.32
9116.00,1.32
9115.00,1.32
9114.00,1.32
9113.00,1.32
9112.00,1.32
9111.00,1.32
9110.00,1.32
9109.00,1.32
9108.00,1.32
9107.00,1.32
9106.00,1.32
9105.00,1.32
9104.00,1.32
9103.00,1.32
9102.00,1.31
9101.00,1.31
9100.00,1.31
9099.00,1.31
9098.00,1.31
9097.00,1.31
9096.00,1.31
9095.00,1.31
9094.00,1.31
9093.00,1.31
9092.00,1.31
9091.00,1.31
9090.00,1.31
9089.00,1.32
9088.00,1.32
9087.00,1.32
9086.00,1.32
9085.00,1.32
9084.00,1.32
9083.00,1.32
9082.00,1.32
9081.00,1.32
9080.00,1.32
9079.00,1.32
9078.00,1.32
9077.00,1.32
9076.00,1.32
9075.00,1.32
9074.00,1.32
9073.00,1.32
9072.00,1.33
9071.00,1.33
9070.00,1.33
9069.00,1.33
9068.00,1.33
9067.00,1.33
9066.00,1.33
9065.00,1.33
9064.00,1.33
9063.00,1.33
9062.00,1.33
9061.00,1.33
9060.00,1.34
9059.00,1.34
9058.00,1.34
9057.00,1.34
9056.00,1.34
9055.00,1.34
9054.00,1.34
9053.00,1.34
9052.00,1.34
9051.00,1.34
9050.00,1.34
9049.00,1.34
9048.00,1.34
9047.00,1.34
9046.00,1.33
9045.00,1.33
9044.00,1.33
9043.00,1.33
9042.00,1.33
9041.00,1.33
9040.00,1.33
9039.00,1.33
9038.00,1.33
9037.00,1.32
9036.00,1.32
9035.00,1.32
9034.00,1.32
9033.00,1.32
9032.00,1.32
9031.00,1.32
9030.00,1.32
9029.00,1.32
9028.00,1.31
9027.00,1.31
9026.00,1.31
9025.00,1.31
9024.00,1.31
9023.00,1.31
9022.00,1.31
9021.00,1.31
9020.00,1.31
9019.00,1.31
9018.00,1.30
9017.00,1.30
9016.00,1.30
9015.00,1.30
9014.00,1.30
9013.00,1.30
9012.00,1.30
9011.00,1.30
9010.00,1.30
9009.00,1.30
9008.00,1.30
9007.00,1.30
9006.00,1.30
9005.00,1.30
9004.00,1.31
9003.00,1.31
9002.00,1.31
9001.00,1.31
9000.00,1.31
8999.00,1.31
8998.00,1.31
8997.00,1.32
8996.00,1.32
8995.00,1.32
8994.00,1.32
8993.00,1.32
8992.00,1.32
8991.00,1.32
8990.00,1.33
8989.00,1.33
8988.00,1.33
8987.00,1.33
8986.00,1.33
8985.00,1.33
8984.00,1.33
8983.00,1.33
8982.00,1.33
8981.00,1.33
8980.00,1.33
8979.00,1.33
8978.00,1.33
8977.00,1.33
8976.00,1.33
8975.00,1.33
8974.00,1.33
8973.00,1.34
8972.00,1.34
8971.00,1.34
8970.00,1.34
8969.00,1.34
8968.00,1.34
8967.00,1.34
8966.00,1.34
8965.00,1.34
8964.00,1.34
8963.00,1.34
8962.00,1.34
8961.00,1.34
8960.00,1.34
8959.00,1.34
8958.00,1.34
8957.00,1.34
8956.00,1.34
8955.00,1.34
8954.00,1.34
8953.00,1.34
8952.00,1.33
8951.00,1.33
8950.00,1.33
8949.00,1.33
8948.00,1.33
8947.00,1.33
8946.00,1.33
8945.00,1.32
8944.00,1.32
8943.00,1.32
8942.00,1.32
8941.00,1.32
8940.00,1.32
8939.00,1.32
8938.00,1.31
8937.00,1.31
8936.00,1.31
8935.00,1.31
8934.00,1.31
8933.00,1.31
8932.00,1.31
8931.00,1.31
8930.00,1.30
8929.00,1.30
8928.00,1.30
8927.00,1.30
8926.00,1.30
8925.00,1.30
8924.00,1.30
8923.00,1.30
8922.00,1.30
8921.00,1.30
8920.00,1.30
8919.00,1.30
8918.00,1.30
8917.00,1.30
8916.00,1.30
8915.00,1.30
8914.00,1.30
8913.00,1.30
8912.00,1.30
8911.00,1.30
8910.00,1.30
8909.00,1.31
8908.00,1.31
8907.00,1.31
8906.00,1.31
8905.00,1.31
8904.00,1.31
8903.00,1.32
8902.00,1.32
8901.00,1.32
8900.00,1.32
8899.00,1.32
8898.00,1.32
8897.00,1.32
8896.00,1.32
8895.00,1.33
8894.00,1.33
8893.00,1.33
8892.00,1.33
8891.00,1.33
8890.00,1.33
8889.00,1.33
8888.00,1.33
8887.00,1.32
8886.00,1.32
8885.00,1.32
8884.00,1.32
8883.00,1.33
8882.00,1.33
8881.00,1.33
8880.00,1.33
8879.00,1.33
8878.00,1.33
8877.00,1.33
8876.00,1.33
8875.00,1.33
8874.00,1.33
8873.00,1.33
8872.00,1.33
8871.00,1.33
8870.00,1.33
8869.00,1.33
8868.00,1.33
8867.00,1.33
8866.00,1.33
8865.00,1.33
8864.00,1.33
8863.00,1.33
8862.00,1.33
8861.00,1.32
8860.00,1.32
8859.00,1.32
8858.00,1.32
8857.00,1.32
8856.00,1.32
8855.00,1.32
8854.00,1.32
8853.00,1.32
8852.00,1.32
8851.00,1.32
8850.00,1.32
8849.00,1.32
8848.00,1.32
8847.00,1.32
8846.00,1.32
8845.00,1.32
8844.00,1.31
8843.00,1.31
8842.00,1.31
8841.00,1.31
8840.00,1.31
8839.00,1.31
8838.00,1.31
8837.00,1.31
8836.00,1.31
8835.00,1.31
8834.00,1.31
8833.00,1.30
8832.00,1.30
8831.00,1.30
8830.00,1.30
8829.00,1.30
8828.00,1.30
8827.00,1.30
8826.00,1.30
8825.00,1.30
8824.00,1.30
8823.00,1.30
8822.00,1.30
8821.00,1.30
8820.00,1.29
8819.00,1.29
8818.00,1.29
8817.00,1.29
8816.00,1.29
8815.00,1.29
8814.00,1.28
8813.00,1.28
8812.00,1.28
8811.00,1.28
8810.00,1.28
8809.00,1.28
8808.00,1.28
8807.00,1.28
8806.00,1.28
8805.00,1.28
8804.00,1.28
8803.00,1.28
8802.00,1.28
8801.00,1.28
8800.00,1.28
8799.00,1.28
8798.00,1.28
8797.00,1.28
8796.00,1.28
8795.00,1.28
8794.00,1.28
8793.00,1.28
8792.00,1.28
8791.00,1.28
8790.00,1.28
8789.00,1.28
8788.00,1.27
8787.00,1.27
8786.00,1.27
8785.00,1.27
8784.00,1.27
8783.00,1.27
8782.00,1.27
8781.00,1.27
8780.00,1.27
8779.00,1.27
8778.00,1.27
8777.00,1.27
8776.00,1.27
8775.00,1.27
8774.00,1.27
8773.00,1.27
8772.00,1.27
8771.00,1.27
8770.00,1.27
8769.00,1.27
8768.00,1.27
8767.00,1.27
8766.00,1.27
8765.00,1.27
8764.00,1.27
8763.00,1.27
8762.00,1.27
8761.00,1.27
8760.00,1.27
8759.00,1.27
8758.00,1.27
8757.00,1.27
8756.00,1.27
8755.00,1.27
8754.00,1.27
8753.00,1.26
8752.00,1.26
8751.00,1.26
8750.00,1.26
8749.00,1.26
8748.00,1.25
8747.00,1.25
8746.00,1.25
8745.00,1.25
8744.00,1.25
8743.00,1.24
8742.00,1.24
8741.00,1.24
8740.00,1.24
8739.00,1.24
8738.00,1.24
8737.00,1.24
8736.00,1.24
8735.00,1.24
8734.00,1.24
8733.00,1.24
8732.00,1.24
8731.00,1.24
8730.00,1.24
8729.00,1.24
8728.00,1.25
8727.00,1.25
8726.00,1.25
8725.00,1.25
8724.00,1.25
8723.00,1.25
8722.00,1.25
8721.00,1.25
8720.00,1.25
8719.00,1.25
8718.00,1.25
8717.00,1.25
8716.00,1.25
8715.00,1.25
8714.00,1.25
8713.00,1.25
8712.00,1.25
8711.00,1.24
8710.00,1.24
8709.00,1.24
8708.00,1.24
8707.00,1.24
8706.00,1.24
8705.00,1.24
8704.00,1.24
8703.00,1.24
8702.00,1.24
8701.00,1.24
8700.00,1.24
8699.00,1.24
8698.00,1.24
8697.00,1.24
8696.00,1.24
8695.00,1.24
8694.00,1.24
8693.00,1.24
8692.00,1.25
8691.00,1.25
8690.00,1.25
8689.00,1.25
8688.00,1.25
8687.00,1.25
8686.00,1.25
8685.00,1.25
8684.00,1.25
8683.00,1.24
8682.00,1.24
8681.00,1.24
8680.00,1.24
8679.00,1.24
8678.00,1.24
8677.00,1.23
8676.00,1.23
8675.00,1.23
8674.00,1.23
8673.00,1.23
8672.00,1.23
8671.00,1.23
8670.00,1.23
8669.00,1.23
8668.00,1.23
8667.00,1.23
8666.00,1.23
8665.00,1.23
8664.00,1.23
8663.00,1.23
8662.00,1.23
8661.00,1.23
8660.00,1.23
8659.00,1.23
8658.00,1.23
8657.00,1.23
8656.00,1.23
8655.00,1.24
8654.00,1.24
8653.00,1.24
8652.00,1.24
8651.00,1.24
8650.00,1.24
8649.00,1.24
8648.00,1.24
8647.00,1.24
8646.00,1.24
8645.00,1.24
8644.00,1.24
8643.00,1.23
8642.00,1.23
8641.00,1.23
8640.00,1.23
8639.00,1.23
8638.00,1.23
8637.00,1.23
8636.00,1.23
8635.00,1.23
8634.00,1.23
8633.00,1.23
8632.00,1.23
8631.00,1.23
8630.00,1.23
8629.00,1.23
8628.00,1.22
8627.00,1.22
8626.00,1.22
8625.00,1.22
8624.00,1.22
8623.00,1.22
8622.00,1.22
8621.00,1.22
8620.00,1.22
8619.00,1.21
8618.00,1.21
8617.00,1.21
8616.00,1.21
8615.00,1.21
8614.00,1.21
8613.00,1.21
8612.00,1.21
8611.00,1.21
8610.00,1.21
8609.00,1.21
8608.00,1.21
8607.00,1.21
8606.00,1.21
8605.00,1.21
8604.00,1.21
8603.00,1.21
8602.00,1.21
8601.00,1.21
8600.00,1.21
8599.00,1.21
8598.00,1.21
8597.00,1.21
8596.00,1.21
8595.00,1.21
8594.00,1.21
8593.00,1.21
8592.00,1.21
8591.00,1.21
8590.00,1.21
8589.00,1.21
8588.00,1.21
8587.00,1.21
8586.00,1.21
8585.00,1.21
8584.00,1.21
8583.00,1.21
8582.00,1.20
8581.00,1.20
8580.00,1.20
8579.00,1.20
8578.00,1.20
8577.00,1.20
8576.00,1.20
8575.00,1.20
8574.00,1.20
8573.00,1.20
8572.00,1.20
8571.00,1.20
8570.00,1.20
8569.00,1.20
8568.00,1.20
8567.00,1.19
8566.00,1.19
8565.00,1.19
8564.00,1.19
8563.00,1.19
8562.00,1.19
8561.00,1.19
8560.00,1.19
8559.00,1.19
8558.00,1.19
8557.00,1.19
8556.00,1.19
8555.00,1.19
8554.00,1.19
8553.00,1.19
8552.00,1.19
8551.00,1.19
8550.00,1.19
8549.00,1.19
8548.00,1.19
8547.00,1.19
8546.00,1.18
8545.00,1.18
8544.00,1.18
8543.00,1.18
8542.00,1.18
8541.00,1.18
8540.00,1.18
8539.00,1.18
8538.00,1.17
8537.00,1.17
8536.00,1.17
8535.00,1.17
8534.00,1.17
8533.00,1.17
8532.00,1.16
8531.00,1.16
8530.00,1.16
8529.00,1.16
8528.00,1.16
8527.00,1.16
8526.00,1.16
8525.00,1.16
8524.00,1.16
8523.00,1.16
8522.00,1.16
8521.00,1.16
8520.00,1.16
8519.00,1.16
8518.00,1.16
8517.00,1.16
8516.00,1.16
8515.00,1.16
8514.00,1.16
8513.00,1.16
8512.00,1.16
8511.00,1.16
8510.00,1.16
8509.00,1.16
8508.00,1.16
8507.00,1.16
8506.00,1.16
8505.00,1.16
8504.00,1.16
8503.00,1.16
8502.00,1.15
8501.00,1.15
8500.00,1.15
8499.00,1.15
8498.00,1.15
8497.00,1.14
8496.00,1.14
8495.00,1.14
8494.00,1.14
8493.00,1.14
8492.00,1.14
8491.00,1.14
8490.00,1.13
8489.00,1.13
8488.00,1.13
8487.00,1.13
8486.00,1.13
8485.00,1.13
8484.00,1.13
8483.00,1.13
8482.00,1.13
8481.00,1.13
8480.00,1.13
8479.00,1.13
8478.00,1.13
8477.00,1.13
8476.00,1.12
8475.00,1.12
8474.00,1.12
8473.00,1.12
8472.00,1.12
8471.00,1.12
8470.00,1.12
8469.00,1.12
8468.00,1.12
8467.00,1.12
8466.00,1.12
8465.00,1.12
8464.00,1.12
8463.00,1.12
8462.00,1.12
8461.00,1.12
8460.00,1.12
8459.00,1.12
8458.00,1.11
8457.00,1.11
8456.00,1.11
8455.00,1.11
8454.00,1.11
8453.00,1.11
8452.00,1.11
8451.00,1.10
8450.00,1.10
8449.00,1.10
8448.00,1.10
8447.00,1.10
8446.00,1.10
8445.00,1.10
8444.00,1.10
8443.00,1.09
8442.00,1.09
8441.00,1.09
8440.00,1.09
8439.00,1.09
8438.00,1.09
8437.00,1.09
8436.00,1.09
8435.00,1.10
8434.00,1.10
8433.00,1.10
8432.00,1.10
8431.00,1.10
8430.00,1.10
8429.00,1.10
8428.00,1.10
8427.00,1.11
8426.00,1.11
8425.00,1.11
8424.00,1.11
8423.00,1.11
8422.00,1.11
8421.00,1.11
8420.00,1.11
8419.00,1.11
8418.00,1.11
8417.00,1.11
8416.00,1.11
8415.00,1.11
8414.00,1.11
8413.00,1.11
8412.00,1.11
8411.00,1.11
8410.00,1.11
8409.00,1.11
8408.00,1.11
8407.00,1.11
8406.00,1.11
8405.00,1.11
8404.00,1.11
8403.00,1.11
8402.00,1.11
8401.00,1.12
8400.00,1.12
8399.00,1.12
8398.00,1.12
8397.00,1.13
8396.00,1.13
8395.00,1.13
8394.00,1.13
8393.00,1.13
8392.00,1.14
8391.00,1.14
8390.00,1.14
8389.00,1.14
8388.00,1.14
8387.00,1.15
8386.00,1.15
8385.00,1.15
8384.00,1.15
8383.00,1.15
8382.00,1.15
8381.00,1.15
8380.00,1.15
8379.00,1.16
8378.00,1.16
8377.00,1.16
8376.00,1.16
8375.00,1.16
8374.00,1.16
8373.00,1.16
8372.00,1.16
8371.00,1.16
8370.00,1.16
8369.00,1.16
8368.00,1.16
8367.00,1.16
8366.00,1.16
8365.00,1.16
8364.00,1.16
8363.00,1.16
8362.00,1.16
8361.00,1.16
8360.00,1.16
8359.00,1.16
8358.00,1.16
8357.00,1.16
8356.00,1.16
8355.00,1.16
8354.00,1.16
8353.00,1.16
8352.00,1.16
8351.00,1.16
8350.00,1.16
8349.00,1.16
8348.00,1.16
8347.00,1.16
8346.00,1.16
8345.00,1.16
8344.00,1.16
8343.00,1.16
8342.00,1.17
8341.00,1.17
8340.00,1.17
8339.00,1.17
8338.00,1.17
8337.00,1.17
8336.00,1.17
8335.00,1.17
8334.00,1.17
8333.00,1.17
8332.00,1.17
8331.00,1.17
8330.00,1.17
8329.00,1.17
8328.00,1.17
8327.00,1.17
8326.00,1.17
8325.00,1.17
8324.00,1.17
8323.00,1.17
8322.00,1.17
8321.00,1.17
8320.00,1.17
8319.00,1.17
8318.00,1.17
8317.00,1.17
8316.00,1.16
8315.00,1.16
8314.00,1.16
8313.00,1.16
8312.00,1.16
8311.00,1.16
8310.00,1.16
8309.00,1.16
8308.00,1.16
8307.00,1.16
8306.00,1.16
8305.00,1.16
8304.00,1.16
8303.00,1.16
8302.00,1.16
8301.00,1.16
8300.00,1.16
8299.00,1.16
8298.00,1.17
8297.00,1.17
8296.00,1.17
8295.00,1.17
8294.00,1.17
8293.00,1.17
8292.00,1.17
8291.00,1.18
8290.00,1.18
8289.00,1.18
8288.00,1.18
8287.00,1.18
8286.00,1.18
8285.00,1.18
8284.00,1.18
8283.00,1.18
8282.00,1.18
8281.00,1.18
8280.00,1.18
8279.00,1.18
8278.00,1.18
8277.00,1.17
8276.00,1.17
8275.00,1.17
8274.00,1.17
8273.00,1.17
8272.00,1.17
8271.00,1.17
8270.00,1.17
8269.00,1.17
8268.00,1.17
8267.00,1.17
8266.00,1.18
8265.00,1.18
8264.00,1.18
8263.00,1.18
8262.00,1.18
8261.00,1.18
8260.00,1.18
8259.00,1.18
8258.00,1.18
8257.00,1.18
8256.00,1.18
8255.00,1.18
8254.00,1.19
8253.00,1.19
8252.00,1.19
8251.00,1.19
8250.00,1.19
8249.00,1.19
8248.00,1.19
8247.00,1.19
8246.00,1.19
8245.00,1.19
8244.00,1.19
8243.00,1.19
8242.00,1.19
8241.00,1.19
8240.00,1.20
8239.00,1.20
8238.00,1.20
8237.00,1.20
8236.00,1.20
8235.00,1.20
8234.00,1.20
8233.00,1.20
8232.00,1.20
8231.00,1.21
8230.00,1.21
8229.00,1.21
8228.00,1.21
8227.00,1.21
8226.00,1.21
8225.00,1.21
8224.00,1.21
8223.00,1.21
8222.00,1.21
8221.00,1.21
8220.00,1.21
8219.00,1.21
8218.00,1.21
8217.00,1.21
8216.00,1.21
8215.00,1.21
8214.00,1.21
8213.00,1.21
8212.00,1.21
8211.00,1.21
8210.00,1.21
8209.00,1.20
8208.00,1.20
8207.00,1.20
8206.00,1.20
8205.00,1.20
8204.00,1.20
8203.00,1.20
8202.00,1.20
8201.00,1.20
8200.00,1.20
8199.00,1.20
8198.00,1.20
8197.00,1.20
8196.00,1.20
8195.00,1.20
8194.00,1.20
8193.00,1.21
8192.00,1.21
8191.00,1.21
8190.00,1.21
8189.00,1.21
8188.00,1.21
8187.00,1.21
8186.00,1.21
8185.00,1.22
8184.00,1.22
8183.00,1.22
8182.00,1.22
8181.00,1.22
8180.00,1.22
8179.00,1.22
8178.00,1.22
8177.00,1.22
8176.00,1.22
8175.00,1.22
8174.00,1.22
8173.00,1.22
8172.00,1.22
8171.00,1.22
8170.00,1.22
8169.00,1.22
8168.00,1.22
8167.00,1.22
8166.00,1.23
8165.00,1.23
8164.00,1.23
8163.00,1.23
8162.00,1.23
8161.00,1.23
8160.00,1.23
8159.00,1.23
8158.00,1.24
8157.00,1.24
8156.00,1.24
8155.00,1.24
8154.00,1.24
8153.00,1.24
8152.00,1.24
8151.00,1.24
8150.00,1.24
8149.00,1.24
8148.00,1.24
8147.00,1.24
8146.00,1.24
8145.00,1.24
8144.00,1.24
8143.00,1.24
8142.00,1.24
8141.00,1.24
8140.00,1.24
8139.00,1.24
8138.00,1.24
8137.00,1.24
8136.00,1.24
8135.00,1.24
8134.00,1.24
8133.00,1.24
8132.00,1.24
8131.00,1.24
8130.00,1.24
8129.00,1.24
8128.00,1.24
8127.00,1.24
8126.00,1.24
8125.00,1.24
8124.00,1.24
8123.00,1.24
8122.00,1.24
8121.00,1.24
8120.00,1.24
8119.00,1.24
8118.00,1.24
8117.00,1.24
8116.00,1.25
8115.00,1.25
8114.00,1.25
8113.00,1.25
8112.00,1.25
8111.00,1.25
8110.00,1.25
8109.00,1.25
8108.00,1.25
8107.00,1.25
8106.00,1.25
8105.00,1.25
8104.00,1.26
8103.00,1.26
8102.00,1.26
8101.00,1.26
8100.00,1.26
8099.00,1.26
8098.00,1.26
8097.00,1.26
8096.00,1.26
8095.00,1.27
8094.00,1.27
8093.00,1.27
8092.00,1.27
8091.00,1.27
8090.00,1.27
8089.00,1.27
8088.00,1.27
8087.00,1.27
8086.00,1.27
8085.00,1.27
8084.00,1.27
8083.00,1.27
8082.00,1.27
8081.00,1.27
8080.00,1.27
8079.00,1.27
8078.00,1.27
8077.00,1.27
8076.00,1.27
8075.00,1.27
8074.00,1.27
8073.00,1.27
8072.00,1.27
8071.00,1.27
8070.00,1.27
8069.00,1.27
8068.00,1.27
8067.00,1.27
8066.00,1.27
8065.00,1.27
8064.00,1.27
8063.00,1.27
8062.00,1.27
8061.00,1.27
8060.00,1.27
8059.00,1.27
8058.00,1.27
8057.00,1.27
8056.00,1.27
8055.00,1.27
8054.00,1.28
8053.00,1.28
8052.00,1.28
8051.00,1.28
8050.00,1.28
8049.00,1.28
8048.00,1.28
8047.00,1.28
8046.00,1.28
8045.00,1.28
8044.00,1.28
8043.00,1.28
8042.00,1.28
8041.00,1.28
8040.00,1.28
8039.00,1.28
8038.00,1.28
8037.00,1.28
8036.00,1.28
8035.00,1.28
8034.00,1.28
8033.00,1.28
8032.00,1.28
8031.00,1.29
8030.00,1.29
8029.00,1.29
8028.00,1.29
8027.00,1.29
8026.00,1.29
8025.00,1.29
8024.00,1.29
8023.00,1.28
8022.00,1.28
8021.00,1.28
8020.00,1.28
8019.00,1.28
8018.00,1.28
8017.00,1.28
8016.00,1.28
8015.00,1.28
8014.00,1.28
8013.00,1.28
8012.00,1.28
8011.00,1.28
8010.00,1.28
8009.00,1.28
8008.00,1.28
8007.00,1.28
8006.00,1.28
8005.00,1.28
8004.00,1.28
8003.00,1.28
8002.00,1.28
8001.00,1.28
8000.00,1.28
7999.00,1.28
7998.00,1.28
7997.00,1.28
7996.00,1.28
7995.00,1.28
7994.00,1.28
7993.00,1.28
7992.00,1.28
7991.00,1.28
7990.00,1.28
7989.00,1.28
7988.00,1.28
7987.00,1.28
7986.00,1.28
7985.00,1.28
7984.00,1.28
7983.00,1.28
7982.00,1.28
7981.00,1.28
7980.00,1.29
7979.00,1.29
7978.00,1.29
7977.00,1.29
7976.00,1.29
7975.00,1.29
7974.00,1.29
7973.00,1.29
7972.00,1.29
7971.00,1.29
7970.00,1.29
7969.00,1.29
7968.00,1.29
7967.00,1.28
7966.00,1.28
7965.00,1.28
7964.00,1.28
7963.00,1.28
7962.00,1.28
7961.00,1.28
7960.00,1.28
7959.00,1.28
7958.00,1.28
7957.00,1.28
7956.00,1.28
7955.00,1.28
7954.00,1.29
7953.00,1.29
7952.00,1.29
7951.00,1.29
7950.00,1.29
7949.00,1.29
7948.00,1.29
7947.00,1.29
7946.00,1.29
7945.00,1.29
7944.00,1.29
7943.00,1.29
7942.00,1.29
7941.00,1.29
7940.00,1.29
7939.00,1.29
7938.00,1.29
7937.00,1.29
7936.00,1.29
7935.00,1.30
7934.00,1.30
7933.00,1.30
7932.00,1.30
7931.00,1.30
7930.00,1.30
7929.00,1.30
7928.00,1.30
7927.00,1.30
7926.00,1.30
7925.00,1.30
7924.00,1.30
7923.00,1.30
7922.00,1.30
7921.00,1.30
7920.00,1.30
7919.00,1.30
7918.00,1.30
7917.00,1.30
7916.00,1.30
7915.00,1.30
7914.00,1.30
7913.00,1.30
7912.00,1.30
7911.00,1.30
7910.00,1.30
7909.00,1.30
7908.00,1.30
7907.00,1.30
7906.00,1.30
7905.00,1.30
7904.00,1.30
7903.00,1.30
7902.00,1.30
7901.00,1.30
7900.00,1.30
7899.00,1.30
7898.00,1.30
7897.00,1.30
7896.00,1.30
7895.00,1.30
7894.00,1.30
7893.00,1.30
7892.00,1.30
7891.00,1.30
7890.00,1.30
7889.00,1.30
7888.00,1.30
7887.00,1.30
7886.00,1.30
7885.00,1.30
7884.00,1.30
7883.00,1.30
7882.00,1.30
7881.00,1.30
7880.00,1.30
7879.00,1.31
7878.00,1.31
7877.00,1.31
7876.00,1.31
7875.00,1.31
7874.00,1.31
7873.00,1.31
7872.00,1.31
7871.00,1.31
7870.00,1.31
7869.00,1.31
7868.00,1.31
7867.00,1.31
7866.00,1.31
7865.00,1.31
7864.00,1.31
7863.00,1.31
7862.00,1.31
7861.00,1.31
7860.00,1.31
7859.00,1.31
7858.00,1.31
7857.00,1.31
7856.00,1.31
7855.00,1.31
7854.00,1.31
7853.00,1.31
7852.00,1.31
7851.00,1.31
7850.00,1.31
7849.00,1.31
7848.00,1.30
7847.00,1.30
7846.00,1.30
7845.00,1.30
7844.00,1.30
7843.00,1.30
7842.00,1.30
7841.00,1.30
7840.00,1.30
7839.00,1.30
7838.00,1.30
7837.00,1.31
7836.00,1.31
7835.00,1.31
7834.00,1.31
7833.00,1.31
7832.00,1.31
7831.00,1.31
7830.00,1.31
7829.00,1.31
7828.00,1.31
7827.00,1.31
7826.00,1.31
7825.00,1.31
7824.00,1.31
7823.00,1.31
7822.00,1.31
7821.00,1.31
7820.00,1.31
7819.00,1.31
7818.00,1.31
7817.00,1.31
7816.00,1.31
7815.00,1.32
7814.00,1.32
7813.00,1.32
7812.00,1.32
7811.00,1.32
7810.00,1.32
7809.00,1.32
7808.00,1.32
7807.00,1.32
7806.00,1.32
7805.00,1.32
7804.00,1.32
7803.00,1.32
7802.00,1.33
7801.00,1.33
7800.00,1.33
7799.00,1.33
7798.00,1.33
7797.00,1.33
7796.00,1.33
7795.00,1.33
7794.00,1.33
7793.00,1.33
7792.00,1.33
7791.00,1.33
7790.00,1.33
7789.00,1.33
7788.00,1.33
7787.00,1.33
7786.00,1.33
7785.00,1.33
7784.00,1.33
7783.00,1.33
7782.00,1.33
7781.00,1.34
7780.00,1.34
7779.00,1.34
7778.00,1.34
7777.00,1.34
7776.00,1.34
7775.00,1.34
7774.00,1.34
7773.00,1.34
7772.00,1.34
7771.00,1.34
7770.00,1.34
7769.00,1.34
7768.00,1.34
7767.00,1.34
7766.00,1.34
7765.00,1.34
7764.00,1.34
7763.00,1.34
7762.00,1.34
7761.00,1.33
7760.00,1.33
7759.00,1.33
7758.00,1.33
7757.00,1.33
7756.00,1.33
7755.00,1.33
7754.00,1.33
7753.00,1.33
7752.00,1.33
7751.00,1.33
7750.00,1.33
7749.00,1.33
7748.00,1.33
7747.00,1.33
7746.00,1.33
7745.00,1.33
7744.00,1.33
7743.00,1.33
7742.00,1.33
7741.00,1.33
7740.00,1.33
7739.00,1.33
7738.00,1.33
7737.00,1.33
7736.00,1.33
7735.00,1.33
7734.00,1.33
7733.00,1.33
7732.00,1.33
7731.00,1.33
7730.00,1.33
7729.00,1.33
7728.00,1.33
7727.00,1.33
7726.00,1.33
7725.00,1.33
7724.00,1.33
7723.00,1.33
7722.00,1.33
7721.00,1.33
7720.00,1.33
7719.00,1.33
7718.00,1.33
7717.00,1.33
7716.00,1.33
7715.00,1.33
7714.00,1.33
7713.00,1.33
7712.00,1.33
7711.00,1.33
7710.00,1.33
7709.00,1.34
7708.00,1.34
7707.00,1.34
7706.00,1.34
7705.00,1.34
7704.00,1.34
7703.00,1.34
7702.00,1.34
7701.00,1.34
7700.00,1.34
7699.00,1.34
7698.00,1.34
7697.00,1.34
7696.00,1.34
7695.00,1.34
7694.00,1.34
7693.00,1.34
7692.00,1.34
7691.00,1.34
7690.00,1.34
7689.00,1.34
7688.00,1.34
7687.00,1.33
7686.00,1.33
7685.00,1.33
7684.00,1.33
7683.00,1.33
7682.00,1.33
7681.00,1.33
7680.00,1.33
7679.00,1.33
7678.00,1.33
7677.00,1.34
7676.00,1.34
7675.00,1.34
7674.00,1.34
7673.00,1.34
7672.00,1.34
7671.00,1.34
7670.00,1.34
7669.00,1.34
7668.00,1.34
7667.00,1.34
7666.00,1.34
7665.00,1.34
7664.00,1.34
7663.00,1.34
7662.00,1.34
7661.00,1.34
7660.00,1.34
7659.00,1.34
7658.00,1.34
7657.00,1.34
7656.00,1.34
7655.00,1.34
7654.00,1.34
7653.00,1.34
7652.00,1.34
7651.00,1.34
7650.00,1.34
7649.00,1.34
7648.00,1.34
7647.00,1.34
7646.00,1.34
7645.00,1.34
7644.00,1.33
7643.00,1.33
7642.00,1.33
7641.00,1.33
7640.00,1.33
7639.00,1.33
7638.00,1.33
7637.00,1.33
7636.00,1.33
7635.00,1.33
7634.00,1.33
7633.00,1.33
7632.00,1.33
7631.00,1.34
7630.00,1.34
7629.00,1.34
7628.00,1.34
7627.00,1.34
7626.00,1.34
7625.00,1.34
7624.00,1.34
7623.00,1.34
7622.00,1.34
7621.00,1.34
7620.00,1.34
7619.00,1.34
7618.00,1.34
7617.00,1.34
7616.00,1.34
7615.00,1.34
7614.00,1.34
7613.00,1.34
7612.00,1.34
7611.00,1.34
7610.00,1.34
7609.00,1.34
7608.00,1.34
7607.00,1.34
7606.00,1.34
7605.00,1.34
7604.00,1.34
7603.00,1.34
7602.00,1.34
7601.00,1.34
7600.00,1.34
7599.00,1.34
7598.00,1.33
7597.00,1.33
7596.00,1.33
7595.00,1.33
7594.00,1.33
7593.00,1.33
7592.00,1.33
7591.00,1.33
7590.00,1.33
7589.00,1.33
7588.00,1.33
7587.00,1.33
7586.00,1.33
7585.00,1.33
7584.00,1.33
7583.00,1.33
7582.00,1.33
7581.00,1.33
7580.00,1.33
7579.00,1.33
7578.00,1.33
7577.00,1.33
7576.00,1.33
7575.00,1.33
7574.00,1.33
7573.00,1.33
7572.00,1.33
7571.00,1.32
7570.00,1.32
7569.00,1.32
7568.00,1.32
7567.00,1.32
7566.00,1.32
7565.00,1.32
7564.00,1.32
7563.00,1.32
7562.00,1.32
7561.00,1.32
7560.00,1.32
7559.00,1.32
7558.00,1.32
7557.00,1.32
7556.00,1.32
7555.00,1.32
7554.00,1.32
7553.00,1.32
7552.00,1.32
7551.00,1.32
7550.00,1.32
7549.00,1.32
7548.00,1.32
7547.00,1.32
7546.00,1.32
7545.00,1.32
7544.00,1.32
7543.00,1.32
7542.00,1.32
7541.00,1.32
7540.00,1.32
7539.00,1.32
7538.00,1.32
7537.00,1.32
7536.00,1.32
7535.00,1.32
7534.00,1.32
7533.00,1.32
7532.00,1.32
7531.00,1.32
7530.00,1.32
7529.00,1.32
7528.00,1.32
7527.00,1.31
7526.00,1.31
7525.00,1.31
7524.00,1.31
7523.00,1.31
7522.00,1.31
7521.00,1.31
7520.00,1.31
7519.00,1.31
7518.00,1.31
7517.00,1.31
7516.00,1.31
7515.00,1.31
7514.00,1.31
7513.00,1.31
7512.00,1.31
7511.00,1.30
7510.00,1.30
7509.00,1.30
7508.00,1.30
7507.00,1.30
7506.00,1.30
7505.00,1.30
7504.00,1.30
7503.00,1.30
7502.00,1.30
7501.00,1.30
7500.00,1.30
7499.00,1.30
7498.00,1.30
7497.00,1.30
7496.00,1.30
7495.00,1.30
7494.00,1.30
7493.00,1.30
7492.00,1.30
7491.00,1.30
7490.00,1.30
7489.00,1.30
7488.00,1.30
7487.00,1.30
7486.00,1.30
7485.00,1.30
7484.00,1.30
7483.00,1.30
7482.00,1.30
7481.00,1.30
7480.00,1.30
7479.00,1.29
7478.00,1.29
7477.00,1.29
7476.00,1.29
7475.00,1.29
7474.00,1.29
7473.00,1.29
7472.00,1.29
7471.00,1.29
7470.00,1.29
7469.00,1.29
7468.00,1.29
7467.00,1.29
7466.00,1.28
7465.00,1.28
7464.00,1.28
7463.00,1.28
7462.00,1.28
7461.00,1.28
7460.00,1.28
7459.00,1.28
7458.00,1.28
7457.00,1.28
7456.00,1.27
7455.00,1.27
7454.00,1.27
7453.00,1.27
7452.00,1.27
7451.00,1.27
7450.00,1.27
7449.00,1.27
7448.00,1.27
7447.00,1.27
7446.00,1.27
7445.00,1.27
7444.00,1.27
7443.00,1.27
7442.00,1.27
7441.00,1.27
7440.00,1.27
7439.00,1.27
7438.00,1.27
7437.00,1.27
7436.00,1.27
7435.00,1.27
7434.00,1.27
7433.00,1.27
7432.00,1.27
7431.00,1.26
7430.00,1.26
7429.00,1.26
7428.00,1.26
7427.00,1.26
7426.00,1.26
7425.00,1.26
7424.00,1.26
7423.00,1.25
7422.00,1.25
7421.00,1.25
7420.00,1.25
7419.00,1.25
7418.00,1.25
7417.00,1.25
7416.00,1.24
7415.00,1.24
7414.00,1.24
7413.00,1.24
7412.00,1.24
7411.00,1.24
7410.00,1.24
7409.00,1.24
7408.00,1.23
7407.00,1.23
7406.00,1.23
7405.00,1.23
7404.00,1.23
7403.00,1.23
7402.00,1.22
7401.00,1.22
7400.00,1.22
7399.00,1.22
7398.00,1.22
7397.00,1.21
7396.00,1.21
7395.00,1.21
7394.00,1.21
7393.00,1.20
7392.00,1.20
7391.00,1.20
7390.00,1.20
7389.00,1.20
7388.00,1.19
7387.00,1.19
7386.00,1.19
7385.00,1.19
7384.00,1.19
7383.00,1.19
7382.00,1.19
7381.00,1.19
7380.00,1.19
7379.00,1.19
7378.00,1.19
7377.00,1.19
7376.00,1.19
7375.00,1.19
7374.00,1.19
7373.00,1.19
7372.00,1.19
7371.00,1.19
7370.00,1.19
7369.00,1.19
7368.00,1.19
7367.00,1.19
7366.00,1.19
7365.00,1.19
7364.00,1.19
7363.00,1.18
7362.00,1.18
7361.00,1.18
7360.00,1.18
7359.00,1.18
7358.00,1.18
7357.00,1.18
7356.00,1.17
7355.00,1.17
7354.00,1.17
7353.00,1.17
7352.00,1.17
7351.00,1.17
7350.00,1.17
7349.00,1.16
7348.00,1.16
7347.00,1.16
7346.00,1.16
7345.00,1.16
7344.00,1.16
7343.00,1.16
7342.00,1.16
7341.00,1.16
7340.00,1.16
7339.00,1.16
7338.00,1.16
7337.00,1.16
7336.00,1.16
7335.00,1.16
7334.00,1.16
7333.00,1.16
7332.00,1.16
7331.00,1.16
7330.00,1.16
7329.00,1.16
7328.00,1.16
7327.00,1.16
7326.00,1.16
7325.00,1.16
7324.00,1.16
7323.00,1.16
7322.00,1.16
7321.00,1.15
7320.00,1.15
7319.00,1.15
7318.00,1.15
7317.00,1.15
7316.00,1.15
7315.00,1.15
7314.00,1.15
7313.00,1.15
7312.00,1.15
7311.00,1.15
7310.00,1.15
7309.00,1.15
7308.00,1.14
7307.00,1.14
7306.00,1.14
7305.00,1.14
7304.00,1.14
7303.00,1.14
7302.00,1.14
7301.00,1.14
7300.00,1.14
7299.00,1.14
7298.00,1.13
7297.00,1.13
7296.00,1.13
7295.00,1.13
7294.00,1.13
7293.00,1.13
7292.00,1.12
7291.00,1.12
7290.00,1.12
7289.00,1.12
7288.00,1.12
7287.00,1.12
7286.00,1.11
7285.00,1.11
7284.00,1.11
7283.00,1.11
7282.00,1.11
7281.00,1.11
7280.00,1.11
7279.00,1.11
7278.00,1.10
7277.00,1.10
7276.00,1.10
7275.00,1.10
7274.00,1.10
7273.00,1.10
7272.00,1.09
7271.00,1.09
7270.00,1.09
7269.00,1.09
7268.00,1.09
7267.00,1.09
7266.00,1.08
7265.00,1.08
7264.00,1.08
7263.00,1.08
7262.00,1.08
7261.00,1.07
7260.00,1.07
7259.00,1.07
7258.00,1.07
7257.00,1.07
7256.00,1.06
7255.00,1.06
7254.00,1.06
7253.00,1.06
7252.00,1.05
7251.00,1.05
7250.00,1.05
7249.00,1.05
7248.00,1.04
7247.00,1.04
7246.00,1.04
7245.00,1.04
7244.00,1.03
7243.00,1.03
7242.00,1.03
7241.00,1.03
7240.00,1.02
7239.00,1.02
7238.00,1.02
7237.00,1.01
7236.00,1.01
7235.00,1.01
7234.00,1.00
7233.00,1.00
7232.00,1.00
7231.00,0.99
7230.00,0.99
7229.00,0.98
7228.00,0.98
7227.00,0.98
7226.00,0.97
7225.00,0.97
7224.00,0.97
7223.00,0.96
7222.00,0.96
7221.00,0.96
7220.00,0.95
7219.00,0.95
7218.00,0.95
7217.00,0.95
7216.00,0.94
7215.00,0.94
7214.00,0.94
7213.00,0.93
7212.00,0.93
7211.00,0.93
7210.00,0.92
7209.00,0.92
7208.00,0.92
7207.00,0.91
7206.00,0.91
7205.00,0.91
7204.00,0.90
7203.00,0.90
7202.00,0.90
7201.00,0.89
7200.00,0.89
7199.00,0.89
7198.00,0.88
7197.00,0.88
7196.00,0.88
7195.00,0.88
7194.00,0.87
7193.00,0.87
7192.00,0.87
7191.00,0.86
7190.00,0.86
7189.00,0.86
7188.00,0.86
7187.00,0.85
7186.00,0.85
7185.00,0.85
7184.00,0.84
7183.00,0.84
7182.00,0.84
7181.00,0.83
7180.00,0.83
7179.00,0.83
7178.00,0.82
7177.00,0.82
7176.00,0.82
7175.00,0.82
7174.00,0.81
7173.00,0.81
7172.00,0.81
7171.00,0.81
7170.00,0.80
7169.00,0.80
7168.00,0.80
7167.00,0.80
7166.00,0.80
7165.00,0.79
7164.00,0.79
7163.00,0.79
7162.00,0.79
7161.00,0.79
7160.00,0.79
7159.00,0.78
7158.00,0.78
7157.00,0.78
7156.00,0.78
7155.00,0.78
7154.00,0.77
7153.00,0.77
7152.00,0.77
7151.00,0.77
7150.00,0.76
7149.00,0.76
7148.00,0.76
7147.00,0.76
7146.00,0.75
7145.00,0.75
7144.00,0.75
7143.00,0.74
7142.00,0.74
7141.00,0.74
7140.00,0.74
7139.00,0.73
7138.00,0.73
7137.00,0.73
7136.00,0.73
7135.00,0.72
7134.00,0.72
7133.00,0.72
7132.00,0.72
7131.00,0.71
7130.00,0.71
7129.00,0.71
7128.00,0.71
7127.00,0.71
7126.00,0.70
7125.00,0.70
7124.00,0.70
7123.00,0.70
7122.00,0.70
7121.00,0.69
7120.00,0.69
7119.00,0.69
7118.00,0.69
7117.00,0.69
7116.00,0.68
7115.00,0.68
7114.00,0.68
7113.00,0.68
7112.00,0.68
7111.00,0.67
7110.00,0.67
7109.00,0.67
7108.00,0.67
7107.00,0.67
7106.00,0.66
7105.00,0.66
7104.00,0.66
7103.00,0.66
7102.00,0.66
7101.00,0.65
7100.00,0.65
7099.00,0.65
7098.00,0.65
7097.00,0.65
7096.00,0.65
7095.00,0.64
7094.00,0.64
7093.00,0.64
7092.00,0.64
7091.00,0.64
7090.00,0.64
7089.00,0.63
7088.00,0.63
7087.00,0.63
7086.00,0.63
7085.00,0.63
7084.00,0.63
7083.00,0.62
7082.00,0.62
7081.00,0.62
7080.00,0.62
7079.00,0.62
7078.00,0.62
7077.00,0.62
7076.00,0.61
7075.00,0.61
7074.00,0.61
7073.00,0.61
7072.00,0.61
7071.00,0.61
7070.00,0.61
7069.00,0.61
7068.00,0.61
7067.00,0.61
7066.00,0.61
7065.00,0.61
7064.00,0.61
7063.00,0.60
7062.00,0.60
7061.00,0.60
7060.00,0.60
7059.00,0.60
7058.00,0.60
7057.00,0.60
7056.00,0.60
7055.00,0.59
7054.00,0.59
7053.00,0.59
7052.00,0.59
7051.00,0.59
7050.00,0.59
7049.00,0.59
7048.00,0.58
7047.00,0.58
7046.00,0.58
7045.00,0.58
7044.00,0.58
7043.00,0.58
7042.00,0.58
7041.00,0.58
7040.00,0.58
7039.00,0.58
7038.00,0.58
7037.00,0.58
7036.00,0.58
7035.00,0.58
7034.00,0.58
7033.00,0.58
7032.00,0.58
7031.00,0.58
7030.00,0.58
7029.00,0.58
7028.00,0.58
7027.00,0.58
7026.00,0.58
7025.00,0.58
7024.00,0.58
7023.00,0.58
7022.00,0.58
7021.00,0.58
7020.00,0.58
7019.00,0.58
7018.00,0.58
7017.00,0.58
7016.00,0.58
7015.00,0.58
7014.00,0.58
7013.00,0.58
7012.00,0.57
7011.00,0.57
7010.00,0.57
7009.00,0.57
7008.00,0.57
7007.00,0.57
7006.00,0.57
7005.00,0.57
7004.00,0.57
7003.00,0.57
7002.00,0.57
7001.00,0.56
7000.00,0.56
6999.00,0.56
6998.00,0.56
6997.00,0.56
6996.00,0.56
6995.00,0.56
6994.00,0.56
6993.00,0.56
6992.00,0.56
6991.00,0.56
6990.00,0.56
6989.00,0.56
6988.00,0.56
6987.00,0.56
6986.00,0.56
6985.00,0.56
6984.00,0.56
6983.00,0.56
6982.00,0.56
6981.00,0.56
6980.00,0.56
6979.00,0.56
6978.00,0.56
6977.00,0.56
6976.00,0.56
6975.00,0.56
6974.00,0.56
6973.00,0.56
6972.00,0.56
6971.00,0.56
6970.00,0.56
6969.00,0.56
6968.00,0.56
6967.00,0.56
6966.00,0.56
6965.00,0.56
6964.00,0.56
6963.00,0.56
6962.00,0.56
6961.00,0.56
6960.00,0.56
6959.00,0.56
6958.00,0.56
6957.00,0.56
6956.00,0.56
6955.00,0.56
6954.00,0.56
6953.00,0.56
6952.00,0.56
6951.00,0.56
6950.00,0.56
6949.00,0.56
6948.00,0.56
6947.00,0.56
6946.00,0.56
6945.00,0.56
6944.00,0.56
6943.00,0.56
6942.00,0.56
6941.00,0.56
6940.00,0.56
6939.00,0.56
6938.00,0.56
6937.00,0.56
6936.00,0.56
6935.00,0.57
6934.00,0.57
6933.00,0.57
6932.00,0.57
6931.00,0.57
6930.00,0.57
6929.00,0.57
6928.00,0.57
6927.00,0.57
6926.00,0.57
6925.00,0.57
6924.00,0.57
6923.00,0.57
6922.00,0.57
6921.00,0.57
6920.00,0.57
6919.00,0.57
6918.00,0.57
6917.00,0.57
6916.00,0.57
6915.00,0.57
6914.00,0.57
6913.00,0.57
6912.00,0.57
6911.00,0.56
6910.00,0.56
6909.00,0.56
6908.00,0.56
6907.00,0.56
6906.00,0.56
6905.00,0.56
6904.00,0.56
6903.00,0.56
6902.00,0.56
6901.00,0.56
6900.00,0.56
6899.00,0.56
6898.00,0.56
6897.00,0.56
6896.00,0.56
6895.00,0.56
6894.00,0.56
6893.00,0.56
6892.00,0.56
6891.00,0.56
6890.00,0.56
6889.00,0.56
6888.00,0.56
6887.00,0.56
6886.00,0.56
6885.00,0.56
6884.00,0.56
6883.00,0.56
6882.00,0.56
6881.00,0.56
6880.00,0.56
6879.00,0.56
6878.00,0.56
6877.00,0.56
6876.00,0.56
6875.00,0.56
6874.00,0.56
6873.00,0.56
6872.00,0.56
6871.00,0.56
6870.00,0.56
6869.00,0.56
6868.00,0.56
6867.00,0.56
6866.00,0.56
6865.00,0.56
6864.00,0.56
6863.00,0.56
6862.00,0.56
6861.00,0.56
6860.00,0.56
6859.00,0.56
6858.00,0.56
6857.00,0.56
6856.00,0.56
6855.00,0.56
6854.00,0.56
6853.00,0.56
6852.00,0.56
6851.00,0.56
6850.00,0.57
6849.00,0.57
6848.00,0.57
6847.00,0.57
6846.00,0.57
6845.00,0.57
6844.00,0.57
6843.00,0.57
6842.00,0.57
6841.00,0.57
6840.00,0.57
6839.00,0.57
6838.00,0.57
6837.00,0.57
6836.00,0.57
6835.00,0.57
6834.00,0.57
6833.00,0.57
6832.00,0.56
6831.00,0.56
6830.00,0.56
6829.00,0.56
6828.00,0.56
6827.00,0.56
6826.00,0.56
6825.00,0.56
6824.00,0.56
6823.00,0.56
6822.00,0.56
6821.00,0.56
6820.00,0.57
6819.00,0.57
6818.00,0.57
6817.00,0.57
6816.00,0.57
6815.00,0.57
6814.00,0.57
6813.00,0.57
6812.00,0.57
6811.00,0.57
6810.00,0.57
6809.00,0.57
6808.00,0.57
6807.00,0.57
6806.00,0.58
6805.00,0.58
6804.00,0.58
6803.00,0.58
6802.00,0.58
6801.00,0.58
6800.00,0.58
6799.00,0.58
6798.00,0.58
6797.00,0.58
6796.00,0.58
6795.00,0.58
6794.00,0.58
6793.00,0.58
6792.00,0.58
6791.00,0.58
6790.00,0.58
6789.00,0.58
6788.00,0.58
6787.00,0.58
6786.00,0.58
6785.00,0.58
6784.00,0.58
6783.00,0.58
6782.00,0.58
6781.00,0.58
6780.00,0.58
6779.00,0.58
6778.00,0.58
6777.00,0.58
6776.00,0.58
6775.00,0.58
6774.00,0.58
6773.00,0.58
6772.00,0.58
6771.00,0.58
6770.00,0.58
6769.00,0.58
6768.00,0.58
6767.00,0.58
6766.00,0.58
6765.00,0.58
6764.00,0.58
6763.00,0.58
6762.00,0.58
6761.00,0.58
6760.00,0.58
6759.00,0.58
6758.00,0.58
6757.00,0.58
6756.00,0.58
6755.00,0.58
6754.00,0.58
6753.00,0.58
6752.00,0.58
6751.00,0.58
6750.00,0.58
6749.00,0.59
6748.00,0.59
6747.00,0.59
6746.00,0.59
6745.00,0.59
6744.00,0.59
6743.00,0.59
6742.00,0.59
6741.00,0.59
6740.00,0.59
6739.00,0.59
6738.00,0.59
6737.00,0.60
6736.00,0.60
6735.00,0.60
6734.00,0.60
6733.00,0.60
6732.00,0.60
6731.00,0.60
6730.00,0.60
6729.00,0.60
6728.00,0.60
6727.00,0.60
6726.00,0.60
6725.00,0.60
6724.00,0.59
6723.00,0.59
6722.00,0.59
6721.00,0.59
6720.00,0.59
6719.00,0.59
6718.00,0.60
6717.00,0.60
6716.00,0.60
6715.00,0.60
6714.00,0.60
6713.00,0.60
6712.00,0.60
6711.00,0.60
6710.00,0.60
6709.00,0.61
6708.00,0.61
6707.00,0.61
6706.00,0.61
6705.00,0.61
6704.00,0.61
6703.00,0.61
6702.00,0.61
6701.00,0.61
6700.00,0.61
6699.00,0.62
6698.00,0.62
6697.00,0.62
6696.00,0.62
6695.00,0.62
6694.00,0.62
6693.00,0.62
6692.00,0.62
6691.00,0.62
6690.00,0.62
6689.00,0.62
6688.00,0.62
6687.00,0.62
6686.00,0.62
6685.00,0.62
6684.00,0.62
6683.00,0.62
6682.00,0.62
6681.00,0.62
6680.00,0.62
6679.00,0.62
6678.00,0.62
6677.00,0.62
6676.00,0.62
6675.00,0.62
6674.00,0.62
6673.00,0.62
6672.00,0.62
6671.00,0.63
6670.00,0.63
6669.00,0.63
6668.00,0.63
6667.00,0.63
6666.00,0.63
6665.00,0.63
6664.00,0.63
6663.00,0.63
6662.00,0.63
6661.00,0.63
6660.00,0.63
6659.00,0.63
6658.00,0.64
6657.00,0.64
6656.00,0.64
6655.00,0.64
6654.00,0.64
6653.00,0.64
6652.00,0.64
6651.00,0.64
6650.00,0.64
6649.00,0.64
6648.00,0.65
6647.00,0.65
6646.00,0.65
6645.00,0.65
6644.00,0.65
6643.00,0.65
6642.00,0.65
6641.00,0.65
6640.00,0.65
6639.00,0.65
6638.00,0.65
6637.00,0.65
6636.00,0.65
6635.00,0.65
6634.00,0.65
6633.00,0.64
6632.00,0.64
6631.00,0.64
6630.00,0.64
6629.00,0.64
6628.00,0.64
6627.00,0.64
6626.00,0.64
6625.00,0.64
6624.00,0.64
6623.00,0.65
6622.00,0.65
6621.00,0.65
6620.00,0.65
6619.00,0.65
6618.00,0.65
6617.00,0.65
6616.00,0.65
6615.00,0.65
6614.00,0.66
6613.00,0.66
6612.00,0.66
6611.00,0.66
6610.00,0.66
6609.00,0.66
6608.00,0.67
6607.00,0.67
6606.00,0.67
6605.00,0.67
6604.00,0.67
6603.00,0.67
6602.00,0.67
6601.00,0.67
6600.00,0.68
6599.00,0.68
6598.00,0.68
6597.00,0.68
6596.00,0.68
6595.00,0.68
6594.00,0.68
6593.00,0.68
6592.00,0.68
6591.00,0.68
6590.00,0.68
6589.00,0.68
6588.00,0.68
6587.00,0.68
6586.00,0.68
6585.00,0.68
6584.00,0.68
6583.00,0.69
6582.00,0.69
6581.00,0.69
6580.00,0.69
6579.00,0.69
6578.00,0.69
6577.00,0.69
6576.00,0.69
6575.00,0.69
6574.00,0.70
6573.00,0.70
6572.00,0.70
6571.00,0.70
6570.00,0.70
6569.00,0.70
6568.00,0.70
6567.00,0.70
6566.00,0.70
6565.00,0.70
6564.00,0.70
6563.00,0.70
6562.00,0.70
6561.00,0.70
6560.00,0.70
6559.00,0.70
6558.00,0.70
6557.00,0.70
6556.00,0.70
6555.00,0.71
6554.00,0.71
6553.00,0.71
6552.00,0.71
6551.00,0.71
6550.00,0.71
6549.00,0.71
6548.00,0.71
6547.00,0.71
6546.00,0.71
6545.00,0.72
6544.00,0.72
6543.00,0.72
6542.00,0.72
6541.00,0.72
6540.00,0.72
6539.00,0.72
6538.00,0.72
6537.00,0.72
6536.00,0.72
6535.00,0.72
6534.00,0.72
6533.00,0.72
6532.00,0.72
6531.00,0.72
6530.00,0.72
6529.00,0.72
6528.00,0.72
6527.00,0.72
6526.00,0.72
6525.00,0.72
6524.00,0.72
6523.00,0.72
6522.00,0.73
6521.00,0.73
6520.00,0.73
6519.00,0.73
6518.00,0.73
6517.00,0.73
6516.00,0.73
6515.00,0.73
6514.00,0.73
6513.00,0.73
6512.00,0.74
6511.00,0.74
6510.00,0.74
6509.00,0.74
6508.00,0.74
6507.00,0.74
6506.00,0.74
6505.00,0.74
6504.00,0.74
6503.00,0.74
6502.00,0.74
6501.00,0.74
6500.00,0.74
6499.00,0.74
6498.00,0.74
6497.00,0.74
6496.00,0.74
6495.00,0.75
6494.00,0.75
6493.00,0.75
6492.00,0.75
6491.00,0.75
6490.00,0.75
6489.00,0.75
6488.00,0.75
6487.00,0.75
6486.00,0.75
6485.00,0.75
6484.00,0.75
6483.00,0.76
6482.00,0.76
6481.00,0.76
6480.00,0.76
6479.00,0.76
6478.00,0.76
6477.00,0.76
6476.00,0.76
6475.00,0.76
6474.00,0.76
6473.00,0.76
6472.00,0.76
6471.00,0.76
6470.00,0.76
6469.00,0.76
6468.00,0.76
6467.00,0.76
6466.00,0.76
6465.00,0.76
6464.00,0.76
6463.00,0.76
6462.00,0.76
6461.00,0.77
6460.00,0.77
6459.00,0.77
6458.00,0.77
6457.00,0.77
6456.00,0.77
6455.00,0.77
6454.00,0.77
6453.00,0.77
6452.00,0.77
6451.00,0.77
6450.00,0.77
6449.00,0.78
6448.00,0.78
6447.00,0.78
6446.00,0.78
6445.00,0.78
6444.00,0.78
6443.00,0.78
6442.00,0.78
6441.00,0.78
6440.00,0.78
6439.00,0.78
6438.00,0.78
6437.00,0.78
6436.00,0.79
6435.00,0.79
6434.00,0.79
6433.00,0.79
6432.00,0.79
6431.00,0.79
6430.00,0.79
6429.00,0.78
6428.00,0.78
6427.00,0.78
6426.00,0.78
6425.00,0.78
6424.00,0.78
6423.00,0.78
6422.00,0.79
6421.00,0.79
6420.00,0.79
6419.00,0.79
6418.00,0.79
6417.00,0.79
6416.00,0.79
6415.00,0.79
6414.00,0.79
6413.00,0.79
6412.00,0.79
6411.00,0.79
6410.00,0.79
6409.00,0.79
6408.00,0.79
6407.00,0.79
6406.00,0.79
6405.00,0.79
6404.00,0.79
6403.00,0.79
6402.00,0.79
6401.00,0.79
6400.00,0.79
6399.00,0.79
6398.00,0.79
6397.00,0.79
6396.00,0.79
6395.00,0.79
6394.00,0.79
6393.00,0.80
6392.00,0.80
6391.00,0.80
6390.00,0.80
6389.00,0.80
6388.00,0.80
6387.00,0.80
6386.00,0.81
6385.00,0.81
6384.00,0.81
6383.00,0.81
6382.00,0.81
6381.00,0.81
6380.00,0.81
6379.00,0.81
6378.00,0.81
6377.00,0.81
6376.00,0.82
6375.00,0.82
6374.00,0.82
6373.00,0.82
6372.00,0.82
6371.00,0.82
6370.00,0.82
6369.00,0.82
6368.00,0.82
6367.00,0.82
6366.00,0.82
6365.00,0.82
6364.00,0.82
6363.00,0.82
6362.00,0.83
6361.00,0.83
6360.00,0.83
6359.00,0.83
6358.00,0.83
6357.00,0.83
6356.00,0.83
6355.00,0.83
6354.00,0.83
6353.00,0.83
6352.00,0.83
6351.00,0.83
6350.00,0.83
6349.00,0.84
6348.00,0.84
6347.00,0.84
6346.00,0.84
6345.00,0.84
6344.00,0.84
6343.00,0.84
6342.00,0.84
6341.00,0.84
6340.00,0.84
6339.00,0.84
6338.00,0.84
6337.00,0.84
6336.00,0.84
6335.00,0.84
6334.00,0.85
6333.00,0.85
6332.00,0.85
6331.00,0.85
6330.00,0.85
6329.00,0.85
6328.00,0.85
6327.00,0.85
6326.00,0.85
6325.00,0.85
6324.00,0.85
6323.00,0.85
6322.00,0.86
6321.00,0.86
6320.00,0.86
6319.00,0.86
6318.00,0.86
6317.00,0.86
6316.00,0.86
6315.00,0.86
6314.00,0.86
6313.00,0.87
6312.00,0.87
6311.00,0.87
6310.00,0.87
6309.00,0.87
6308.00,0.87
6307.00,0.87
6306.00,0.87
6305.00,0.87
6304.00,0.88
6303.00,0.88
6302.00,0.88
6301.00,0.88
6300.00,0.88
6299.00,0.88
6298.00,0.88
6297.00,0.88
6296.00,0.88
6295.00,0.89
6294.00,0.89
6293.00,0.89
6292.00,0.89
6291.00,0.89
6290.00,0.89
6289.00,0.89
6288.00,0.89
6287.00,0.89
6286.00,0.89
6285.00,0.89
6284.00,0.89
6283.00,0.90
6282.00,0.90
6281.00,0.90
6280.00,0.90
6279.00,0.90
6278.00,0.90
6277.00,0.90
6276.00,0.90
6275.00,0.91
6274.00,0.91
6273.00,0.91
6272.00,0.91
6271.00,0.91
6270.00,0.91
6269.00,0.91
6268.00,0.92
6267.00,0.92
6266.00,0.92
6265.00,0.92
6264.00,0.92
6263.00,0.92
6262.00,0.92
6261.00,0.93
6260.00,0.93
6259.00,0.93
6258.00,0.93
6257.00,0.93
6256.00,0.93
6255.00,0.94
6254.00,0.94
6253.00,0.94
6252.00,0.94
6251.00,0.94
6250.00,0.94
6249.00,0.94
6248.00,0.94
6247.00,0.95
6246.00,0.95
6245.00,0.95
6244.00,0.95
6243.00,0.95
6242.00,0.95
6241.00,0.95
6240.00,0.95
6239.00,0.95
6238.00,0.95
6237.00,0.95
6236.00,0.95
6235.00,0.96
6234.00,0.96
6233.00,0.96
6232.00,0.96
6231.00,0.96
6230.00,0.96
6229.00,0.96
6228.00,0.96
6227.00,0.96
6226.00,0.97
6225.00,0.97
6224.00,0.97
6223.00,0.97
6222.00,0.97
6221.00,0.97
6220.00,0.97
6219.00,0.97
6218.00,0.97
6217.00,0.97
6216.00,0.97
6215.00,0.97
6214.00,0.97
6213.00,0.98
6212.00,0.98
6211.00,0.98
6210.00,0.98
6209.00,0.98
6208.00,0.98
6207.00,0.98
6206.00,0.99
6205.00,0.99
6204.00,0.99
6203.00,0.99
6202.00,0.99
6201.00,0.99
6200.00,1.00
6199.00,1.00
6198.00,1.00
6197.00,1.00
6196.00,1.00
6195.00,1.00
6194.00,1.00
6193.00,1.00
6192.00,1.01
6191.00,1.01
6190.00,1.01
6189.00,1.01
6188.00,1.01
6187.00,1.01
6186.00,1.01
6185.00,1.01
6184.00,1.02
6183.00,1.02
6182.00,1.02
6181.00,1.02
6180.00,1.02
6179.00,1.02
6178.00,1.02
6177.00,1.03
6176.00,1.03
6175.00,1.03
6174.00,1.03
6173.00,1.03
6172.00,1.03
6171.00,1.03
6170.00,1.04
6169.00,1.04
6168.00,1.04
6167.00,1.04
6166.00,1.04
6165.00,1.05
6164.00,1.05
6163.00,1.05
6162.00,1.05
6161.00,1.05
6160.00,1.06
6159.00,1.06
6158.00,1.06
6157.00,1.06
6156.00,1.06
6155.00,1.06
6154.00,1.07
6153.00,1.07
6152.00,1.07
6151.00,1.07
6150.00,1.07
6149.00,1.07
6148.00,1.07
6147.00,1.07
6146.00,1.07
6145.00,1.08
6144.00,1.08
6143.00,1.08
6142.00,1.08
6141.00,1.08
6140.00,1.08
6139.00,1.08
6138.00,1.09
6137.00,1.09
6136.00,1.09
6135.00,1.09
6134.00,1.09
6133.00,1.09
6132.00,1.10
6131.00,1.10
6130.00,1.10
6129.00,1.10
6128.00,1.10
6127.00,1.11
6126.00,1.11
6125.00,1.11
6124.00,1.11
6123.00,1.11
6122.00,1.11
6121.00,1.12
6120.00,1.12
6119.00,1.12
6118.00,1.12
6117.00,1.12
6116.00,1.12
6115.00,1.13
6114.00,1.13
6113.00,1.13
6112.00,1.13
6111.00,1.13
6110.00,1.13
6109.00,1.13
6108.00,1.14
6107.00,1.14
6106.00,1.14
6105.00,1.14
6104.00,1.14
6103.00,1.14
6102.00,1.14
6101.00,1.14
6100.00,1.15
6099.00,1.15
6098.00,1.15
6097.00,1.15
6096.00,1.15
6095.00,1.15
6094.00,1.15
6093.00,1.15
6092.00,1.16
6091.00,1.16
6090.00,1.16
6089.00,1.16
6088.00,1.16
6087.00,1.16
6086.00,1.16
6085.00,1.17
6084.00,1.17
6083.00,1.17
6082.00,1.17
6081.00,1.17
6080.00,1.17
6079.00,1.17
6078.00,1.17
6077.00,1.17
6076.00,1.17
6075.00,1.18
6074.00,1.18
6073.00,1.18
6072.00,1.18
6071.00,1.18
6070.00,1.18
6069.00,1.18
6068.00,1.18
6067.00,1.18
6066.00,1.18
6065.00,1.18
6064.00,1.19
6063.00,1.19
6062.00,1.19
6061.00,1.19
6060.00,1.19
6059.00,1.19
6058.00,1.19
6057.00,1.20
6056.00,1.20
6055.00,1.20
6054.00,1.20
6053.00,1.20
6052.00,1.20
6051.00,1.20
6050.00,1.20
6049.00,1.20
6048.00,1.21
6047.00,1.21
6046.00,1.21
6045.00,1.21
6044.00,1.21
6043.00,1.21
6042.00,1.21
6041.00,1.21
6040.00,1.21
6039.00,1.21
6038.00,1.21
6037.00,1.21
6036.00,1.21
6035.00,1.22
6034.00,1.22
6033.00,1.22
6032.00,1.22
6031.00,1.22
6030.00,1.22
6029.00,1.22
6028.00,1.22
6027.00,1.22
6026.00,1.22
6025.00,1.22
6024.00,1.22
6023.00,1.22
6022.00,1.22
6021.00,1.22
6020.00,1.22
6019.00,1.22
6018.00,1.22
6017.00,1.22
6016.00,1.22
6015.00,1.22
6014.00,1.22
6013.00,1.22
6012.00,1.22
6011.00,1.22
6010.00,1.22
6009.00,1.21
6008.00,1.21
6007.00,1.21
6006.00,1.21
6005.00,1.21
6004.00,1.21
6003.00,1.21
6002.00,1.21
6001.00,1.21
6000.00,1.21
5999.00,1.21
5998.00,1.21
5997.00,1.21
5996.00,1.21
5995.00,1.21
5994.00,1.21
5993.00,1.21
5992.00,1.20
5991.00,1.20
5990.00,1.20
5989.00,1.20
5988.00,1.20
5987.00,1.20
5986.00,1.19
5985.00,1.19
5984.00,1.19
5983.00,1.19
5982.00,1.18
5981.00,1.18
5980.00,1.17
5979.00,1.17
5978.00,1.17
5977.00,1.16
5976.00,1.16
5975.00,1.15
5974.00,1.15
5973.00,1.14
5972.00,1.14
5971.00,1.13
5970.00,1.13
5969.00,1.12
5968.00,1.11
5967.00,1.11
5966.00,1.10
5965.00,1.09
5964.00,1.09
5963.00,1.08
5962.00,1.07
5961.00,1.07
5960.00,1.06
5959.00,1.05
5958.00,1.05
5957.00,1.04
5956.00,1.03
5955.00,1.03
5954.00,1.02
5953.00,1.01
5952.00,1.01
5951.00,1.00
5950.00,1.00
5949.00,0.99
5948.00,0.99
5947.00,0.98
5946.00,0.98
5945.00,0.97
5944.00,0.97
5943.00,0.96
5942.00,0.96
5941.00,0.96
5940.00,0.96
5939.00,0.95
5938.00,0.95
5937.00,0.95
5936.00,0.95
5935.00,0.95
5934.00,0.94
5933.00,0.94
5932.00,0.94
5931.00,0.94
5930.00,0.94
5929.00,0.94
5928.00,0.94
5927.00,0.94
5926.00,0.93
5925.00,0.93
5924.00,0.93
5923.00,0.93
5922.00,0.93
5921.00,0.93
5920.00,0.92
5919.00,0.92
5918.00,0.92
5917.00,0.92
5916.00,0.92
5915.00,0.92
5914.00,0.91
5913.00,0.91
5912.00,0.91
5911.00,0.91
5910.00,0.91
5909.00,0.91
5908.00,0.90
5907.00,0.90
5906.00,0.90
5905.00,0.90
5904.00,0.90
5903.00,0.90
5902.00,0.90
5901.00,0.90
5900.00,0.90
5899.00,0.90
5898.00,0.90
5897.00,0.90
5896.00,0.90
5895.00,0.91
5894.00,0.91
5893.00,0.91
5892.00,0.91
5891.00,0.91
5890.00,0.92
5889.00,0.92
5888.00,0.92
5887.00,0.92
5886.00,0.93
5885.00,0.93
5884.00,0.93
5883.00,0.94
5882.00,0.94
5881.00,0.94
5880.00,0.94
5879.00,0.95
5878.00,0.95
5877.00,0.95
5876.00,0.95
5875.00,0.96
5874.00,0.96
5873.00,0.96
5872.00,0.96
5871.00,0.96
5870.00,0.97
5869.00,0.97
5868.00,0.97
5867.00,0.97
5866.00,0.97
5865.00,0.97
5864.00,0.97
5863.00,0.98
5862.00,0.98
5861.00,0.98
5860.00,0.98
5859.00,0.98
5858.00,0.98
5857.00,0.98
5856.00,0.98
5855.00,0.99
5854.00,0.99
5853.00,0.99
5852.00,0.99
5851.00,0.99
5850.00,0.99
5849.00,0.99
5848.00,0.99
5847.00,0.99
5846.00,0.99
5845.00,0.99
5844.00,0.99
5843.00,0.99
5842.00,0.99
5841.00,1.00
5840.00,1.00
5839.00,1.00
5838.00,1.00
5837.00,1.00
5836.00,1.00
5835.00,1.00
5834.00,1.00
5833.00,1.00
5832.00,1.00
5831.00,1.00
5830.00,1.00
5829.00,1.00
5828.00,1.00
5827.00,1.00
5826.00,1.00
5825.00,1.00
5824.00,1.00
5823.00,1.00
5822.00,1.00
5821.00,1.00
5820.00,1.00
5819.00,1.00
5818.00,1.00
5817.00,1.00
5816.00,1.00
5815.00,1.00
5814.00,1.00
5813.00,1.00
5812.00,1.00
5811.00,1.00
5810.00,1.00
5809.00,1.00
5808.00,1.00
5807.00,1.00
5806.00,1.00
5805.00,1.00
5804.00,1.00
5803.00,1.00
5802.00,0.99
5801.00,0.99
5800.00,0.99
5799.00,0.99
5798.00,0.99
5797.00,0.99
5796.00,0.99
5795.00,0.99
5794.00,0.98
5793.00,0.98
5792.00,0.98
5791.00,0.98
5790.00,0.98
5789.00,0.97
5788.00,0.97
5787.00,0.97
5786.00,0.97
5785.00,0.96
5784.00,0.96
5783.00,0.96
5782.00,0.96
5781.00,0.96
5780.00,0.95
5779.00,0.95
5778.00,0.95
5777.00,0.95
5776.00,0.95
5775.00,0.95
5774.00,0.95
5773.00,0.95
5772.00,0.95
5771.00,0.95
5770.00,0.95
5769.00,0.95
5768.00,0.95
5767.00,0.95
5766.00,0.95
5765.00,0.95
5764.00,0.96
5763.00,0.96
5762.00,0.96
5761.00,0.96
5760.00,0.97
5759.00,0.97
5758.00,0.97
5757.00,0.98
5756.00,0.98
5755.00,0.98
5754.00,0.99
5753.00,0.99
5752.00,0.99
5751.00,1.00
5750.00,1.00
5749.00,1.00
5748.00,1.01
5747.00,1.01
5746.00,1.01
5745.00,1.02
5744.00,1.02
5743.00,1.02
5742.00,1.03
5741.00,1.03
5740.00,1.03
5739.00,1.04
5738.00,1.04
5737.00,1.04
5736.00,1.04
5735.00,1.05
5734.00,1.05
5733.00,1.05
5732.00,1.05
5731.00,1.06
5730.00,1.06
5729.00,1.06
5728.00,1.06
5727.00,1.06
5726.00,1.06
5725.00,1.06
5724.00,1.06
5723.00,1.06
5722.00,1.07
5721.00,1.07
5720.00,1.07
5719.00,1.07
5718.00,1.07
5717.00,1.07
5716.00,1.07
5715.00,1.07
5714.00,1.07
5713.00,1.07
5712.00,1.07
5711.00,1.07
5710.00,1.07
5709.00,1.07
5708.00,1.07
5707.00,1.07
5706.00,1.07
5705.00,1.07
5704.00,1.07
5703.00,1.06
5702.00,1.06
5701.00,1.06
5700.00,1.06
5699.00,1.06
5698.00,1.06
5697.00,1.06
5696.00,1.06
5695.00,1.06
5694.00,1.06
5693.00,1.06
5692.00,1.06
5691.00,1.06
5690.00,1.05
5689.00,1.05
5688.00,1.05
5687.00,1.05
5686.00,1.05
5685.00,1.05
5684.00,1.05
5683.00,1.05
5682.00,1.04
5681.00,1.04
5680.00,1.04
5679.00,1.04
5678.00,1.04
5677.00,1.04
5676.00,1.04
5675.00,1.04
5674.00,1.04
5673.00,1.04
5672.00,1.04
5671.00,1.04
5670.00,1.04
5669.00,1.04
5668.00,1.04
5667.00,1.04
5666.00,1.04
5665.00,1.05
5664.00,1.05
5663.00,1.05
5662.00,1.05
5661.00,1.05
5660.00,1.05
5659.00,1.05
5658.00,1.06
5657.00,1.06
5656.00,1.06
5655.00,1.06
5654.00,1.06
5653.00,1.06
5652.00,1.07
5651.00,1.07
5650.00,1.07
5649.00,1.07
5648.00,1.08
5647.00,1.08
5646.00,1.08
5645.00,1.09
5644.00,1.09
5643.00,1.09
5642.00,1.09
5641.00,1.09
5640.00,1.10
5639.00,1.10
5638.00,1.10
5637.00,1.10
5636.00,1.10
5635.00,1.10
5634.00,1.11
5633.00,1.11
5632.00,1.11
5631.00,1.11
5630.00,1.11
5629.00,1.11
5628.00,1.11
5627.00,1.11
5626.00,1.12
5625.00,1.12
5624.00,1.12
5623.00,1.12
5622.00,1.12
5621.00,1.12
5620.00,1.12
5619.00,1.13
5618.00,1.13
5617.00,1.13
5616.00,1.13
5615.00,1.13
5614.00,1.14
5613.00,1.14
5612.00,1.14
5611.00,1.14
5610.00,1.14
5609.00,1.15
5608.00,1.15
5607.00,1.15
5606.00,1.15
5605.00,1.16
5604.00,1.16
5603.00,1.16
5602.00,1.16
5601.00,1.17
5600.00,1.17
5599.00,1.17
5598.00,1.17
5597.00,1.17
5596.00,1.18
5595.00,1.18
5594.00,1.18
5593.00,1.18
5592.00,1.18
5591.00,1.18
5590.00,1.19
5589.00,1.19
5588.00,1.19
5587.00,1.19
5586.00,1.19
5585.00,1.19
5584.00,1.19
5583.00,1.20
5582.00,1.20
5581.00,1.20
5580.00,1.20
5579.00,1.20
5578.00,1.20
5577.00,1.20
5576.00,1.20
5575.00,1.21
5574.00,1.21
5573.00,1.21
5572.00,1.21
5571.00,1.21
5570.00,1.21
5569.00,1.21
5568.00,1.21
5567.00,1.21
5566.00,1.22
5565.00,1.22
5564.00,1.22
5563.00,1.22
5562.00,1.22
5561.00,1.22
5560.00,1.22
5559.00,1.23
5558.00,1.23
5557.00,1.23
5556.00,1.23
5555.00,1.23
5554.00,1.23
5553.00,1.23
5552.00,1.24
5551.00,1.24
5550.00,1.24
5549.00,1.24
5548.00,1.24
5547.00,1.24
5546.00,1.25
5545.00,1.25
5544.00,1.25
5543.00,1.25
5542.00,1.25
5541.00,1.26
5540.00,1.26
5539.00,1.26
5538.00,1.26
5537.00,1.26
5536.00,1.26
5535.00,1.26
5534.00,1.27
5533.00,1.27
5532.00,1.27
5531.00,1.27
5530.00,1.27
5529.00,1.27
5528.00,1.27
5527.00,1.27
5526.00,1.27
5525.00,1.27
5524.00,1.27
5523.00,1.27
5522.00,1.27
5521.00,1.27
5520.00,1.27
5519.00,1.27
5518.00,1.27
5517.00,1.27
5516.00,1.27
5515.00,1.27
5514.00,1.27
5513.00,1.27
5512.00,1.27
5511.00,1.27
5510.00,1.27
5509.00,1.27
5508.00,1.27
5507.00,1.28
5506.00,1.28
5505.00,1.28
5504.00,1.28
5503.00,1.28
5502.00,1.28
5501.00,1.28
5500.00,1.28
5499.00,1.28
5498.00,1.28
5497.00,1.28
5496.00,1.28
5495.00,1.28
5494.00,1.28
5493.00,1.29
5492.00,1.29
5491.00,1.29
5490.00,1.29
5489.00,1.29
5488.00,1.29
5487.00,1.29
5486.00,1.30
5485.00,1.30
5484.00,1.30
5483.00,1.30
5482.00,1.30
5481.00,1.30
5480.00,1.30
5479.00,1.31
5478.00,1.31
5477.00,1.31
5476.00,1.31
5475.00,1.31
5474.00,1.31
5473.00,1.31
5472.00,1.31
5471.00,1.31
5470.00,1.31
5469.00,1.32
5468.00,1.32
5467.00,1.32
5466.00,1.32
5465.00,1.32
5464.00,1.32
5463.00,1.33
5462.00,1.33
5461.00,1.33
5460.00,1.33
5459.00,1.33
5458.00,1.33
5457.00,1.33
5456.00,1.34
5455.00,1.34
5454.00,1.34
5453.00,1.34
5452.00,1.34
5451.00,1.34
5450.00,1.34
5449.00,1.34
5448.00,1.34
5447.00,1.34
5446.00,1.34
5445.00,1.34
5444.00,1.34
5443.00,1.34
5442.00,1.34
5441.00,1.34
5440.00,1.34
5439.00,1.34
5438.00,1.34
5437.00,1.34
5436.00,1.34
5435.00,1.34
5434.00,1.34
5433.00,1.34
5432.00,1.34
5431.00,1.34
5430.00,1.34
5429.00,1.34
5428.00,1.34
5427.00,1.34
5426.00,1.34
5425.00,1.34
5424.00,1.34
5423.00,1.34
5422.00,1.34
5421.00,1.34
5420.00,1.34
5419.00,1.34
5418.00,1.34
5417.00,1.34
5416.00,1.34
5415.00,1.34
5414.00,1.34
5413.00,1.34
5412.00,1.34
5411.00,1.34
5410.00,1.34
5409.00,1.34
5408.00,1.34
5407.00,1.34
5406.00,1.34
5405.00,1.34
5404.00,1.34
5403.00,1.34
5402.00,1.34
5401.00,1.34
5400.00,1.33
5399.00,1.33
5398.00,1.33
5397.00,1.33
5396.00,1.33
5395.00,1.33
5394.00,1.33
5393.00,1.32
5392.00,1.32
5391.00,1.32
5390.00,1.32
5389.00,1.32
5388.00,1.31
5387.00,1.31
5386.00,1.31
5385.00,1.30
5384.00,1.30
5383.00,1.30
5382.00,1.30
5381.00,1.29
5380.00,1.29
5379.00,1.28
5378.00,1.28
5377.00,1.28
5376.00,1.27
5375.00,1.27
5374.00,1.27
5373.00,1.26
5372.00,1.26
5371.00,1.26
5370.00,1.25
5369.00,1.25
5368.00,1.24
5367.00,1.24
5366.00,1.23
5365.00,1.23
5364.00,1.22
5363.00,1.21
5362.00,1.21
5361.00,1.20
5360.00,1.19
5359.00,1.19
5358.00,1.18
5357.00,1.17
5356.00,1.16
5355.00,1.15
5354.00,1.15
5353.00,1.14
5352.00,1.13
5351.00,1.12
5350.00,1.11
5349.00,1.10
5348.00,1.09
5347.00,1.08
5346.00,1.08
5345.00,1.07
5344.00,1.06
5343.00,1.05
5342.00,1.04
5341.00,1.03
5340.00,1.03
5339.00,1.02
5338.00,1.01
5337.00,1.00
5336.00,1.00
5335.00,0.99
5334.00,0.98
5333.00,0.97
5332.00,0.96
5331.00,0.96
5330.00,0.95
5329.00,0.94
5328.00,0.94
5327.00,0.93
5326.00,0.92
5325.00,0.91
5324.00,0.91
5323.00,0.90
5322.00,0.90
5321.00,0.89
5320.00,0.88
5319.00,0.88
5318.00,0.87
5317.00,0.86
5316.00,0.86
5315.00,0.85
5314.00,0.85
5313.00,0.84
5312.00,0.84
5311.00,0.83
5310.00,0.83
5309.00,0.82
5308.00,0.82
5307.00,0.82
5306.00,0.81
5305.00,0.81
5304.00,0.81
5303.00,0.80
5302.00,0.80
5301.00,0.80
5300.00,0.80
5299.00,0.80
5298.00,0.79
5297.00,0.79
5296.00,0.79
5295.00,0.79
5294.00,0.79
5293.00,0.79
5292.00,0.79
5291.00,0.79
5290.00,0.78
5289.00,0.78
5288.00,0.78
5287.00,0.78
5286.00,0.78
5285.00,0.78
5284.00,0.78
5283.00,0.78
5282.00,0.78
5281.00,0.78
5280.00,0.78
5279.00,0.78
5278.00,0.78
5277.00,0.78
5276.00,0.78
5275.00,0.78
5274.00,0.78
5273.00,0.78
5272.00,0.78
5271.00,0.78
5270.00,0.78
5269.00,0.78
5268.00,0.78
5267.00,0.78
5266.00,0.78
5265.00,0.78
5264.00,0.78
5263.00,0.78
5262.00,0.78
5261.00,0.78
5260.00,0.78
5259.00,0.78
5258.00,0.78
5257.00,0.78
5256.00,0.78
5255.00,0.78
5254.00,0.78
5253.00,0.78
5252.00,0.78
5251.00,0.78
5250.00,0.78
5249.00,0.78
5248.00,0.78
5247.00,0.78
5246.00,0.78
5245.00,0.78
5244.00,0.78
5243.00,0.78
5242.00,0.78
5241.00,0.78
5240.00,0.78
5239.00,0.79
5238.00,0.79
5237.00,0.79
5236.00,0.79
5235.00,0.79
5234.00,0.79
5233.00,0.79
5232.00,0.79
5231.00,0.79
5230.00,0.79
5229.00,0.79
5228.00,0.79
5227.00,0.79
5226.00,0.79
5225.00,0.79
5224.00,0.79
5223.00,0.79
5222.00,0.79
5221.00,0.79
5220.00,0.79
5219.00,0.79
5218.00,0.79
5217.00,0.79
5216.00,0.79
5215.00,0.79
5214.00,0.79
5213.00,0.79
5212.00,0.79
5211.00,0.79
5210.00,0.79
5209.00,0.79
5208.00,0.79
5207.00,0.79
5206.00,0.79
5205.00,0.79
5204.00,0.79
5203.00,0.80
5202.00,0.80
5201.00,0.80
5200.00,0.80
5199.00,0.80
5198.00,0.80
5197.00,0.80
5196.00,0.80
5195.00,0.80
5194.00,0.80
5193.00,0.81
5192.00,0.81
5191.00,0.81
5190.00,0.81
5189.00,0.81
5188.00,0.81
5187.00,0.81
5186.00,0.81
5185.00,0.81
5184.00,0.81
5183.00,0.81
5182.00,0.81
5181.00,0.81
5180.00,0.81
5179.00,0.81
5178.00,0.81
5177.00,0.81
5176.00,0.81
5175.00,0.81
5174.00,0.81
5173.00,0.81
5172.00,0.81
5171.00,0.81
5170.00,0.81
5169.00,0.81
5168.00,0.81
5167.00,0.81
5166.00,0.81
5165.00,0.81
5164.00,0.81
5163.00,0.81
5162.00,0.81
5161.00,0.81
5160.00,0.81
5159.00,0.81
5158.00,0.81
5157.00,0.81
5156.00,0.81
5155.00,0.81
5154.00,0.81
5153.00,0.81
5152.00,0.81
5151.00,0.81
5150.00,0.81
5149.00,0.81
5148.00,0.81
5147.00,0.81
5146.00,0.81
5145.00,0.81
5144.00,0.81
5143.00,0.81
5142.00,0.81
5141.00,0.81
5140.00,0.82
5139.00,0.82
5138.00,0.82
5137.00,0.82
5136.00,0.82
5135.00,0.82
5134.00,0.82
5133.00,0.82
5132.00,0.82
5131.00,0.82
5130.00,0.83
5129.00,0.83
5128.00,0.83
5127.00,0.83
5126.00,0.83
5125.00,0.83
5124.00,0.83
5123.00,0.83
5122.00,0.83
5121.00,0.83
5120.00,0.83
5119.00,0.83
5118.00,0.83
5117.00,0.83
5116.00,0.83
5115.00,0.83
5114.00,0.83
5113.00,0.84
5112.00,0.84
5111.00,0.84
5110.00,0.84
5109.00,0.84
5108.00,0.84
5107.00,0.84
5106.00,0.84
5105.00,0.84
5104.00,0.84
5103.00,0.84
5102.00,0.84
5101.00,0.84
5100.00,0.85
5099.00,0.85
5098.00,0.85
5097.00,0.85
5096.00,0.85
5095.00,0.85
5094.00,0.85
5093.00,0.85
5092.00,0.85
5091.00,0.84
5090.00,0.84
5089.00,0.85
5088.00,0.85
5087.00,0.85
5086.00,0.85
5085.00,0.85
5084.00,0.85
5083.00,0.85
5082.00,0.85
5081.00,0.85
5080.00,0.85
5079.00,0.85
5078.00,0.85
5077.00,0.85
5076.00,0.85
5075.00,0.85
5074.00,0.85
5073.00,0.85
5072.00,0.86
5071.00,0.86
5070.00,0.86
5069.00,0.86
5068.00,0.86
5067.00,0.86
5066.00,0.86
5065.00,0.86
5064.00,0.86
5063.00,0.86
5062.00,0.86
5061.00,0.86
5060.00,0.86
5059.00,0.86
5058.00,0.86
5057.00,0.86
5056.00,0.86
5055.00,0.86
5054.00,0.86
5053.00,0.86
5052.00,0.86
5051.00,0.86
5050.00,0.86
5049.00,0.86
5048.00,0.86
5047.00,0.86
5046.00,0.86
5045.00,0.86
5044.00,0.86
5043.00,0.86
5042.00,0.87
5041.00,0.87
5040.00,0.87
5039.00,0.87
5038.00,0.87
5037.00,0.87
5036.00,0.87
5035.00,0.87
5034.00,0.87
5033.00,0.87
5032.00,0.87
5031.00,0.87
5030.00,0.87
5029.00,0.87
5028.00,0.87
5027.00,0.88
5026.00,0.88
5025.00,0.88
5024.00,0.88
5023.00,0.88
5022.00,0.88
5021.00,0.88
5020.00,0.88
5019.00,0.88
5018.00,0.88
5017.00,0.89
5016.00,0.89
5015.00,0.89
5014.00,0.89
5013.00,0.89
5012.00,0.89
5011.00,0.89
5010.00,0.89
5009.00,0.89
5008.00,0.89
5007.00,0.89
5006.00,0.89
5005.00,0.89
5004.00,0.89
5003.00,0.89
5002.00,0.89
5001.00,0.89
5000.00,0.89
4999.00,0.89
4998.00,0.89
4997.00,0.89
4996.00,0.89
4995.00,0.89
4994.00,0.89
4993.00,0.89
4992.00,0.89
4991.00,0.89
4990.00,0.90
4989.00,0.90
4988.00,0.90
4987.00,0.90
4986.00,0.90
4985.00,0.90
4984.00,0.90
4983.00,0.90
4982.00,0.90
4981.00,0.90
4980.00,0.90
4979.00,0.90
4978.00,0.91
4977.00,0.91
4976.00,0.91
4975.00,0.91
4974.00,0.91
4973.00,0.91
4972.00,0.91
4971.00,0.91
4970.00,0.91
4969.00,0.91
4968.00,0.91
4967.00,0.91
4966.00,0.91
4965.00,0.91
4964.00,0.91
4963.00,0.91
4962.00,0.91
4961.00,0.91
4960.00,0.91
4959.00,0.91
4958.00,0.91
4957.00,0.91
4956.00,0.91
4955.00,0.92
4954.00,0.92
4953.00,0.92
4952.00,0.92
4951.00,0.92
4950.00,0.92
4949.00,0.92
4948.00,0.92
4947.00,0.93
4946.00,0.93
4945.00,0.93
4944.00,0.93
4943.00,0.93
4942.00,0.93
4941.00,0.93
4940.00,0.93
4939.00,0.93
4938.00,0.93
4937.00,0.93
4936.00,0.93
4935.00,0.93
4934.00,0.93
4933.00,0.93
4932.00,0.93
4931.00,0.93
4930.00,0.93
4929.00,0.93
4928.00,0.93
4927.00,0.93
4926.00,0.93
4925.00,0.93
4924.00,0.93
4923.00,0.93
4922.00,0.93
4921.00,0.93
4920.00,0.93
4919.00,0.93
4918.00,0.93
4917.00,0.94
4916.00,0.94
4915.00,0.94
4914.00,0.94
4913.00,0.94
4912.00,0.94
4911.00,0.94
4910.00,0.94
4909.00,0.94
4908.00,0.94
4907.00,0.94
4906.00,0.94
4905.00,0.94
4904.00,0.94
4903.00,0.94
4902.00,0.94
4901.00,0.94
4900.00,0.95
4899.00,0.95
4898.00,0.95
4897.00,0.95
4896.00,0.95
4895.00,0.95
4894.00,0.95
4893.00,0.95
4892.00,0.95
4891.00,0.95
4890.00,0.95
4889.00,0.95
4888.00,0.95
4887.00,0.95
4886.00,0.95
4885.00,0.95
4884.00,0.95
4883.00,0.95
4882.00,0.96
4881.00,0.96
4880.00,0.96
4879.00,0.96
4878.00,0.96
4877.00,0.96
4876.00,0.96
4875.00,0.96
4874.00,0.96
4873.00,0.96
4872.00,0.96
4871.00,0.96
4870.00,0.96
4869.00,0.96
4868.00,0.96
4867.00,0.96
4866.00,0.97
4865.00,0.97
4864.00,0.97
4863.00,0.97
4862.00,0.97
4861.00,0.97
4860.00,0.97
4859.00,0.97
4858.00,0.97
4857.00,0.97
4856.00,0.97
4855.00,0.97
4854.00,0.97
4853.00,0.97
4852.00,0.97
4851.00,0.97
4850.00,0.97
4849.00,0.97
4848.00,0.97
4847.00,0.98
4846.00,0.98
4845.00,0.98
4844.00,0.98
4843.00,0.98
4842.00,0.98
4841.00,0.98
4840.00,0.98
4839.00,0.98
4838.00,0.98
4837.00,0.98
4836.00,0.98
4835.00,0.98
4834.00,0.98
4833.00,0.98
4832.00,0.98
4831.00,0.98
4830.00,0.98
4829.00,0.98
4828.00,0.98
4827.00,0.98
4826.00,0.98
4825.00,0.98
4824.00,0.98
4823.00,0.98
4822.00,0.98
4821.00,0.98
4820.00,0.98
4819.00,0.98
4818.00,0.98
4817.00,0.98
4816.00,0.98
4815.00,0.98
4814.00,0.98
4813.00,0.98
4812.00,0.98
4811.00,0.98
4810.00,0.98
4809.00,0.98
4808.00,0.98
4807.00,0.98
4806.00,0.98
4805.00,0.98
4804.00,0.98
4803.00,0.98
4802.00,0.98
4801.00,0.99
4800.00,0.99
4799.00,0.99
4798.00,0.99
4797.00,0.99
4796.00,0.99
4795.00,0.99
4794.00,1.00
4793.00,1.00
4792.00,1.00
4791.00,1.00
4790.00,1.00
4789.00,1.00
4788.00,1.00
4787.00,1.00
4786.00,1.00
4785.00,1.00
4784.00,1.00
4783.00,1.01
4782.00,1.01
4781.00,1.01
4780.00,1.01
4779.00,1.01
4778.00,1.01
4777.00,1.01
4776.00,1.01
4775.00,1.01
4774.00,1.01
4773.00,1.01
4772.00,1.01
4771.00,1.01
4770.00,1.01
4769.00,1.01
4768.00,1.01
4767.00,1.01
4766.00,1.02
4765.00,1.02
4764.00,1.02
4763.00,1.02
4762.00,1.02
4761.00,1.02
4760.00,1.02
4759.00,1.02
4758.00,1.02
4757.00,1.02
4756.00,1.02
4755.00,1.02
4754.00,1.02
4753.00,1.02
4752.00,1.02
4751.00,1.03
4750.00,1.03
4749.00,1.03
4748.00,1.03
4747.00,1.03
4746.00,1.03
4745.00,1.03
4744.00,1.03
4743.00,1.03
4742.00,1.03
4741.00,1.03
4740.00,1.03
4739.00,1.04
4738.00,1.04
4737.00,1.04
4736.00,1.04
4735.00,1.04
4734.00,1.04
4733.00,1.04
4732.00,1.04
4731.00,1.04
4730.00,1.04
4729.00,1.04
4728.00,1.04
4727.00,1.04
4726.00,1.04
4725.00,1.04
4724.00,1.04
4723.00,1.04
4722.00,1.04
4721.00,1.04
4720.00,1.04
4719.00,1.04
4718.00,1.04
4717.00,1.04
4716.00,1.04
4715.00,1.04
4714.00,1.05
4713.00,1.05
4712.00,1.05
4711.00,1.05
4710.00,1.05
4709.00,1.05
4708.00,1.05
4707.00,1.05
4706.00,1.05
4705.00,1.05
4704.00,1.05
4703.00,1.05
4702.00,1.05
4701.00,1.05
4700.00,1.05
4699.00,1.05
4698.00,1.05
4697.00,1.05
4696.00,1.05
4695.00,1.05
4694.00,1.06
4693.00,1.06
4692.00,1.06
4691.00,1.06
4690.00,1.06
4689.00,1.06
4688.00,1.06
4687.00,1.06
4686.00,1.06
4685.00,1.06
4684.00,1.07
4683.00,1.07
4682.00,1.07
4681.00,1.07
4680.00,1.07
4679.00,1.07
4678.00,1.08
4677.00,1.08
4676.00,1.08
4675.00,1.08
4674.00,1.08
4673.00,1.08
4672.00,1.08
4671.00,1.09
4670.00,1.09
4669.00,1.09
4668.00,1.09
4667.00,1.09
4666.00,1.09
4665.00,1.09
4664.00,1.09
4663.00,1.09
4662.00,1.09
4661.00,1.09
4660.00,1.09
4659.00,1.09
4658.00,1.09
4657.00,1.09
4656.00,1.09
4655.00,1.09
4654.00,1.09
4653.00,1.09
4652.00,1.09
4651.00,1.09
4650.00,1.09
4649.00,1.09
4648.00,1.09
4647.00,1.09
4646.00,1.09
4645.00,1.09
4644.00,1.09
4643.00,1.09
4642.00,1.09
4641.00,1.09
4640.00,1.09
4639.00,1.09
4638.00,1.09
4637.00,1.10
4636.00,1.10
4635.00,1.10
4634.00,1.10
4633.00,1.10
4632.00,1.10
4631.00,1.10
4630.00,1.10
4629.00,1.10
4628.00,1.10
4627.00,1.10
4626.00,1.10
4625.00,1.11
4624.00,1.11
4623.00,1.11
4622.00,1.11
4621.00,1.11
4620.00,1.11
4619.00,1.11
4618.00,1.12
4617.00,1.12
4616.00,1.12
4615.00,1.12
4614.00,1.12
4613.00,1.12
4612.00,1.12
4611.00,1.12
4610.00,1.12
4609.00,1.12
4608.00,1.12
4607.00,1.12
4606.00,1.12
4605.00,1.12
4604.00,1.12
4603.00,1.12
4602.00,1.12
4601.00,1.12
4600.00,1.12
4599.00,1.12
4598.00,1.13
4597.00,1.13
4596.00,1.13
4595.00,1.13
4594.00,1.13
4593.00,1.13
4592.00,1.13
4591.00,1.13
4590.00,1.14
4589.00,1.14
4588.00,1.14
4587.00,1.14
4586.00,1.14
4585.00,1.14
4584.00,1.14
4583.00,1.14
4582.00,1.14
4581.00,1.15
4580.00,1.15
4579.00,1.15
4578.00,1.15
4577.00,1.15
4576.00,1.15
4575.00,1.15
4574.00,1.15
4573.00,1.15
4572.00,1.15
4571.00,1.15
4570.00,1.15
4569.00,1.15
4568.00,1.15
4567.00,1.15
4566.00,1.15
4565.00,1.15
4564.00,1.15
4563.00,1.15
4562.00,1.15
4561.00,1.15
4560.00,1.15
4559.00,1.15
4558.00,1.15
4557.00,1.15
4556.00,1.15
4555.00,1.15
4554.00,1.15
4553.00,1.15
4552.00,1.15
4551.00,1.16
4550.00,1.16
4549.00,1.16
4548.00,1.16
4547.00,1.16
4546.00,1.16
4545.00,1.16
4544.00,1.16
4543.00,1.16
4542.00,1.16
4541.00,1.16
4540.00,1.16
4539.00,1.16
4538.00,1.16
4537.00,1.16
4536.00,1.16
4535.00,1.16
4534.00,1.16
4533.00,1.16
4532.00,1.16
4531.00,1.16
4530.00,1.16
4529.00,1.16
4528.00,1.16
4527.00,1.16
4526.00,1.16
4525.00,1.17
4524.00,1.17
4523.00,1.17
4522.00,1.17
4521.00,1.17
4520.00,1.17
4519.00,1.17
4518.00,1.17
4517.00,1.17
4516.00,1.17
4515.00,1.17
4514.00,1.17
4513.00,1.17
4512.00,1.17
4511.00,1.17
4510.00,1.17
4509.00,1.17
4508.00,1.17
4507.00,1.17
4506.00,1.17
4505.00,1.17
4504.00,1.17
4503.00,1.17
4502.00,1.17
4501.00,1.17
4500.00,1.17
4499.00,1.17
4498.00,1.17
4497.00,1.17
4496.00,1.17
4495.00,1.17
4494.00,1.17
4493.00,1.17
4492.00,1.17
4491.00,1.17
4490.00,1.16
4489.00,1.16
4488.00,1.16
4487.00,1.16
4486.00,1.16
4485.00,1.16
4484.00,1.16
4483.00,1.16
4482.00,1.16
4481.00,1.16
4480.00,1.16
4479.00,1.16
4478.00,1.16
4477.00,1.16
4476.00,1.16
4475.00,1.16
4474.00,1.16
4473.00,1.16
4472.00,1.16
4471.00,1.16
4470.00,1.16
4469.00,1.16
4468.00,1.16
4467.00,1.16
4466.00,1.15
4465.00,1.15
4464.00,1.15
4463.00,1.15
4462.00,1.15
4461.00,1.15
4460.00,1.15
4459.00,1.15
4458.00,1.15
4457.00,1.15
4456.00,1.15
4455.00,1.14
4454.00,1.14
4453.00,1.14
4452.00,1.14
4451.00,1.14
4450.00,1.14
4449.00,1.14
4448.00,1.13
4447.00,1.13
4446.00,1.13
4445.00,1.13
4444.00,1.13
4443.00,1.13
4442.00,1.13
4441.00,1.12
4440.00,1.12
4439.00,1.12
4438.00,1.12
4437.00,1.12
4436.00,1.12
4435.00,1.12
4434.00,1.12
4433.00,1.12
4432.00,1.13
4431.00,1.13
4430.00,1.13
4429.00,1.13
4428.00,1.13
4427.00,1.13
4426.00,1.13
4425.00,1.13
4424.00,1.13
4423.00,1.13
4422.00,1.13
4421.00,1.13
4420.00,1.13
4419.00,1.13
4418.00,1.13
4417.00,1.13
4416.00,1.13
4415.00,1.13
4414.00,1.12
4413.00,1.12
4412.00,1.12
4411.00,1.12
4410.00,1.12
4409.00,1.12
4408.00,1.12
4407.00,1.12
4406.00,1.12
4405.00,1.12
4404.00,1.12
4403.00,1.12
4402.00,1.12
4401.00,1.12
4400.00,1.12
4399.00,1.13
4398.00,1.13
4397.00,1.13
4396.00,1.13
4395.00,1.13
4394.00,1.13
4393.00,1.13
4392.00,1.13
4391.00,1.13
4390.00,1.13
4389.00,1.13
4388.00,1.13
4387.00,1.13
4386.00,1.13
4385.00,1.13
4384.00,1.14
4383.00,1.14
4382.00,1.14
4381.00,1.14
4380.00,1.14
4379.00,1.14
4378.00,1.14
4377.00,1.14
4376.00,1.14
4375.00,1.14
4374.00,1.14
4373.00,1.15
4372.00,1.15
4371.00,1.15
4370.00,1.15
4369.00,1.15
4368.00,1.15
4367.00,1.16
4366.00,1.16
4365.00,1.16
4364.00,1.16
4363.00,1.16
4362.00,1.16
4361.00,1.17
4360.00,1.17
4359.00,1.17
4358.00,1.17
4357.00,1.17
4356.00,1.17
4355.00,1.17
4354.00,1.17
4353.00,1.17
4352.00,1.17
4351.00,1.17
4350.00,1.17
4349.00,1.17
4348.00,1.17
4347.00,1.17
4346.00,1.17
4345.00,1.17
4344.00,1.17
4343.00,1.17
4342.00,1.17
4341.00,1.17
4340.00,1.17
4339.00,1.17
4338.00,1.17
4337.00,1.17
4336.00,1.17
4335.00,1.17
4334.00,1.17
4333.00,1.17
4332.00,1.17
4331.00,1.17
4330.00,1.17
4329.00,1.17
4328.00,1.17
4327.00,1.17
4326.00,1.17
4325.00,1.17
4324.00,1.17
4323.00,1.17
4322.00,1.17
4321.00,1.17
4320.00,1.17
4319.00,1.18
4318.00,1.18
4317.00,1.18
4316.00,1.18
4315.00,1.18
4314.00,1.18
4313.00,1.18
4312.00,1.19
4311.00,1.19
4310.00,1.19
4309.00,1.19
4308.00,1.19
4307.00,1.19
4306.00,1.19
4305.00,1.19
4304.00,1.19
4303.00,1.19
4302.00,1.19
4301.00,1.19
4300.00,1.20
4299.00,1.20
4298.00,1.20
4297.00,1.19
4296.00,1.19
4295.00,1.19
4294.00,1.19
4293.00,1.19
4292.00,1.19
4291.00,1.19
4290.00,1.19
4289.00,1.19
4288.00,1.19
4287.00,1.19
4286.00,1.19
4285.00,1.19
4284.00,1.19
4283.00,1.20
4282.00,1.20
4281.00,1.20
4280.00,1.20
4279.00,1.20
4278.00,1.20
4277.00,1.20
4276.00,1.20
4275.00,1.20
4274.00,1.21
4273.00,1.21
4272.00,1.21
4271.00,1.21
4270.00,1.21
4269.00,1.21
4268.00,1.21
4267.00,1.21
4266.00,1.21
4265.00,1.21
4264.00,1.21
4263.00,1.20
4262.00,1.20
4261.00,1.20
4260.00,1.20
4259.00,1.20
4258.00,1.20
4257.00,1.20
4256.00,1.20
4255.00,1.20
4254.00,1.20
4253.00,1.20
4252.00,1.20
4251.00,1.21
4250.00,1.21
4249.00,1.21
4248.00,1.21
4247.00,1.21
4246.00,1.21
4245.00,1.21
4244.00,1.21
4243.00,1.21
4242.00,1.21
4241.00,1.22
4240.00,1.22
4239.00,1.22
4238.00,1.22
4237.00,1.22
4236.00,1.22
4235.00,1.22
4234.00,1.22
4233.00,1.22
4232.00,1.23
4231.00,1.23
4230.00,1.23
4229.00,1.23
4228.00,1.23
4227.00,1.23
4226.00,1.23
4225.00,1.24
4224.00,1.24
4223.00,1.24
4222.00,1.24
4221.00,1.24
4220.00,1.24
4219.00,1.24
4218.00,1.24
4217.00,1.24
4216.00,1.24
4215.00,1.24
4214.00,1.25
4213.00,1.25
4212.00,1.25
4211.00,1.25
4210.00,1.25
4209.00,1.25
4208.00,1.25
4207.00,1.25
4206.00,1.25
4205.00,1.25
4204.00,1.25
4203.00,1.25
4202.00,1.25
4201.00,1.26
4200.00,1.26
4199.00,1.26
4198.00,1.26
4197.00,1.26
4196.00,1.26
4195.00,1.26
4194.00,1.26
4193.00,1.26
4192.00,1.26
4191.00,1.26
4190.00,1.26
4189.00,1.27
4188.00,1.27
4187.00,1.27
4186.00,1.27
4185.00,1.27
4184.00,1.27
4183.00,1.27
4182.00,1.27
4181.00,1.27
4180.00,1.27
4179.00,1.27
4178.00,1.27
4177.00,1.27
4176.00,1.27
4175.00,1.27
4174.00,1.27
4173.00,1.27
4172.00,1.27
4171.00,1.27
4170.00,1.27
4169.00,1.27
4168.00,1.27
4167.00,1.27
4166.00,1.27
4165.00,1.27
4164.00,1.27
4163.00,1.27
4162.00,1.27
4161.00,1.27
4160.00,1.27
4159.00,1.27
4158.00,1.27
4157.00,1.27
4156.00,1.27
4155.00,1.27
4154.00,1.27
4153.00,1.27
4152.00,1.27
4151.00,1.27
4150.00,1.26
4149.00,1.26
4148.00,1.26
4147.00,1.26
4146.00,1.26
4145.00,1.26
4144.00,1.27
4143.00,1.27
4142.00,1.27
4141.00,1.27
4140.00,1.27
4139.00,1.27
4138.00,1.27
4137.00,1.27
4136.00,1.27
4135.00,1.27
4134.00,1.28
4133.00,1.28
4132.00,1.28
4131.00,1.28
4130.00,1.28
4129.00,1.29
4128.00,1.29
4127.00,1.29
4126.00,1.29
4125.00,1.29
4124.00,1.29
4123.00,1.30
4122.00,1.30
4121.00,1.30
4120.00,1.30
4119.00,1.30
4118.00,1.30
4117.00,1.30
4116.00,1.30
4115.00,1.30
4114.00,1.30
4113.00,1.30
4112.00,1.30
4111.00,1.30
4110.00,1.30
4109.00,1.30
4108.00,1.30
4107.00,1.30
4106.00,1.30
4105.00,1.30
4104.00,1.30
4103.00,1.30
4102.00,1.30
4101.00,1.30
4100.00,1.30
4099.00,1.30
4098.00,1.30
4097.00,1.30
4096.00,1.30
4095.00,1.30
4094.00,1.30
4093.00,1.30
4092.00,1.30
4091.00,1.30
4090.00,1.30
4089.00,1.30
4088.00,1.30
4087.00,1.30
4086.00,1.30
4085.00,1.30
4084.00,1.30
4083.00,1.30
4082.00,1.30
4081.00,1.31
4080.00,1.31
4079.00,1.31
4078.00,1.31
4077.00,1.30
4076.00,1.30
4075.00,1.30
4074.00,1.30
4073.00,1.30
4072.00,1.30
4071.00,1.30
4070.00,1.30
4069.00,1.30
4068.00,1.30
4067.00,1.31
4066.00,1.31
4065.00,1.31
4064.00,1.31
4063.00,1.31
4062.00,1.31
4061.00,1.31
4060.00,1.31
4059.00,1.32
4058.00,1.32
4057.00,1.32
4056.00,1.32
4055.00,1.32
4054.00,1.32
4053.00,1.32
4052.00,1.33
4051.00,1.33
4050.00,1.33
4049.00,1.33
4048.00,1.33
4047.00,1.33
4046.00,1.33
4045.00,1.33
4044.00,1.33
4043.00,1.33
4042.00,1.33
4041.00,1.33
4040.00,1.33
4039.00,1.33
4038.00,1.33
4037.00,1.33
4036.00,1.33
4035.00,1.33
4034.00,1.33
4033.00,1.32
4032.00,1.32
4031.00,1.32
4030.00,1.32
4029.00,1.32
4028.00,1.32
4027.00,1.32
4026.00,1.32
4025.00,1.32
4024.00,1.32
4023.00,1.32
4022.00,1.32
4021.00,1.32
4020.00,1.32
4019.00,1.32
4018.00,1.32
4017.00,1.32
4016.00,1.32
4015.00,1.32
4014.00,1.32
4013.00,1.32
4012.00,1.32
4011.00,1.32
4010.00,1.32
4009.00,1.32
4008.00,1.33
4007.00,1.33
4006.00,1.33
4005.00,1.33
4004.00,1.34
4003.00,1.34
4002.00,1.34
4001.00,1.34
4000.00,1.35
