创建为新数据集,样品 291 用户 Administrator 日期 星期日, 七月 22 2018
cm-1,%T
10000.00,1.51
9999.00,1.51
9998.00,1.51
9997.00,1.50
9996.00,1.50
9995.00,1.50
9994.00,1.50
9993.00,1.50
9992.00,1.50
9991.00,1.50
9990.00,1.50
9989.00,1.50
9988.00,1.50
9987.00,1.50
9986.00,1.50
9985.00,1.50
9984.00,1.50
9983.00,1.50
9982.00,1.50
9981.00,1.50
9980.00,1.50
9979.00,1.50
9978.00,1.50
9977.00,1.50
9976.00,1.50
9975.00,1.50
9974.00,1.50
9973.00,1.50
9972.00,1.50
9971.00,1.50
9970.00,1.50
9969.00,1.50
9968.00,1.50
9967.00,1.50
9966.00,1.50
9965.00,1.50
9964.00,1.50
9963.00,1.50
9962.00,1.50
9961.00,1.50
9960.00,1.50
9959.00,1.50
9958.00,1.50
9957.00,1.50
9956.00,1.49
9955.00,1.49
9954.00,1.49
9953.00,1.49
9952.00,1.49
9951.00,1.49
9950.00,1.49
9949.00,1.49
9948.00,1.49
9947.00,1.49
9946.00,1.49
9945.00,1.49
9944.00,1.49
9943.00,1.49
9942.00,1.49
9941.00,1.49
9940.00,1.49
9939.00,1.49
9938.00,1.49
9937.00,1.49
9936.00,1.49
9935.00,1.50
9934.00,1.50
9933.00,1.50
9932.00,1.50
9931.00,1.50
9930.00,1.50
9929.00,1.50
9928.00,1.50
9927.00,1.50
9926.00,1.50
9925.00,1.50
9924.00,1.49
9923.00,1.49
9922.00,1.49
9921.00,1.49
9920.00,1.48
9919.00,1.48
9918.00,1.48
9917.00,1.48
9916.00,1.48
9915.00,1.48
9914.00,1.47
9913.00,1.47
9912.00,1.47
9911.00,1.48
9910.00,1.48
9909.00,1.48
9908.00,1.48
9907.00,1.48
9906.00,1.48
9905.00,1.49
9904.00,1.49
9903.00,1.49
9902.00,1.49
9901.00,1.49
9900.00,1.50
9899.00,1.50
9898.00,1.50
9897.00,1.50
9896.00,1.50
9895.00,1.50
9894.00,1.50
9893.00,1.50
9892.00,1.50
9891.00,1.49
9890.00,1.49
9889.00,1.49
9888.00,1.49
9887.00,1.48
9886.00,1.48
9885.00,1.48
9884.00,1.48
9883.00,1.48
9882.00,1.47
9881.00,1.47
9880.00,1.47
9879.00,1.48
9878.00,1.48
9877.00,1.48
9876.00,1.48
9875.00,1.48
9874.00,1.49
9873.00,1.49
9872.00,1.49
9871.00,1.49
9870.00,1.50
9869.00,1.50
9868.00,1.50
9867.00,1.50
9866.00,1.50
9865.00,1.50
9864.00,1.50
9863.00,1.50
9862.00,1.50
9861.00,1.50
9860.00,1.50
9859.00,1.50
9858.00,1.50
9857.00,1.50
9856.00,1.49
9855.00,1.49
9854.00,1.49
9853.00,1.49
9852.00,1.49
9851.00,1.49
9850.00,1.48
9849.00,1.48
9848.00,1.48
9847.00,1.48
9846.00,1.48
9845.00,1.48
9844.00,1.48
9843.00,1.48
9842.00,1.48
9841.00,1.48
9840.00,1.48
9839.00,1.48
9838.00,1.48
9837.00,1.48
9836.00,1.48
9835.00,1.48
9834.00,1.48
9833.00,1.48
9832.00,1.48
9831.00,1.48
9830.00,1.48
9829.00,1.48
9828.00,1.48
9827.00,1.48
9826.00,1.48
9825.00,1.48
9824.00,1.48
9823.00,1.48
9822.00,1.48
9821.00,1.48
9820.00,1.48
9819.00,1.48
9818.00,1.48
9817.00,1.47
9816.00,1.47
9815.00,1.47
9814.00,1.47
9813.00,1.48
9812.00,1.48
9811.00,1.48
9810.00,1.48
9809.00,1.48
9808.00,1.48
9807.00,1.48
9806.00,1.48
9805.00,1.48
9804.00,1.48
9803.00,1.48
9802.00,1.48
9801.00,1.48
9800.00,1.48
9799.00,1.48
9798.00,1.47
9797.00,1.47
9796.00,1.47
9795.00,1.47
9794.00,1.47
9793.00,1.46
9792.00,1.46
9791.00,1.46
9790.00,1.46
9789.00,1.46
9788.00,1.45
9787.00,1.45
9786.00,1.45
9785.00,1.45
9784.00,1.45
9783.00,1.45
9782.00,1.46
9781.00,1.46
9780.00,1.46
9779.00,1.46
9778.00,1.46
9777.00,1.47
9776.00,1.47
9775.00,1.47
9774.00,1.47
9773.00,1.48
9772.00,1.48
9771.00,1.48
9770.00,1.48
9769.00,1.48
9768.00,1.48
9767.00,1.48
9766.00,1.48
9765.00,1.48
9764.00,1.48
9763.00,1.48
9762.00,1.48
9761.00,1.48
9760.00,1.48
9759.00,1.48
9758.00,1.47
9757.00,1.47
9756.00,1.47
9755.00,1.47
9754.00,1.46
9753.00,1.46
9752.00,1.46
9751.00,1.46
9750.00,1.46
9749.00,1.46
9748.00,1.46
9747.00,1.46
9746.00,1.46
9745.00,1.46
9744.00,1.46
9743.00,1.46
9742.00,1.46
9741.00,1.46
9740.00,1.46
9739.00,1.46
9738.00,1.46
9737.00,1.46
9736.00,1.46
9735.00,1.46
9734.00,1.46
9733.00,1.46
9732.00,1.46
9731.00,1.46
9730.00,1.46
9729.00,1.47
9728.00,1.47
9727.00,1.47
9726.00,1.47
9725.00,1.47
9724.00,1.47
9723.00,1.47
9722.00,1.47
9721.00,1.47
9720.00,1.47
9719.00,1.47
9718.00,1.47
9717.00,1.47
9716.00,1.47
9715.00,1.47
9714.00,1.47
9713.00,1.47
9712.00,1.47
9711.00,1.47
9710.00,1.47
9709.00,1.47
9708.00,1.47
9707.00,1.47
9706.00,1.47
9705.00,1.47
9704.00,1.47
9703.00,1.47
9702.00,1.47
9701.00,1.47
9700.00,1.47
9699.00,1.47
9698.00,1.48
9697.00,1.48
9696.00,1.48
9695.00,1.48
9694.00,1.48
9693.00,1.48
9692.00,1.49
9691.00,1.49
9690.00,1.49
9689.00,1.49
9688.00,1.49
9687.00,1.50
9686.00,1.50
9685.00,1.50
9684.00,1.50
9683.00,1.50
9682.00,1.50
9681.00,1.51
9680.00,1.51
9679.00,1.51
9678.00,1.50
9677.00,1.50
9676.00,1.50
9675.00,1.50
9674.00,1.50
9673.00,1.50
9672.00,1.50
9671.00,1.49
9670.00,1.49
9669.00,1.49
9668.00,1.49
9667.00,1.49
9666.00,1.49
9665.00,1.49
9664.00,1.49
9663.00,1.49
9662.00,1.49
9661.00,1.49
9660.00,1.49
9659.00,1.49
9658.00,1.49
9657.00,1.49
9656.00,1.49
9655.00,1.49
9654.00,1.49
9653.00,1.49
9652.00,1.49
9651.00,1.49
9650.00,1.48
9649.00,1.48
9648.00,1.48
9647.00,1.48
9646.00,1.48
9645.00,1.48
9644.00,1.48
9643.00,1.48
9642.00,1.48
9641.00,1.48
9640.00,1.48
9639.00,1.48
9638.00,1.48
9637.00,1.48
9636.00,1.48
9635.00,1.48
9634.00,1.48
9633.00,1.48
9632.00,1.48
9631.00,1.48
9630.00,1.47
9629.00,1.47
9628.00,1.47
9627.00,1.47
9626.00,1.47
9625.00,1.48
9624.00,1.48
9623.00,1.48
9622.00,1.48
9621.00,1.48
9620.00,1.48
9619.00,1.48
9618.00,1.48
9617.00,1.49
9616.00,1.49
9615.00,1.49
9614.00,1.49
9613.00,1.49
9612.00,1.50
9611.00,1.50
9610.00,1.50
9609.00,1.50
9608.00,1.50
9607.00,1.50
9606.00,1.50
9605.00,1.50
9604.00,1.50
9603.00,1.50
9602.00,1.50
9601.00,1.50
9600.00,1.49
9599.00,1.49
9598.00,1.49
9597.00,1.49
9596.00,1.49
9595.00,1.49
9594.00,1.49
9593.00,1.49
9592.00,1.48
9591.00,1.48
9590.00,1.48
9589.00,1.48
9588.00,1.48
9587.00,1.48
9586.00,1.49
9585.00,1.49
9584.00,1.49
9583.00,1.49
9582.00,1.49
9581.00,1.49
9580.00,1.49
9579.00,1.49
9578.00,1.49
9577.00,1.49
9576.00,1.49
9575.00,1.49
9574.00,1.49
9573.00,1.48
9572.00,1.48
9571.00,1.48
9570.00,1.48
9569.00,1.48
9568.00,1.48
9567.00,1.48
9566.00,1.47
9565.00,1.47
9564.00,1.47
9563.00,1.47
9562.00,1.47
9561.00,1.47
9560.00,1.47
9559.00,1.47
9558.00,1.47
9557.00,1.47
9556.00,1.47
9555.00,1.47
9554.00,1.47
9553.00,1.48
9552.00,1.48
9551.00,1.48
9550.00,1.48
9549.00,1.48
9548.00,1.48
9547.00,1.49
9546.00,1.49
9545.00,1.49
9544.00,1.49
9543.00,1.49
9542.00,1.49
9541.00,1.49
9540.00,1.49
9539.00,1.48
9538.00,1.48
9537.00,1.48
9536.00,1.48
9535.00,1.48
9534.00,1.48
9533.00,1.47
9532.00,1.47
9531.00,1.47
9530.00,1.47
9529.00,1.47
9528.00,1.47
9527.00,1.47
9526.00,1.47
9525.00,1.47
9524.00,1.47
9523.00,1.47
9522.00,1.47
9521.00,1.47
9520.00,1.47
9519.00,1.47
9518.00,1.47
9517.00,1.47
9516.00,1.47
9515.00,1.47
9514.00,1.47
9513.00,1.47
9512.00,1.47
9511.00,1.47
9510.00,1.47
9509.00,1.47
9508.00,1.47
9507.00,1.47
9506.00,1.47
9505.00,1.48
9504.00,1.48
9503.00,1.48
9502.00,1.48
9501.00,1.48
9500.00,1.48
9499.00,1.48
9498.00,1.48
9497.00,1.48
9496.00,1.49
9495.00,1.49
9494.00,1.49
9493.00,1.49
9492.00,1.49
9491.00,1.49
9490.00,1.49
9489.00,1.49
9488.00,1.49
9487.00,1.49
9486.00,1.49
9485.00,1.49
9484.00,1.49
9483.00,1.49
9482.00,1.49
9481.00,1.49
9480.00,1.49
9479.00,1.49
9478.00,1.49
9477.00,1.50
9476.00,1.50
9475.00,1.50
9474.00,1.50
9473.00,1.50
9472.00,1.50
9471.00,1.50
9470.00,1.50
9469.00,1.50
9468.00,1.51
9467.00,1.51
9466.00,1.51
9465.00,1.51
9464.00,1.51
9463.00,1.50
9462.00,1.50
9461.00,1.50
9460.00,1.50
9459.00,1.50
9458.00,1.50
9457.00,1.50
9456.00,1.50
9455.00,1.49
9454.00,1.49
9453.00,1.49
9452.00,1.49
9451.00,1.49
9450.00,1.49
9449.00,1.49
9448.00,1.49
9447.00,1.49
9446.00,1.49
9445.00,1.49
9444.00,1.49
9443.00,1.49
9442.00,1.49
9441.00,1.49
9440.00,1.49
9439.00,1.49
9438.00,1.49
9437.00,1.48
9436.00,1.48
9435.00,1.48
9434.00,1.48
9433.00,1.47
9432.00,1.47
9431.00,1.47
9430.00,1.47
9429.00,1.47
9428.00,1.47
9427.00,1.47
9426.00,1.47
9425.00,1.47
9424.00,1.47
9423.00,1.47
9422.00,1.47
9421.00,1.47
9420.00,1.47
9419.00,1.48
9418.00,1.48
9417.00,1.48
9416.00,1.48
9415.00,1.48
9414.00,1.48
9413.00,1.49
9412.00,1.49
9411.00,1.49
9410.00,1.49
9409.00,1.49
9408.00,1.49
9407.00,1.49
9406.00,1.49
9405.00,1.49
9404.00,1.49
9403.00,1.49
9402.00,1.49
9401.00,1.49
9400.00,1.49
9399.00,1.49
9398.00,1.49
9397.00,1.49
9396.00,1.49
9395.00,1.49
9394.00,1.49
9393.00,1.48
9392.00,1.48
9391.00,1.48
9390.00,1.48
9389.00,1.48
9388.00,1.48
9387.00,1.48
9386.00,1.48
9385.00,1.48
9384.00,1.48
9383.00,1.48
9382.00,1.48
9381.00,1.48
9380.00,1.47
9379.00,1.48
9378.00,1.48
9377.00,1.48
9376.00,1.48
9375.00,1.48
9374.00,1.48
9373.00,1.48
9372.00,1.48
9371.00,1.48
9370.00,1.48
9369.00,1.48
9368.00,1.48
9367.00,1.48
9366.00,1.48
9365.00,1.49
9364.00,1.49
9363.00,1.49
9362.00,1.49
9361.00,1.49
9360.00,1.49
9359.00,1.49
9358.00,1.50
9357.00,1.50
9356.00,1.50
9355.00,1.50
9354.00,1.50
9353.00,1.50
9352.00,1.50
9351.00,1.50
9350.00,1.50
9349.00,1.50
9348.00,1.50
9347.00,1.50
9346.00,1.50
9345.00,1.50
9344.00,1.50
9343.00,1.50
9342.00,1.50
9341.00,1.49
9340.00,1.49
9339.00,1.49
9338.00,1.49
9337.00,1.49
9336.00,1.49
9335.00,1.49
9334.00,1.49
9333.00,1.49
9332.00,1.49
9331.00,1.49
9330.00,1.49
9329.00,1.49
9328.00,1.49
9327.00,1.49
9326.00,1.49
9325.00,1.49
9324.00,1.49
9323.00,1.49
9322.00,1.49
9321.00,1.49
9320.00,1.49
9319.00,1.49
9318.00,1.49
9317.00,1.49
9316.00,1.49
9315.00,1.49
9314.00,1.49
9313.00,1.49
9312.00,1.49
9311.00,1.49
9310.00,1.49
9309.00,1.49
9308.00,1.49
9307.00,1.49
9306.00,1.49
9305.00,1.49
9304.00,1.49
9303.00,1.49
9302.00,1.49
9301.00,1.48
9300.00,1.48
9299.00,1.48
9298.00,1.48
9297.00,1.48
9296.00,1.48
9295.00,1.48
9294.00,1.48
9293.00,1.48
9292.00,1.48
9291.00,1.48
9290.00,1.48
9289.00,1.48
9288.00,1.48
9287.00,1.48
9286.00,1.48
9285.00,1.48
9284.00,1.48
9283.00,1.48
9282.00,1.47
9281.00,1.47
9280.00,1.47
9279.00,1.47
9278.00,1.47
9277.00,1.47
9276.00,1.47
9275.00,1.47
9274.00,1.47
9273.00,1.47
9272.00,1.47
9271.00,1.47
9270.00,1.47
9269.00,1.48
9268.00,1.48
9267.00,1.48
9266.00,1.48
9265.00,1.48
9264.00,1.48
9263.00,1.49
9262.00,1.49
9261.00,1.49
9260.00,1.49
9259.00,1.49
9258.00,1.50
9257.00,1.50
9256.00,1.50
9255.00,1.50
9254.00,1.50
9253.00,1.50
9252.00,1.50
9251.00,1.51
9250.00,1.51
9249.00,1.51
9248.00,1.51
9247.00,1.51
9246.00,1.50
9245.00,1.50
9244.00,1.50
9243.00,1.50
9242.00,1.50
9241.00,1.50
9240.00,1.50
9239.00,1.49
9238.00,1.49
9237.00,1.49
9236.00,1.49
9235.00,1.49
9234.00,1.48
9233.00,1.48
9232.00,1.48
9231.00,1.48
9230.00,1.48
9229.00,1.48
9228.00,1.48
9227.00,1.48
9226.00,1.48
9225.00,1.48
9224.00,1.48
9223.00,1.48
9222.00,1.48
9221.00,1.48
9220.00,1.48
9219.00,1.49
9218.00,1.49
9217.00,1.49
9216.00,1.49
9215.00,1.49
9214.00,1.50
9213.00,1.50
9212.00,1.50
9211.00,1.50
9210.00,1.50
9209.00,1.50
9208.00,1.50
9207.00,1.50
9206.00,1.50
9205.00,1.50
9204.00,1.50
9203.00,1.50
9202.00,1.50
9201.00,1.50
9200.00,1.50
9199.00,1.50
9198.00,1.50
9197.00,1.50
9196.00,1.50
9195.00,1.50
9194.00,1.50
9193.00,1.50
9192.00,1.50
9191.00,1.50
9190.00,1.50
9189.00,1.50
9188.00,1.50
9187.00,1.50
9186.00,1.50
9185.00,1.50
9184.00,1.50
9183.00,1.50
9182.00,1.50
9181.00,1.50
9180.00,1.50
9179.00,1.50
9178.00,1.50
9177.00,1.50
9176.00,1.50
9175.00,1.50
9174.00,1.50
9173.00,1.50
9172.00,1.50
9171.00,1.50
9170.00,1.49
9169.00,1.49
9168.00,1.49
9167.00,1.49
9166.00,1.49
9165.00,1.49
9164.00,1.49
9163.00,1.49
9162.00,1.49
9161.00,1.49
9160.00,1.49
9159.00,1.49
9158.00,1.49
9157.00,1.49
9156.00,1.49
9155.00,1.49
9154.00,1.49
9153.00,1.49
9152.00,1.49
9151.00,1.49
9150.00,1.49
9149.00,1.49
9148.00,1.49
9147.00,1.49
9146.00,1.49
9145.00,1.49
9144.00,1.49
9143.00,1.48
9142.00,1.48
9141.00,1.48
9140.00,1.48
9139.00,1.48
9138.00,1.48
9137.00,1.48
9136.00,1.48
9135.00,1.48
9134.00,1.48
9133.00,1.48
9132.00,1.48
9131.00,1.48
9130.00,1.48
9129.00,1.48
9128.00,1.48
9127.00,1.48
9126.00,1.48
9125.00,1.49
9124.00,1.49
9123.00,1.49
9122.00,1.49
9121.00,1.49
9120.00,1.49
9119.00,1.49
9118.00,1.49
9117.00,1.49
9116.00,1.49
9115.00,1.49
9114.00,1.49
9113.00,1.49
9112.00,1.49
9111.00,1.49
9110.00,1.49
9109.00,1.49
9108.00,1.49
9107.00,1.49
9106.00,1.49
9105.00,1.49
9104.00,1.49
9103.00,1.49
9102.00,1.49
9101.00,1.49
9100.00,1.49
9099.00,1.49
9098.00,1.49
9097.00,1.49
9096.00,1.48
9095.00,1.48
9094.00,1.48
9093.00,1.48
9092.00,1.48
9091.00,1.48
9090.00,1.48
9089.00,1.48
9088.00,1.48
9087.00,1.47
9086.00,1.47
9085.00,1.47
9084.00,1.47
9083.00,1.47
9082.00,1.48
9081.00,1.48
9080.00,1.48
9079.00,1.48
9078.00,1.48
9077.00,1.48
9076.00,1.48
9075.00,1.48
9074.00,1.48
9073.00,1.49
9072.00,1.49
9071.00,1.49
9070.00,1.49
9069.00,1.49
9068.00,1.49
9067.00,1.50
9066.00,1.50
9065.00,1.50
9064.00,1.50
9063.00,1.50
9062.00,1.50
9061.00,1.50
9060.00,1.50
9059.00,1.50
9058.00,1.50
9057.00,1.50
9056.00,1.50
9055.00,1.50
9054.00,1.50
9053.00,1.50
9052.00,1.50
9051.00,1.50
9050.00,1.50
9049.00,1.50
9048.00,1.50
9047.00,1.50
9046.00,1.50
9045.00,1.50
9044.00,1.50
9043.00,1.50
9042.00,1.50
9041.00,1.50
9040.00,1.50
9039.00,1.49
9038.00,1.49
9037.00,1.49
9036.00,1.49
9035.00,1.49
9034.00,1.49
9033.00,1.49
9032.00,1.49
9031.00,1.49
9030.00,1.49
9029.00,1.49
9028.00,1.49
9027.00,1.50
9026.00,1.50
9025.00,1.50
9024.00,1.50
9023.00,1.50
9022.00,1.50
9021.00,1.50
9020.00,1.50
9019.00,1.50
9018.00,1.50
9017.00,1.50
9016.00,1.50
9015.00,1.50
9014.00,1.50
9013.00,1.49
9012.00,1.49
9011.00,1.49
9010.00,1.49
9009.00,1.49
9008.00,1.49
9007.00,1.49
9006.00,1.49
9005.00,1.48
9004.00,1.48
9003.00,1.48
9002.00,1.48
9001.00,1.48
9000.00,1.48
8999.00,1.49
8998.00,1.49
8997.00,1.49
8996.00,1.49
8995.00,1.49
8994.00,1.49
8993.00,1.49
8992.00,1.49
8991.00,1.49
8990.00,1.49
8989.00,1.50
8988.00,1.50
8987.00,1.50
8986.00,1.50
8985.00,1.50
8984.00,1.50
8983.00,1.50
8982.00,1.50
8981.00,1.50
8980.00,1.50
8979.00,1.50
8978.00,1.50
8977.00,1.50
8976.00,1.50
8975.00,1.50
8974.00,1.50
8973.00,1.49
8972.00,1.49
8971.00,1.49
8970.00,1.49
8969.00,1.49
8968.00,1.49
8967.00,1.49
8966.00,1.48
8965.00,1.48
8964.00,1.48
8963.00,1.48
8962.00,1.48
8961.00,1.48
8960.00,1.48
8959.00,1.48
8958.00,1.48
8957.00,1.48
8956.00,1.48
8955.00,1.48
8954.00,1.48
8953.00,1.48
8952.00,1.49
8951.00,1.49
8950.00,1.49
8949.00,1.49
8948.00,1.49
8947.00,1.49
8946.00,1.49
8945.00,1.49
8944.00,1.49
8943.00,1.49
8942.00,1.49
8941.00,1.50
8940.00,1.50
8939.00,1.50
8938.00,1.50
8937.00,1.50
8936.00,1.50
8935.00,1.50
8934.00,1.50
8933.00,1.50
8932.00,1.50
8931.00,1.50
8930.00,1.50
8929.00,1.50
8928.00,1.50
8927.00,1.50
8926.00,1.50
8925.00,1.50
8924.00,1.50
8923.00,1.50
8922.00,1.50
8921.00,1.50
8920.00,1.49
8919.00,1.49
8918.00,1.49
8917.00,1.49
8916.00,1.49
8915.00,1.48
8914.00,1.48
8913.00,1.48
8912.00,1.48
8911.00,1.48
8910.00,1.48
8909.00,1.48
8908.00,1.48
8907.00,1.48
8906.00,1.48
8905.00,1.48
8904.00,1.48
8903.00,1.48
8902.00,1.48
8901.00,1.48
8900.00,1.49
8899.00,1.49
8898.00,1.49
8897.00,1.49
8896.00,1.49
8895.00,1.49
8894.00,1.50
8893.00,1.50
8892.00,1.50
8891.00,1.50
8890.00,1.50
8889.00,1.50
8888.00,1.50
8887.00,1.50
8886.00,1.50
8885.00,1.50
8884.00,1.50
8883.00,1.50
8882.00,1.50
8881.00,1.50
8880.00,1.50
8879.00,1.50
8878.00,1.50
8877.00,1.50
8876.00,1.50
8875.00,1.50
8874.00,1.50
8873.00,1.50
8872.00,1.50
8871.00,1.50
8870.00,1.50
8869.00,1.50
8868.00,1.50
8867.00,1.50
8866.00,1.50
8865.00,1.51
8864.00,1.51
8863.00,1.51
8862.00,1.51
8861.00,1.51
8860.00,1.51
8859.00,1.50
8858.00,1.50
8857.00,1.50
8856.00,1.50
8855.00,1.50
8854.00,1.50
8853.00,1.50
8852.00,1.49
8851.00,1.49
8850.00,1.49
8849.00,1.49
8848.00,1.49
8847.00,1.48
8846.00,1.48
8845.00,1.48
8844.00,1.48
8843.00,1.48
8842.00,1.48
8841.00,1.47
8840.00,1.47
8839.00,1.47
8838.00,1.47
8837.00,1.47
8836.00,1.47
8835.00,1.47
8834.00,1.47
8833.00,1.47
8832.00,1.47
8831.00,1.47
8830.00,1.48
8829.00,1.48
8828.00,1.48
8827.00,1.48
8826.00,1.48
8825.00,1.48
8824.00,1.48
8823.00,1.48
8822.00,1.48
8821.00,1.48
8820.00,1.48
8819.00,1.48
8818.00,1.48
8817.00,1.48
8816.00,1.48
8815.00,1.47
8814.00,1.47
8813.00,1.47
8812.00,1.47
8811.00,1.47
8810.00,1.46
8809.00,1.46
8808.00,1.46
8807.00,1.46
8806.00,1.46
8805.00,1.45
8804.00,1.45
8803.00,1.45
8802.00,1.45
8801.00,1.45
8800.00,1.44
8799.00,1.44
8798.00,1.44
8797.00,1.44
8796.00,1.44
8795.00,1.44
8794.00,1.44
8793.00,1.43
8792.00,1.43
8791.00,1.43
8790.00,1.43
8789.00,1.43
8788.00,1.43
8787.00,1.43
8786.00,1.43
8785.00,1.43
8784.00,1.43
8783.00,1.43
8782.00,1.43
8781.00,1.43
8780.00,1.42
8779.00,1.42
8778.00,1.42
8777.00,1.42
8776.00,1.42
8775.00,1.42
8774.00,1.42
8773.00,1.42
8772.00,1.42
8771.00,1.42
8770.00,1.42
8769.00,1.42
8768.00,1.42
8767.00,1.42
8766.00,1.42
8765.00,1.42
8764.00,1.42
8763.00,1.42
8762.00,1.42
8761.00,1.42
8760.00,1.42
8759.00,1.42
8758.00,1.41
8757.00,1.41
8756.00,1.41
8755.00,1.41
8754.00,1.41
8753.00,1.41
8752.00,1.41
8751.00,1.41
8750.00,1.40
8749.00,1.40
8748.00,1.40
8747.00,1.40
8746.00,1.40
8745.00,1.40
8744.00,1.40
8743.00,1.40
8742.00,1.40
8741.00,1.40
8740.00,1.40
8739.00,1.40
8738.00,1.40
8737.00,1.40
8736.00,1.40
8735.00,1.40
8734.00,1.40
8733.00,1.39
8732.00,1.39
8731.00,1.39
8730.00,1.39
8729.00,1.39
8728.00,1.39
8727.00,1.40
8726.00,1.40
8725.00,1.40
8724.00,1.40
8723.00,1.40
8722.00,1.40
8721.00,1.40
8720.00,1.40
8719.00,1.40
8718.00,1.41
8717.00,1.41
8716.00,1.41
8715.00,1.41
8714.00,1.41
8713.00,1.41
8712.00,1.41
8711.00,1.41
8710.00,1.41
8709.00,1.41
8708.00,1.41
8707.00,1.41
8706.00,1.41
8705.00,1.40
8704.00,1.40
8703.00,1.40
8702.00,1.40
8701.00,1.39
8700.00,1.39
8699.00,1.39
8698.00,1.39
8697.00,1.38
8696.00,1.38
8695.00,1.38
8694.00,1.38
8693.00,1.38
8692.00,1.38
8691.00,1.38
8690.00,1.38
8689.00,1.38
8688.00,1.38
8687.00,1.38
8686.00,1.38
8685.00,1.38
8684.00,1.38
8683.00,1.38
8682.00,1.38
8681.00,1.38
8680.00,1.38
8679.00,1.38
8678.00,1.38
8677.00,1.38
8676.00,1.38
8675.00,1.38
8674.00,1.38
8673.00,1.37
8672.00,1.37
8671.00,1.37
8670.00,1.37
8669.00,1.37
8668.00,1.37
8667.00,1.37
8666.00,1.36
8665.00,1.36
8664.00,1.36
8663.00,1.36
8662.00,1.36
8661.00,1.36
8660.00,1.36
8659.00,1.36
8658.00,1.35
8657.00,1.35
8656.00,1.35
8655.00,1.35
8654.00,1.35
8653.00,1.35
8652.00,1.35
8651.00,1.35
8650.00,1.35
8649.00,1.35
8648.00,1.35
8647.00,1.35
8646.00,1.35
8645.00,1.35
8644.00,1.35
8643.00,1.35
8642.00,1.35
8641.00,1.34
8640.00,1.34
8639.00,1.34
8638.00,1.34
8637.00,1.34
8636.00,1.34
8635.00,1.34
8634.00,1.34
8633.00,1.34
8632.00,1.33
8631.00,1.33
8630.00,1.33
8629.00,1.33
8628.00,1.33
8627.00,1.33
8626.00,1.33
8625.00,1.33
8624.00,1.33
8623.00,1.33
8622.00,1.33
8621.00,1.33
8620.00,1.33
8619.00,1.33
8618.00,1.33
8617.00,1.33
8616.00,1.33
8615.00,1.33
8614.00,1.33
8613.00,1.33
8612.00,1.33
8611.00,1.33
8610.00,1.33
8609.00,1.33
8608.00,1.34
8607.00,1.34
8606.00,1.34
8605.00,1.34
8604.00,1.34
8603.00,1.34
8602.00,1.34
8601.00,1.34
8600.00,1.35
8599.00,1.35
8598.00,1.35
8597.00,1.35
8596.00,1.35
8595.00,1.35
8594.00,1.35
8593.00,1.35
8592.00,1.35
8591.00,1.35
8590.00,1.35
8589.00,1.34
8588.00,1.34
8587.00,1.34
8586.00,1.34
8585.00,1.34
8584.00,1.34
8583.00,1.33
8582.00,1.33
8581.00,1.33
8580.00,1.33
8579.00,1.33
8578.00,1.33
8577.00,1.33
8576.00,1.33
8575.00,1.33
8574.00,1.33
8573.00,1.33
8572.00,1.33
8571.00,1.33
8570.00,1.33
8569.00,1.33
8568.00,1.33
8567.00,1.32
8566.00,1.32
8565.00,1.32
8564.00,1.32
8563.00,1.32
8562.00,1.32
8561.00,1.32
8560.00,1.31
8559.00,1.31
8558.00,1.31
8557.00,1.31
8556.00,1.31
8555.00,1.31
8554.00,1.30
8553.00,1.30
8552.00,1.30
8551.00,1.30
8550.00,1.30
8549.00,1.30
8548.00,1.30
8547.00,1.30
8546.00,1.30
8545.00,1.30
8544.00,1.29
8543.00,1.29
8542.00,1.29
8541.00,1.29
8540.00,1.29
8539.00,1.29
8538.00,1.29
8537.00,1.29
8536.00,1.28
8535.00,1.28
8534.00,1.28
8533.00,1.28
8532.00,1.28
8531.00,1.28
8530.00,1.28
8529.00,1.28
8528.00,1.28
8527.00,1.28
8526.00,1.28
8525.00,1.28
8524.00,1.29
8523.00,1.29
8522.00,1.29
8521.00,1.29
8520.00,1.29
8519.00,1.29
8518.00,1.29
8517.00,1.29
8516.00,1.30
8515.00,1.30
8514.00,1.30
8513.00,1.30
8512.00,1.29
8511.00,1.29
8510.00,1.29
8509.00,1.29
8508.00,1.29
8507.00,1.29
8506.00,1.28
8505.00,1.28
8504.00,1.28
8503.00,1.28
8502.00,1.27
8501.00,1.27
8500.00,1.27
8499.00,1.27
8498.00,1.27
8497.00,1.27
8496.00,1.27
8495.00,1.26
8494.00,1.26
8493.00,1.26
8492.00,1.26
8491.00,1.26
8490.00,1.26
8489.00,1.26
8488.00,1.26
8487.00,1.26
8486.00,1.26
8485.00,1.26
8484.00,1.26
8483.00,1.26
8482.00,1.26
8481.00,1.26
8480.00,1.26
8479.00,1.26
8478.00,1.26
8477.00,1.26
8476.00,1.26
8475.00,1.26
8474.00,1.26
8473.00,1.26
8472.00,1.26
8471.00,1.26
8470.00,1.26
8469.00,1.26
8468.00,1.26
8467.00,1.26
8466.00,1.26
8465.00,1.26
8464.00,1.26
8463.00,1.25
8462.00,1.25
8461.00,1.25
8460.00,1.25
8459.00,1.25
8458.00,1.25
8457.00,1.25
8456.00,1.25
8455.00,1.25
8454.00,1.25
8453.00,1.25
8452.00,1.25
8451.00,1.25
8450.00,1.24
8449.00,1.24
8448.00,1.24
8447.00,1.24
8446.00,1.24
8445.00,1.24
8444.00,1.24
8443.00,1.24
8442.00,1.24
8441.00,1.24
8440.00,1.24
8439.00,1.24
8438.00,1.24
8437.00,1.24
8436.00,1.24
8435.00,1.24
8434.00,1.24
8433.00,1.24
8432.00,1.24
8431.00,1.24
8430.00,1.24
8429.00,1.25
8428.00,1.25
8427.00,1.25
8426.00,1.25
8425.00,1.25
8424.00,1.25
8423.00,1.25
8422.00,1.25
8421.00,1.25
8420.00,1.25
8419.00,1.25
8418.00,1.26
8417.00,1.26
8416.00,1.26
8415.00,1.26
8414.00,1.26
8413.00,1.26
8412.00,1.26
8411.00,1.27
8410.00,1.27
8409.00,1.27
8408.00,1.27
8407.00,1.27
8406.00,1.27
8405.00,1.27
8404.00,1.27
8403.00,1.28
8402.00,1.28
8401.00,1.28
8400.00,1.28
8399.00,1.28
8398.00,1.28
8397.00,1.28
8396.00,1.28
8395.00,1.28
8394.00,1.28
8393.00,1.28
8392.00,1.28
8391.00,1.28
8390.00,1.28
8389.00,1.28
8388.00,1.28
8387.00,1.28
8386.00,1.28
8385.00,1.28
8384.00,1.28
8383.00,1.28
8382.00,1.28
8381.00,1.28
8380.00,1.28
8379.00,1.28
8378.00,1.28
8377.00,1.28
8376.00,1.28
8375.00,1.28
8374.00,1.28
8373.00,1.28
8372.00,1.28
8371.00,1.28
8370.00,1.28
8369.00,1.28
8368.00,1.29
8367.00,1.29
8366.00,1.29
8365.00,1.29
8364.00,1.29
8363.00,1.29
8362.00,1.29
8361.00,1.29
8360.00,1.29
8359.00,1.29
8358.00,1.29
8357.00,1.29
8356.00,1.29
8355.00,1.29
8354.00,1.29
8353.00,1.29
8352.00,1.29
8351.00,1.29
8350.00,1.29
8349.00,1.29
8348.00,1.29
8347.00,1.29
8346.00,1.29
8345.00,1.29
8344.00,1.29
8343.00,1.29
8342.00,1.29
8341.00,1.29
8340.00,1.29
8339.00,1.30
8338.00,1.30
8337.00,1.30
8336.00,1.30
8335.00,1.30
8334.00,1.30
8333.00,1.30
8332.00,1.30
8331.00,1.30
8330.00,1.29
8329.00,1.29
8328.00,1.29
8327.00,1.29
8326.00,1.29
8325.00,1.29
8324.00,1.29
8323.00,1.29
8322.00,1.29
8321.00,1.29
8320.00,1.29
8319.00,1.29
8318.00,1.29
8317.00,1.29
8316.00,1.29
8315.00,1.29
8314.00,1.29
8313.00,1.29
8312.00,1.29
8311.00,1.29
8310.00,1.30
8309.00,1.30
8308.00,1.30
8307.00,1.30
8306.00,1.30
8305.00,1.30
8304.00,1.30
8303.00,1.30
8302.00,1.31
8301.00,1.31
8300.00,1.31
8299.00,1.31
8298.00,1.31
8297.00,1.31
8296.00,1.30
8295.00,1.30
8294.00,1.30
8293.00,1.30
8292.00,1.30
8291.00,1.30
8290.00,1.30
8289.00,1.30
8288.00,1.30
8287.00,1.30
8286.00,1.30
8285.00,1.30
8284.00,1.30
8283.00,1.30
8282.00,1.30
8281.00,1.30
8280.00,1.30
8279.00,1.30
8278.00,1.30
8277.00,1.31
8276.00,1.31
8275.00,1.31
8274.00,1.31
8273.00,1.31
8272.00,1.31
8271.00,1.31
8270.00,1.31
8269.00,1.31
8268.00,1.31
8267.00,1.31
8266.00,1.31
8265.00,1.31
8264.00,1.32
8263.00,1.32
8262.00,1.32
8261.00,1.32
8260.00,1.32
8259.00,1.32
8258.00,1.32
8257.00,1.32
8256.00,1.32
8255.00,1.32
8254.00,1.32
8253.00,1.33
8252.00,1.33
8251.00,1.33
8250.00,1.33
8249.00,1.33
8248.00,1.33
8247.00,1.33
8246.00,1.33
8245.00,1.33
8244.00,1.33
8243.00,1.33
8242.00,1.33
8241.00,1.33
8240.00,1.33
8239.00,1.33
8238.00,1.33
8237.00,1.33
8236.00,1.33
8235.00,1.34
8234.00,1.34
8233.00,1.34
8232.00,1.34
8231.00,1.34
8230.00,1.34
8229.00,1.34
8228.00,1.34
8227.00,1.34
8226.00,1.34
8225.00,1.34
8224.00,1.34
8223.00,1.34
8222.00,1.34
8221.00,1.34
8220.00,1.34
8219.00,1.34
8218.00,1.34
8217.00,1.34
8216.00,1.34
8215.00,1.34
8214.00,1.34
8213.00,1.34
8212.00,1.34
8211.00,1.34
8210.00,1.34
8209.00,1.34
8208.00,1.35
8207.00,1.35
8206.00,1.35
8205.00,1.35
8204.00,1.35
8203.00,1.35
8202.00,1.35
8201.00,1.35
8200.00,1.36
8199.00,1.36
8198.00,1.36
8197.00,1.36
8196.00,1.36
8195.00,1.36
8194.00,1.36
8193.00,1.36
8192.00,1.36
8191.00,1.36
8190.00,1.36
8189.00,1.36
8188.00,1.36
8187.00,1.36
8186.00,1.36
8185.00,1.36
8184.00,1.36
8183.00,1.36
8182.00,1.36
8181.00,1.36
8180.00,1.36
8179.00,1.37
8178.00,1.37
8177.00,1.37
8176.00,1.37
8175.00,1.37
8174.00,1.37
8173.00,1.37
8172.00,1.38
8171.00,1.38
8170.00,1.38
8169.00,1.38
8168.00,1.38
8167.00,1.38
8166.00,1.38
8165.00,1.38
8164.00,1.38
8163.00,1.38
8162.00,1.38
8161.00,1.38
8160.00,1.38
8159.00,1.38
8158.00,1.38
8157.00,1.38
8156.00,1.38
8155.00,1.38
8154.00,1.37
8153.00,1.37
8152.00,1.37
8151.00,1.37
8150.00,1.37
8149.00,1.37
8148.00,1.37
8147.00,1.37
8146.00,1.37
8145.00,1.37
8144.00,1.37
8143.00,1.38
8142.00,1.38
8141.00,1.38
8140.00,1.38
8139.00,1.38
8138.00,1.38
8137.00,1.38
8136.00,1.38
8135.00,1.39
8134.00,1.39
8133.00,1.39
8132.00,1.39
8131.00,1.39
8130.00,1.39
8129.00,1.39
8128.00,1.39
8127.00,1.39
8126.00,1.39
8125.00,1.39
8124.00,1.39
8123.00,1.39
8122.00,1.39
8121.00,1.39
8120.00,1.39
8119.00,1.39
8118.00,1.39
8117.00,1.39
8116.00,1.39
8115.00,1.39
8114.00,1.40
8113.00,1.40
8112.00,1.40
8111.00,1.40
8110.00,1.40
8109.00,1.40
8108.00,1.40
8107.00,1.41
8106.00,1.41
8105.00,1.41
8104.00,1.41
8103.00,1.41
8102.00,1.41
8101.00,1.41
8100.00,1.41
8099.00,1.41
8098.00,1.41
8097.00,1.41
8096.00,1.41
8095.00,1.41
8094.00,1.41
8093.00,1.41
8092.00,1.41
8091.00,1.41
8090.00,1.41
8089.00,1.41
8088.00,1.41
8087.00,1.41
8086.00,1.41
8085.00,1.41
8084.00,1.41
8083.00,1.41
8082.00,1.41
8081.00,1.41
8080.00,1.41
8079.00,1.41
8078.00,1.41
8077.00,1.41
8076.00,1.41
8075.00,1.41
8074.00,1.41
8073.00,1.41
8072.00,1.41
8071.00,1.41
8070.00,1.41
8069.00,1.41
8068.00,1.41
8067.00,1.41
8066.00,1.41
8065.00,1.42
8064.00,1.42
8063.00,1.42
8062.00,1.42
8061.00,1.42
8060.00,1.42
8059.00,1.42
8058.00,1.42
8057.00,1.42
8056.00,1.42
8055.00,1.42
8054.00,1.42
8053.00,1.42
8052.00,1.42
8051.00,1.42
8050.00,1.42
8049.00,1.42
8048.00,1.42
8047.00,1.42
8046.00,1.42
8045.00,1.42
8044.00,1.42
8043.00,1.43
8042.00,1.43
8041.00,1.43
8040.00,1.43
8039.00,1.43
8038.00,1.43
8037.00,1.43
8036.00,1.43
8035.00,1.43
8034.00,1.43
8033.00,1.43
8032.00,1.43
8031.00,1.43
8030.00,1.43
8029.00,1.43
8028.00,1.43
8027.00,1.43
8026.00,1.43
8025.00,1.43
8024.00,1.43
8023.00,1.43
8022.00,1.43
8021.00,1.43
8020.00,1.43
8019.00,1.43
8018.00,1.43
8017.00,1.43
8016.00,1.43
8015.00,1.43
8014.00,1.44
8013.00,1.44
8012.00,1.44
8011.00,1.44
8010.00,1.44
8009.00,1.44
8008.00,1.44
8007.00,1.44
8006.00,1.44
8005.00,1.44
8004.00,1.44
8003.00,1.44
8002.00,1.44
8001.00,1.45
8000.00,1.45
7999.00,1.45
7998.00,1.45
7997.00,1.45
7996.00,1.45
7995.00,1.45
7994.00,1.45
7993.00,1.45
7992.00,1.45
7991.00,1.45
7990.00,1.45
7989.00,1.45
7988.00,1.45
7987.00,1.45
7986.00,1.45
7985.00,1.45
7984.00,1.45
7983.00,1.45
7982.00,1.45
7981.00,1.45
7980.00,1.45
7979.00,1.45
7978.00,1.45
7977.00,1.45
7976.00,1.45
7975.00,1.45
7974.00,1.45
7973.00,1.46
7972.00,1.46
7971.00,1.46
7970.00,1.46
7969.00,1.46
7968.00,1.46
7967.00,1.46
7966.00,1.46
7965.00,1.46
7964.00,1.46
7963.00,1.46
7962.00,1.46
7961.00,1.46
7960.00,1.46
7959.00,1.46
7958.00,1.46
7957.00,1.46
7956.00,1.45
7955.00,1.45
7954.00,1.45
7953.00,1.45
7952.00,1.45
7951.00,1.45
7950.00,1.45
7949.00,1.45
7948.00,1.45
7947.00,1.45
7946.00,1.45
7945.00,1.45
7944.00,1.45
7943.00,1.45
7942.00,1.45
7941.00,1.45
7940.00,1.46
7939.00,1.46
7938.00,1.46
7937.00,1.46
7936.00,1.46
7935.00,1.46
7934.00,1.46
7933.00,1.46
7932.00,1.46
7931.00,1.46
7930.00,1.46
7929.00,1.46
7928.00,1.46
7927.00,1.46
7926.00,1.46
7925.00,1.46
7924.00,1.46
7923.00,1.46
7922.00,1.46
7921.00,1.46
7920.00,1.46
7919.00,1.46
7918.00,1.47
7917.00,1.47
7916.00,1.47
7915.00,1.47
7914.00,1.47
7913.00,1.47
7912.00,1.47
7911.00,1.47
7910.00,1.47
7909.00,1.47
7908.00,1.47
7907.00,1.47
7906.00,1.47
7905.00,1.47
7904.00,1.47
7903.00,1.47
7902.00,1.47
7901.00,1.47
7900.00,1.47
7899.00,1.47
7898.00,1.47
7897.00,1.47
7896.00,1.47
7895.00,1.47
7894.00,1.47
7893.00,1.47
7892.00,1.48
7891.00,1.48
7890.00,1.48
7889.00,1.48
7888.00,1.48
7887.00,1.48
7886.00,1.48
7885.00,1.48
7884.00,1.48
7883.00,1.48
7882.00,1.48
7881.00,1.48
7880.00,1.48
7879.00,1.48
7878.00,1.48
7877.00,1.48
7876.00,1.48
7875.00,1.48
7874.00,1.48
7873.00,1.48
7872.00,1.48
7871.00,1.48
7870.00,1.48
7869.00,1.48
7868.00,1.48
7867.00,1.48
7866.00,1.48
7865.00,1.48
7864.00,1.47
7863.00,1.47
7862.00,1.48
7861.00,1.48
7860.00,1.48
7859.00,1.48
7858.00,1.48
7857.00,1.48
7856.00,1.48
7855.00,1.48
7854.00,1.48
7853.00,1.49
7852.00,1.49
7851.00,1.49
7850.00,1.49
7849.00,1.49
7848.00,1.49
7847.00,1.49
7846.00,1.49
7845.00,1.49
7844.00,1.49
7843.00,1.49
7842.00,1.49
7841.00,1.49
7840.00,1.49
7839.00,1.49
7838.00,1.49
7837.00,1.49
7836.00,1.49
7835.00,1.49
7834.00,1.49
7833.00,1.49
7832.00,1.48
7831.00,1.48
7830.00,1.48
7829.00,1.48
7828.00,1.48
7827.00,1.48
7826.00,1.48
7825.00,1.48
7824.00,1.48
7823.00,1.48
7822.00,1.48
7821.00,1.48
7820.00,1.48
7819.00,1.48
7818.00,1.48
7817.00,1.49
7816.00,1.49
7815.00,1.49
7814.00,1.49
7813.00,1.49
7812.00,1.49
7811.00,1.49
7810.00,1.49
7809.00,1.49
7808.00,1.49
7807.00,1.49
7806.00,1.49
7805.00,1.49
7804.00,1.49
7803.00,1.49
7802.00,1.49
7801.00,1.49
7800.00,1.49
7799.00,1.50
7798.00,1.50
7797.00,1.50
7796.00,1.50
7795.00,1.50
7794.00,1.50
7793.00,1.50
7792.00,1.50
7791.00,1.50
7790.00,1.50
7789.00,1.50
7788.00,1.50
7787.00,1.50
7786.00,1.49
7785.00,1.49
7784.00,1.49
7783.00,1.49
7782.00,1.49
7781.00,1.49
7780.00,1.49
7779.00,1.49
7778.00,1.49
7777.00,1.49
7776.00,1.49
7775.00,1.49
7774.00,1.49
7773.00,1.49
7772.00,1.49
7771.00,1.49
7770.00,1.49
7769.00,1.49
7768.00,1.50
7767.00,1.50
7766.00,1.50
7765.00,1.50
7764.00,1.50
7763.00,1.50
7762.00,1.50
7761.00,1.50
7760.00,1.50
7759.00,1.50
7758.00,1.51
7757.00,1.51
7756.00,1.51
7755.00,1.51
7754.00,1.51
7753.00,1.51
7752.00,1.51
7751.00,1.51
7750.00,1.51
7749.00,1.51
7748.00,1.50
7747.00,1.50
7746.00,1.50
7745.00,1.50
7744.00,1.50
7743.00,1.50
7742.00,1.50
7741.00,1.50
7740.00,1.50
7739.00,1.50
7738.00,1.50
7737.00,1.50
7736.00,1.49
7735.00,1.49
7734.00,1.49
7733.00,1.49
7732.00,1.49
7731.00,1.49
7730.00,1.49
7729.00,1.49
7728.00,1.49
7727.00,1.49
7726.00,1.49
7725.00,1.49
7724.00,1.49
7723.00,1.49
7722.00,1.49
7721.00,1.50
7720.00,1.50
7719.00,1.50
7718.00,1.50
7717.00,1.50
7716.00,1.50
7715.00,1.50
7714.00,1.50
7713.00,1.50
7712.00,1.50
7711.00,1.50
7710.00,1.50
7709.00,1.50
7708.00,1.50
7707.00,1.50
7706.00,1.50
7705.00,1.50
7704.00,1.50
7703.00,1.50
7702.00,1.50
7701.00,1.50
7700.00,1.50
7699.00,1.50
7698.00,1.50
7697.00,1.50
7696.00,1.50
7695.00,1.50
7694.00,1.50
7693.00,1.50
7692.00,1.50
7691.00,1.50
7690.00,1.50
7689.00,1.50
7688.00,1.50
7687.00,1.50
7686.00,1.50
7685.00,1.50
7684.00,1.50
7683.00,1.50
7682.00,1.50
7681.00,1.50
7680.00,1.50
7679.00,1.50
7678.00,1.50
7677.00,1.50
7676.00,1.50
7675.00,1.50
7674.00,1.50
7673.00,1.50
7672.00,1.50
7671.00,1.50
7670.00,1.50
7669.00,1.50
7668.00,1.50
7667.00,1.50
7666.00,1.50
7665.00,1.50
7664.00,1.50
7663.00,1.50
7662.00,1.50
7661.00,1.50
7660.00,1.50
7659.00,1.50
7658.00,1.50
7657.00,1.50
7656.00,1.50
7655.00,1.50
7654.00,1.50
7653.00,1.50
7652.00,1.50
7651.00,1.50
7650.00,1.50
7649.00,1.50
7648.00,1.50
7647.00,1.50
7646.00,1.50
7645.00,1.50
7644.00,1.51
7643.00,1.51
7642.00,1.51
7641.00,1.51
7640.00,1.51
7639.00,1.51
7638.00,1.51
7637.00,1.51
7636.00,1.51
7635.00,1.51
7634.00,1.51
7633.00,1.51
7632.00,1.51
7631.00,1.51
7630.00,1.51
7629.00,1.51
7628.00,1.50
7627.00,1.50
7626.00,1.50
7625.00,1.50
7624.00,1.50
7623.00,1.50
7622.00,1.50
7621.00,1.50
7620.00,1.50
7619.00,1.50
7618.00,1.50
7617.00,1.50
7616.00,1.50
7615.00,1.50
7614.00,1.50
7613.00,1.49
7612.00,1.49
7611.00,1.49
7610.00,1.49
7609.00,1.49
7608.00,1.49
7607.00,1.49
7606.00,1.49
7605.00,1.49
7604.00,1.49
7603.00,1.49
7602.00,1.49
7601.00,1.49
7600.00,1.49
7599.00,1.49
7598.00,1.49
7597.00,1.49
7596.00,1.49
7595.00,1.49
7594.00,1.49
7593.00,1.49
7592.00,1.49
7591.00,1.49
7590.00,1.49
7589.00,1.49
7588.00,1.49
7587.00,1.48
7586.00,1.48
7585.00,1.48
7584.00,1.48
7583.00,1.48
7582.00,1.48
7581.00,1.48
7580.00,1.48
7579.00,1.47
7578.00,1.47
7577.00,1.47
7576.00,1.47
7575.00,1.47
7574.00,1.47
7573.00,1.47
7572.00,1.47
7571.00,1.47
7570.00,1.47
7569.00,1.47
7568.00,1.47
7567.00,1.47
7566.00,1.47
7565.00,1.47
7564.00,1.47
7563.00,1.47
7562.00,1.47
7561.00,1.47
7560.00,1.47
7559.00,1.47
7558.00,1.47
7557.00,1.47
7556.00,1.47
7555.00,1.47
7554.00,1.47
7553.00,1.47
7552.00,1.47
7551.00,1.47
7550.00,1.47
7549.00,1.47
7548.00,1.47
7547.00,1.47
7546.00,1.47
7545.00,1.47
7544.00,1.47
7543.00,1.47
7542.00,1.47
7541.00,1.47
7540.00,1.46
7539.00,1.46
7538.00,1.46
7537.00,1.46
7536.00,1.46
7535.00,1.46
7534.00,1.45
7533.00,1.45
7532.00,1.45
7531.00,1.45
7530.00,1.45
7529.00,1.45
7528.00,1.45
7527.00,1.44
7526.00,1.44
7525.00,1.44
7524.00,1.44
7523.00,1.44
7522.00,1.44
7521.00,1.44
7520.00,1.44
7519.00,1.44
7518.00,1.44
7517.00,1.44
7516.00,1.44
7515.00,1.44
7514.00,1.44
7513.00,1.43
7512.00,1.43
7511.00,1.43
7510.00,1.43
7509.00,1.43
7508.00,1.43
7507.00,1.43
7506.00,1.43
7505.00,1.43
7504.00,1.43
7503.00,1.43
7502.00,1.43
7501.00,1.43
7500.00,1.43
7499.00,1.42
7498.00,1.42
7497.00,1.42
7496.00,1.42
7495.00,1.42
7494.00,1.42
7493.00,1.42
7492.00,1.41
7491.00,1.41
7490.00,1.41
7489.00,1.41
7488.00,1.41
7487.00,1.41
7486.00,1.41
7485.00,1.40
7484.00,1.40
7483.00,1.40
7482.00,1.40
7481.00,1.40
7480.00,1.40
7479.00,1.40
7478.00,1.40
7477.00,1.40
7476.00,1.40
7475.00,1.39
7474.00,1.39
7473.00,1.39
7472.00,1.39
7471.00,1.39
7470.00,1.39
7469.00,1.39
7468.00,1.39
7467.00,1.39
7466.00,1.39
7465.00,1.39
7464.00,1.39
7463.00,1.39
7462.00,1.39
7461.00,1.39
7460.00,1.39
7459.00,1.39
7458.00,1.39
7457.00,1.39
7456.00,1.39
7455.00,1.38
7454.00,1.38
7453.00,1.38
7452.00,1.38
7451.00,1.38
7450.00,1.38
7449.00,1.38
7448.00,1.38
7447.00,1.37
7446.00,1.37
7445.00,1.37
7444.00,1.37
7443.00,1.37
7442.00,1.37
7441.00,1.37
7440.00,1.36
7439.00,1.36
7438.00,1.36
7437.00,1.36
7436.00,1.36
7435.00,1.35
7434.00,1.35
7433.00,1.35
7432.00,1.35
7431.00,1.35
7430.00,1.35
7429.00,1.34
7428.00,1.34
7427.00,1.34
7426.00,1.34
7425.00,1.34
7424.00,1.33
7423.00,1.33
7422.00,1.33
7421.00,1.33
7420.00,1.33
7419.00,1.33
7418.00,1.33
7417.00,1.33
7416.00,1.32
7415.00,1.32
7414.00,1.32
7413.00,1.32
7412.00,1.32
7411.00,1.32
7410.00,1.32
7409.00,1.32
7408.00,1.32
7407.00,1.32
7406.00,1.32
7405.00,1.32
7404.00,1.31
7403.00,1.31
7402.00,1.31
7401.00,1.31
7400.00,1.31
7399.00,1.31
7398.00,1.31
7397.00,1.31
7396.00,1.30
7395.00,1.30
7394.00,1.30
7393.00,1.30
7392.00,1.30
7391.00,1.29
7390.00,1.29
7389.00,1.29
7388.00,1.29
7387.00,1.29
7386.00,1.29
7385.00,1.28
7384.00,1.28
7383.00,1.28
7382.00,1.28
7381.00,1.28
7380.00,1.28
7379.00,1.28
7378.00,1.28
7377.00,1.27
7376.00,1.27
7375.00,1.27
7374.00,1.27
7373.00,1.27
7372.00,1.27
7371.00,1.27
7370.00,1.27
7369.00,1.27
7368.00,1.27
7367.00,1.27
7366.00,1.27
7365.00,1.27
7364.00,1.27
7363.00,1.27
7362.00,1.26
7361.00,1.26
7360.00,1.26
7359.00,1.26
7358.00,1.26
7357.00,1.26
7356.00,1.26
7355.00,1.25
7354.00,1.25
7353.00,1.25
7352.00,1.25
7351.00,1.25
7350.00,1.25
7349.00,1.25
7348.00,1.24
7347.00,1.24
7346.00,1.24
7345.00,1.24
7344.00,1.24
7343.00,1.24
7342.00,1.24
7341.00,1.24
7340.00,1.24
7339.00,1.24
7338.00,1.24
7337.00,1.25
7336.00,1.25
7335.00,1.25
7334.00,1.25
7333.00,1.25
7332.00,1.25
7331.00,1.24
7330.00,1.24
7329.00,1.24
7328.00,1.24
7327.00,1.24
7326.00,1.24
7325.00,1.24
7324.00,1.24
7323.00,1.24
7322.00,1.24
7321.00,1.23
7320.00,1.23
7319.00,1.23
7318.00,1.23
7317.00,1.23
7316.00,1.23
7315.00,1.23
7314.00,1.23
7313.00,1.23
7312.00,1.23
7311.00,1.23
7310.00,1.23
7309.00,1.23
7308.00,1.22
7307.00,1.22
7306.00,1.22
7305.00,1.22
7304.00,1.22
7303.00,1.22
7302.00,1.21
7301.00,1.21
7300.00,1.21
7299.00,1.21
7298.00,1.21
7297.00,1.20
7296.00,1.20
7295.00,1.20
7294.00,1.20
7293.00,1.20
7292.00,1.20
7291.00,1.20
7290.00,1.19
7289.00,1.19
7288.00,1.19
7287.00,1.19
7286.00,1.19
7285.00,1.19
7284.00,1.19
7283.00,1.19
7282.00,1.18
7281.00,1.18
7280.00,1.18
7279.00,1.18
7278.00,1.18
7277.00,1.17
7276.00,1.17
7275.00,1.17
7274.00,1.17
7273.00,1.16
7272.00,1.16
7271.00,1.16
7270.00,1.15
7269.00,1.15
7268.00,1.15
7267.00,1.15
7266.00,1.14
7265.00,1.14
7264.00,1.14
7263.00,1.13
7262.00,1.13
7261.00,1.13
7260.00,1.13
7259.00,1.12
7258.00,1.12
7257.00,1.12
7256.00,1.11
7255.00,1.11
7254.00,1.11
7253.00,1.10
7252.00,1.10
7251.00,1.10
7250.00,1.09
7249.00,1.09
7248.00,1.09
7247.00,1.08
7246.00,1.08
7245.00,1.08
7244.00,1.07
7243.00,1.07
7242.00,1.06
7241.00,1.06
7240.00,1.06
7239.00,1.05
7238.00,1.05
7237.00,1.04
7236.00,1.04
7235.00,1.04
7234.00,1.03
7233.00,1.03
7232.00,1.02
7231.00,1.02
7230.00,1.02
7229.00,1.01
7228.00,1.01
7227.00,1.00
7226.00,1.00
7225.00,1.00
7224.00,0.99
7223.00,0.99
7222.00,0.98
7221.00,0.98
7220.00,0.97
7219.00,0.97
7218.00,0.97
7217.00,0.96
7216.00,0.96
7215.00,0.95
7214.00,0.95
7213.00,0.94
7212.00,0.94
7211.00,0.93
7210.00,0.93
7209.00,0.92
7208.00,0.92
7207.00,0.91
7206.00,0.91
7205.00,0.90
7204.00,0.90
7203.00,0.89
7202.00,0.89
7201.00,0.88
7200.00,0.88
7199.00,0.88
7198.00,0.87
7197.00,0.87
7196.00,0.86
7195.00,0.86
7194.00,0.85
7193.00,0.85
7192.00,0.85
7191.00,0.84
7190.00,0.84
7189.00,0.83
7188.00,0.83
7187.00,0.82
7186.00,0.82
7185.00,0.82
7184.00,0.81
7183.00,0.81
7182.00,0.81
7181.00,0.80
7180.00,0.80
7179.00,0.80
7178.00,0.79
7177.00,0.79
7176.00,0.79
7175.00,0.79
7174.00,0.78
7173.00,0.78
7172.00,0.78
7171.00,0.78
7170.00,0.77
7169.00,0.77
7168.00,0.77
7167.00,0.77
7166.00,0.76
7165.00,0.76
7164.00,0.76
7163.00,0.76
7162.00,0.75
7161.00,0.75
7160.00,0.75
7159.00,0.74
7158.00,0.74
7157.00,0.74
7156.00,0.74
7155.00,0.73
7154.00,0.73
7153.00,0.73
7152.00,0.72
7151.00,0.72
7150.00,0.72
7149.00,0.71
7148.00,0.71
7147.00,0.71
7146.00,0.71
7145.00,0.70
7144.00,0.70
7143.00,0.70
7142.00,0.70
7141.00,0.69
7140.00,0.69
7139.00,0.69
7138.00,0.69
7137.00,0.69
7136.00,0.68
7135.00,0.68
7134.00,0.68
7133.00,0.68
7132.00,0.68
7131.00,0.68
7130.00,0.67
7129.00,0.67
7128.00,0.67
7127.00,0.67
7126.00,0.67
7125.00,0.67
7124.00,0.66
7123.00,0.66
7122.00,0.66
7121.00,0.66
7120.00,0.66
7119.00,0.66
7118.00,0.65
7117.00,0.65
7116.00,0.65
7115.00,0.65
7114.00,0.65
7113.00,0.64
7112.00,0.64
7111.00,0.64
7110.00,0.64
7109.00,0.64
7108.00,0.64
7107.00,0.63
7106.00,0.63
7105.00,0.63
7104.00,0.63
7103.00,0.63
7102.00,0.63
7101.00,0.62
7100.00,0.62
7099.00,0.62
7098.00,0.62
7097.00,0.62
7096.00,0.62
7095.00,0.62
7094.00,0.62
7093.00,0.61
7092.00,0.61
7091.00,0.61
7090.00,0.61
7089.00,0.61
7088.00,0.61
7087.00,0.61
7086.00,0.61
7085.00,0.62
7084.00,0.62
7083.00,0.62
7082.00,0.62
7081.00,0.62
7080.00,0.62
7079.00,0.62
7078.00,0.62
7077.00,0.62
7076.00,0.62
7075.00,0.62
7074.00,0.62
7073.00,0.62
7072.00,0.62
7071.00,0.62
7070.00,0.62
7069.00,0.62
7068.00,0.61
7067.00,0.61
7066.00,0.61
7065.00,0.61
7064.00,0.61
7063.00,0.61
7062.00,0.61
7061.00,0.61
7060.00,0.61
7059.00,0.61
7058.00,0.60
7057.00,0.60
7056.00,0.60
7055.00,0.60
7054.00,0.60
7053.00,0.60
7052.00,0.60
7051.00,0.60
7050.00,0.60
7049.00,0.60
7048.00,0.60
7047.00,0.60
7046.00,0.60
7045.00,0.60
7044.00,0.60
7043.00,0.60
7042.00,0.60
7041.00,0.60
7040.00,0.60
7039.00,0.60
7038.00,0.60
7037.00,0.60
7036.00,0.60
7035.00,0.60
7034.00,0.60
7033.00,0.60
7032.00,0.60
7031.00,0.60
7030.00,0.60
7029.00,0.60
7028.00,0.60
7027.00,0.60
7026.00,0.60
7025.00,0.60
7024.00,0.60
7023.00,0.60
7022.00,0.60
7021.00,0.60
7020.00,0.60
7019.00,0.61
7018.00,0.61
7017.00,0.61
7016.00,0.61
7015.00,0.61
7014.00,0.61
7013.00,0.61
7012.00,0.61
7011.00,0.61
7010.00,0.61
7009.00,0.61
7008.00,0.61
7007.00,0.61
7006.00,0.61
7005.00,0.61
7004.00,0.61
7003.00,0.61
7002.00,0.61
7001.00,0.61
7000.00,0.60
6999.00,0.60
6998.00,0.60
6997.00,0.60
6996.00,0.60
6995.00,0.60
6994.00,0.60
6993.00,0.60
6992.00,0.60
6991.00,0.60
6990.00,0.60
6989.00,0.59
6988.00,0.59
6987.00,0.59
6986.00,0.59
6985.00,0.59
6984.00,0.59
6983.00,0.59
6982.00,0.59
6981.00,0.59
6980.00,0.59
6979.00,0.59
6978.00,0.59
6977.00,0.59
6976.00,0.59
6975.00,0.59
6974.00,0.59
6973.00,0.59
6972.00,0.59
6971.00,0.59
6970.00,0.59
6969.00,0.59
6968.00,0.59
6967.00,0.59
6966.00,0.59
6965.00,0.59
6964.00,0.59
6963.00,0.59
6962.00,0.59
6961.00,0.59
6960.00,0.59
6959.00,0.59
6958.00,0.59
6957.00,0.59
6956.00,0.59
6955.00,0.59
6954.00,0.59
6953.00,0.60
6952.00,0.60
6951.00,0.60
6950.00,0.60
6949.00,0.60
6948.00,0.60
6947.00,0.60
6946.00,0.61
6945.00,0.61
6944.00,0.61
6943.00,0.61
6942.00,0.61
6941.00,0.61
6940.00,0.61
6939.00,0.61
6938.00,0.61
6937.00,0.61
6936.00,0.61
6935.00,0.61
6934.00,0.61
6933.00,0.61
6932.00,0.61
6931.00,0.61
6930.00,0.61
6929.00,0.61
6928.00,0.61
6927.00,0.61
6926.00,0.61
6925.00,0.60
6924.00,0.60
6923.00,0.60
6922.00,0.60
6921.00,0.60
6920.00,0.60
6919.00,0.60
6918.00,0.60
6917.00,0.60
6916.00,0.60
6915.00,0.60
6914.00,0.60
6913.00,0.60
6912.00,0.60
6911.00,0.60
6910.00,0.60
6909.00,0.60
6908.00,0.60
6907.00,0.60
6906.00,0.60
6905.00,0.60
6904.00,0.60
6903.00,0.60
6902.00,0.60
6901.00,0.60
6900.00,0.60
6899.00,0.60
6898.00,0.60
6897.00,0.60
6896.00,0.60
6895.00,0.60
6894.00,0.60
6893.00,0.60
6892.00,0.60
6891.00,0.60
6890.00,0.60
6889.00,0.60
6888.00,0.60
6887.00,0.60
6886.00,0.60
6885.00,0.60
6884.00,0.60
6883.00,0.60
6882.00,0.60
6881.00,0.60
6880.00,0.60
6879.00,0.60
6878.00,0.60
6877.00,0.60
6876.00,0.60
6875.00,0.60
6874.00,0.60
6873.00,0.60
6872.00,0.60
6871.00,0.60
6870.00,0.60
6869.00,0.60
6868.00,0.60
6867.00,0.60
6866.00,0.60
6865.00,0.60
6864.00,0.60
6863.00,0.60
6862.00,0.60
6861.00,0.60
6860.00,0.60
6859.00,0.60
6858.00,0.60
6857.00,0.60
6856.00,0.60
6855.00,0.60
6854.00,0.60
6853.00,0.60
6852.00,0.60
6851.00,0.60
6850.00,0.60
6849.00,0.60
6848.00,0.60
6847.00,0.60
6846.00,0.60
6845.00,0.60
6844.00,0.61
6843.00,0.61
6842.00,0.61
6841.00,0.61
6840.00,0.61
6839.00,0.61
6838.00,0.61
6837.00,0.61
6836.00,0.61
6835.00,0.61
6834.00,0.61
6833.00,0.61
6832.00,0.61
6831.00,0.61
6830.00,0.61
6829.00,0.61
6828.00,0.61
6827.00,0.61
6826.00,0.61
6825.00,0.61
6824.00,0.61
6823.00,0.62
6822.00,0.62
6821.00,0.62
6820.00,0.62
6819.00,0.61
6818.00,0.61
6817.00,0.61
6816.00,0.61
6815.00,0.61
6814.00,0.61
6813.00,0.61
6812.00,0.61
6811.00,0.61
6810.00,0.61
6809.00,0.61
6808.00,0.61
6807.00,0.61
6806.00,0.61
6805.00,0.61
6804.00,0.61
6803.00,0.61
6802.00,0.61
6801.00,0.61
6800.00,0.61
6799.00,0.61
6798.00,0.61
6797.00,0.61
6796.00,0.61
6795.00,0.61
6794.00,0.62
6793.00,0.62
6792.00,0.62
6791.00,0.62
6790.00,0.62
6789.00,0.62
6788.00,0.62
6787.00,0.63
6786.00,0.63
6785.00,0.63
6784.00,0.63
6783.00,0.63
6782.00,0.63
6781.00,0.63
6780.00,0.63
6779.00,0.63
6778.00,0.63
6777.00,0.63
6776.00,0.63
6775.00,0.63
6774.00,0.63
6773.00,0.63
6772.00,0.63
6771.00,0.63
6770.00,0.63
6769.00,0.63
6768.00,0.63
6767.00,0.63
6766.00,0.63
6765.00,0.63
6764.00,0.63
6763.00,0.63
6762.00,0.63
6761.00,0.63
6760.00,0.64
6759.00,0.64
6758.00,0.64
6757.00,0.64
6756.00,0.64
6755.00,0.64
6754.00,0.64
6753.00,0.64
6752.00,0.64
6751.00,0.64
6750.00,0.64
6749.00,0.64
6748.00,0.64
6747.00,0.64
6746.00,0.64
6745.00,0.64
6744.00,0.64
6743.00,0.64
6742.00,0.64
6741.00,0.64
6740.00,0.64
6739.00,0.64
6738.00,0.64
6737.00,0.64
6736.00,0.64
6735.00,0.64
6734.00,0.64
6733.00,0.64
6732.00,0.64
6731.00,0.64
6730.00,0.64
6729.00,0.64
6728.00,0.64
6727.00,0.65
6726.00,0.65
6725.00,0.65
6724.00,0.65
6723.00,0.65
6722.00,0.65
6721.00,0.65
6720.00,0.65
6719.00,0.65
6718.00,0.65
6717.00,0.65
6716.00,0.65
6715.00,0.65
6714.00,0.65
6713.00,0.65
6712.00,0.65
6711.00,0.65
6710.00,0.65
6709.00,0.65
6708.00,0.65
6707.00,0.65
6706.00,0.65
6705.00,0.65
6704.00,0.65
6703.00,0.66
6702.00,0.66
6701.00,0.66
6700.00,0.66
6699.00,0.66
6698.00,0.66
6697.00,0.66
6696.00,0.66
6695.00,0.66
6694.00,0.66
6693.00,0.66
6692.00,0.66
6691.00,0.66
6690.00,0.66
6689.00,0.65
6688.00,0.65
6687.00,0.65
6686.00,0.65
6685.00,0.65
6684.00,0.65
6683.00,0.65
6682.00,0.66
6681.00,0.66
6680.00,0.66
6679.00,0.66
6678.00,0.66
6677.00,0.66
6676.00,0.66
6675.00,0.66
6674.00,0.66
6673.00,0.66
6672.00,0.66
6671.00,0.66
6670.00,0.66
6669.00,0.66
6668.00,0.66
6667.00,0.66
6666.00,0.67
6665.00,0.67
6664.00,0.67
6663.00,0.67
6662.00,0.67
6661.00,0.67
6660.00,0.67
6659.00,0.67
6658.00,0.67
6657.00,0.67
6656.00,0.67
6655.00,0.67
6654.00,0.67
6653.00,0.67
6652.00,0.67
6651.00,0.67
6650.00,0.67
6649.00,0.67
6648.00,0.67
6647.00,0.67
6646.00,0.68
6645.00,0.68
6644.00,0.68
6643.00,0.68
6642.00,0.68
6641.00,0.68
6640.00,0.68
6639.00,0.68
6638.00,0.68
6637.00,0.68
6636.00,0.69
6635.00,0.69
6634.00,0.69
6633.00,0.69
6632.00,0.69
6631.00,0.69
6630.00,0.69
6629.00,0.69
6628.00,0.69
6627.00,0.69
6626.00,0.69
6625.00,0.69
6624.00,0.69
6623.00,0.69
6622.00,0.69
6621.00,0.69
6620.00,0.69
6619.00,0.69
6618.00,0.69
6617.00,0.69
6616.00,0.70
6615.00,0.70
6614.00,0.70
6613.00,0.70
6612.00,0.70
6611.00,0.70
6610.00,0.70
6609.00,0.70
6608.00,0.70
6607.00,0.70
6606.00,0.71
6605.00,0.71
6604.00,0.71
6603.00,0.71
6602.00,0.71
6601.00,0.71
6600.00,0.71
6599.00,0.71
6598.00,0.71
6597.00,0.71
6596.00,0.71
6595.00,0.71
6594.00,0.71
6593.00,0.71
6592.00,0.72
6591.00,0.72
6590.00,0.72
6589.00,0.72
6588.00,0.72
6587.00,0.72
6586.00,0.72
6585.00,0.72
6584.00,0.72
6583.00,0.72
6582.00,0.72
6581.00,0.72
6580.00,0.72
6579.00,0.72
6578.00,0.72
6577.00,0.72
6576.00,0.72
6575.00,0.72
6574.00,0.72
6573.00,0.72
6572.00,0.72
6571.00,0.72
6570.00,0.73
6569.00,0.73
6568.00,0.73
6567.00,0.73
6566.00,0.73
6565.00,0.73
6564.00,0.73
6563.00,0.73
6562.00,0.73
6561.00,0.73
6560.00,0.73
6559.00,0.73
6558.00,0.73
6557.00,0.74
6556.00,0.74
6555.00,0.74
6554.00,0.74
6553.00,0.74
6552.00,0.74
6551.00,0.74
6550.00,0.74
6549.00,0.74
6548.00,0.74
6547.00,0.74
6546.00,0.74
6545.00,0.74
6544.00,0.74
6543.00,0.75
6542.00,0.75
6541.00,0.75
6540.00,0.75
6539.00,0.75
6538.00,0.75
6537.00,0.75
6536.00,0.75
6535.00,0.75
6534.00,0.75
6533.00,0.75
6532.00,0.75
6531.00,0.75
6530.00,0.75
6529.00,0.75
6528.00,0.75
6527.00,0.76
6526.00,0.76
6525.00,0.76
6524.00,0.76
6523.00,0.76
6522.00,0.76
6521.00,0.76
6520.00,0.76
6519.00,0.76
6518.00,0.76
6517.00,0.76
6516.00,0.76
6515.00,0.76
6514.00,0.76
6513.00,0.76
6512.00,0.76
6511.00,0.76
6510.00,0.77
6509.00,0.77
6508.00,0.77
6507.00,0.77
6506.00,0.77
6505.00,0.77
6504.00,0.77
6503.00,0.77
6502.00,0.77
6501.00,0.77
6500.00,0.77
6499.00,0.77
6498.00,0.77
6497.00,0.77
6496.00,0.77
6495.00,0.77
6494.00,0.78
6493.00,0.78
6492.00,0.78
6491.00,0.78
6490.00,0.78
6489.00,0.78
6488.00,0.78
6487.00,0.78
6486.00,0.78
6485.00,0.78
6484.00,0.79
6483.00,0.79
6482.00,0.79
6481.00,0.79
6480.00,0.79
6479.00,0.79
6478.00,0.79
6477.00,0.79
6476.00,0.79
6475.00,0.80
6474.00,0.80
6473.00,0.80
6472.00,0.80
6471.00,0.80
6470.00,0.80
6469.00,0.80
6468.00,0.80
6467.00,0.80
6466.00,0.80
6465.00,0.80
6464.00,0.80
6463.00,0.81
6462.00,0.81
6461.00,0.81
6460.00,0.81
6459.00,0.81
6458.00,0.81
6457.00,0.81
6456.00,0.81
6455.00,0.81
6454.00,0.81
6453.00,0.81
6452.00,0.81
6451.00,0.81
6450.00,0.81
6449.00,0.81
6448.00,0.81
6447.00,0.81
6446.00,0.82
6445.00,0.82
6444.00,0.82
6443.00,0.82
6442.00,0.82
6441.00,0.82
6440.00,0.82
6439.00,0.82
6438.00,0.82
6437.00,0.83
6436.00,0.83
6435.00,0.83
6434.00,0.83
6433.00,0.83
6432.00,0.83
6431.00,0.83
6430.00,0.83
6429.00,0.83
6428.00,0.83
6427.00,0.83
6426.00,0.83
6425.00,0.83
6424.00,0.83
6423.00,0.83
6422.00,0.83
6421.00,0.83
6420.00,0.83
6419.00,0.83
6418.00,0.83
6417.00,0.83
6416.00,0.83
6415.00,0.83
6414.00,0.83
6413.00,0.84
6412.00,0.84
6411.00,0.84
6410.00,0.84
6409.00,0.84
6408.00,0.85
6407.00,0.85
6406.00,0.85
6405.00,0.85
6404.00,0.85
6403.00,0.86
6402.00,0.86
6401.00,0.86
6400.00,0.86
6399.00,0.86
6398.00,0.86
6397.00,0.86
6396.00,0.86
6395.00,0.86
6394.00,0.86
6393.00,0.86
6392.00,0.87
6391.00,0.87
6390.00,0.87
6389.00,0.87
6388.00,0.87
6387.00,0.87
6386.00,0.87
6385.00,0.87
6384.00,0.87
6383.00,0.87
6382.00,0.87
6381.00,0.87
6380.00,0.87
6379.00,0.87
6378.00,0.87
6377.00,0.88
6376.00,0.88
6375.00,0.88
6374.00,0.88
6373.00,0.88
6372.00,0.88
6371.00,0.88
6370.00,0.88
6369.00,0.88
6368.00,0.88
6367.00,0.88
6366.00,0.88
6365.00,0.89
6364.00,0.89
6363.00,0.89
6362.00,0.89
6361.00,0.89
6360.00,0.89
6359.00,0.89
6358.00,0.89
6357.00,0.89
6356.00,0.89
6355.00,0.89
6354.00,0.89
6353.00,0.89
6352.00,0.89
6351.00,0.89
6350.00,0.89
6349.00,0.89
6348.00,0.90
6347.00,0.90
6346.00,0.90
6345.00,0.90
6344.00,0.90
6343.00,0.90
6342.00,0.90
6341.00,0.90
6340.00,0.90
6339.00,0.90
6338.00,0.91
6337.00,0.91
6336.00,0.91
6335.00,0.91
6334.00,0.91
6333.00,0.91
6332.00,0.91
6331.00,0.91
6330.00,0.92
6329.00,0.92
6328.00,0.92
6327.00,0.92
6326.00,0.92
6325.00,0.92
6324.00,0.92
6323.00,0.92
6322.00,0.92
6321.00,0.93
6320.00,0.93
6319.00,0.93
6318.00,0.93
6317.00,0.93
6316.00,0.93
6315.00,0.93
6314.00,0.93
6313.00,0.94
6312.00,0.94
6311.00,0.94
6310.00,0.94
6309.00,0.94
6308.00,0.94
6307.00,0.94
6306.00,0.95
6305.00,0.95
6304.00,0.95
6303.00,0.95
6302.00,0.95
6301.00,0.95
6300.00,0.95
6299.00,0.95
6298.00,0.96
6297.00,0.96
6296.00,0.96
6295.00,0.96
6294.00,0.96
6293.00,0.96
6292.00,0.96
6291.00,0.96
6290.00,0.97
6289.00,0.97
6288.00,0.97
6287.00,0.97
6286.00,0.97
6285.00,0.97
6284.00,0.97
6283.00,0.97
6282.00,0.97
6281.00,0.97
6280.00,0.97
6279.00,0.98
6278.00,0.98
6277.00,0.98
6276.00,0.98
6275.00,0.98
6274.00,0.98
6273.00,0.98
6272.00,0.98
6271.00,0.98
6270.00,0.98
6269.00,0.98
6268.00,0.98
6267.00,0.99
6266.00,0.99
6265.00,0.99
6264.00,0.99
6263.00,0.99
6262.00,0.99
6261.00,0.99
6260.00,1.00
6259.00,1.00
6258.00,1.00
6257.00,1.00
6256.00,1.00
6255.00,1.00
6254.00,1.01
6253.00,1.01
6252.00,1.01
6251.00,1.01
6250.00,1.01
6249.00,1.02
6248.00,1.02
6247.00,1.02
6246.00,1.02
6245.00,1.02
6244.00,1.02
6243.00,1.03
6242.00,1.03
6241.00,1.03
6240.00,1.03
6239.00,1.03
6238.00,1.03
6237.00,1.03
6236.00,1.04
6235.00,1.04
6234.00,1.04
6233.00,1.04
6232.00,1.04
6231.00,1.04
6230.00,1.04
6229.00,1.05
6228.00,1.05
6227.00,1.05
6226.00,1.05
6225.00,1.05
6224.00,1.05
6223.00,1.06
6222.00,1.06
6221.00,1.06
6220.00,1.06
6219.00,1.06
6218.00,1.06
6217.00,1.07
6216.00,1.07
6215.00,1.07
6214.00,1.07
6213.00,1.07
6212.00,1.07
6211.00,1.07
6210.00,1.07
6209.00,1.07
6208.00,1.08
6207.00,1.08
6206.00,1.08
6205.00,1.08
6204.00,1.08
6203.00,1.08
6202.00,1.08
6201.00,1.08
6200.00,1.09
6199.00,1.09
6198.00,1.09
6197.00,1.09
6196.00,1.09
6195.00,1.09
6194.00,1.09
6193.00,1.10
6192.00,1.10
6191.00,1.10
6190.00,1.10
6189.00,1.10
6188.00,1.10
6187.00,1.11
6186.00,1.11
6185.00,1.11
6184.00,1.11
6183.00,1.11
6182.00,1.11
6181.00,1.11
6180.00,1.11
6179.00,1.12
6178.00,1.12
6177.00,1.12
6176.00,1.12
6175.00,1.12
6174.00,1.12
6173.00,1.12
6172.00,1.12
6171.00,1.12
6170.00,1.13
6169.00,1.13
6168.00,1.13
6167.00,1.13
6166.00,1.13
6165.00,1.13
6164.00,1.14
6163.00,1.14
6162.00,1.14
6161.00,1.14
6160.00,1.14
6159.00,1.14
6158.00,1.15
6157.00,1.15
6156.00,1.15
6155.00,1.15
6154.00,1.16
6153.00,1.16
6152.00,1.16
6151.00,1.16
6150.00,1.16
6149.00,1.16
6148.00,1.17
6147.00,1.17
6146.00,1.17
6145.00,1.17
6144.00,1.17
6143.00,1.17
6142.00,1.17
6141.00,1.17
6140.00,1.18
6139.00,1.18
6138.00,1.18
6137.00,1.18
6136.00,1.18
6135.00,1.18
6134.00,1.18
6133.00,1.18
6132.00,1.19
6131.00,1.19
6130.00,1.19
6129.00,1.19
6128.00,1.19
6127.00,1.20
6126.00,1.20
6125.00,1.20
6124.00,1.20
6123.00,1.20
6122.00,1.21
6121.00,1.21
6120.00,1.21
6119.00,1.21
6118.00,1.21
6117.00,1.21
6116.00,1.22
6115.00,1.22
6114.00,1.22
6113.00,1.22
6112.00,1.22
6111.00,1.22
6110.00,1.22
6109.00,1.23
6108.00,1.23
6107.00,1.23
6106.00,1.23
6105.00,1.23
6104.00,1.23
6103.00,1.23
6102.00,1.24
6101.00,1.24
6100.00,1.24
6099.00,1.24
6098.00,1.24
6097.00,1.24
6096.00,1.25
6095.00,1.25
6094.00,1.25
6093.00,1.25
6092.00,1.25
6091.00,1.26
6090.00,1.26
6089.00,1.26
6088.00,1.26
6087.00,1.26
6086.00,1.26
6085.00,1.27
6084.00,1.27
6083.00,1.27
6082.00,1.27
6081.00,1.27
6080.00,1.27
6079.00,1.27
6078.00,1.27
6077.00,1.27
6076.00,1.27
6075.00,1.28
6074.00,1.28
6073.00,1.28
6072.00,1.28
6071.00,1.28
6070.00,1.28
6069.00,1.28
6068.00,1.28
6067.00,1.28
6066.00,1.29
6065.00,1.29
6064.00,1.29
6063.00,1.29
6062.00,1.29
6061.00,1.29
6060.00,1.30
6059.00,1.30
6058.00,1.30
6057.00,1.30
6056.00,1.30
6055.00,1.30
6054.00,1.30
6053.00,1.30
6052.00,1.30
6051.00,1.31
6050.00,1.31
6049.00,1.31
6048.00,1.31
6047.00,1.31
6046.00,1.31
6045.00,1.31
6044.00,1.31
6043.00,1.31
6042.00,1.32
6041.00,1.32
6040.00,1.32
6039.00,1.32
6038.00,1.32
6037.00,1.32
6036.00,1.33
6035.00,1.33
6034.00,1.33
6033.00,1.33
6032.00,1.33
6031.00,1.33
6030.00,1.33
6029.00,1.34
6028.00,1.34
6027.00,1.34
6026.00,1.34
6025.00,1.34
6024.00,1.34
6023.00,1.34
6022.00,1.34
6021.00,1.34
6020.00,1.34
6019.00,1.34
6018.00,1.34
6017.00,1.34
6016.00,1.34
6015.00,1.34
6014.00,1.34
6013.00,1.34
6012.00,1.34
6011.00,1.34
6010.00,1.34
6009.00,1.34
6008.00,1.34
6007.00,1.34
6006.00,1.34
6005.00,1.34
6004.00,1.34
6003.00,1.34
6002.00,1.34
6001.00,1.34
6000.00,1.34
5999.00,1.33
5998.00,1.33
5997.00,1.33
5996.00,1.33
5995.00,1.33
5994.00,1.33
5993.00,1.33
5992.00,1.33
5991.00,1.32
5990.00,1.32
5989.00,1.32
5988.00,1.32
5987.00,1.32
5986.00,1.31
5985.00,1.31
5984.00,1.31
5983.00,1.31
5982.00,1.30
5981.00,1.30
5980.00,1.30
5979.00,1.29
5978.00,1.29
5977.00,1.29
5976.00,1.28
5975.00,1.28
5974.00,1.27
5973.00,1.27
5972.00,1.26
5971.00,1.26
5970.00,1.25
5969.00,1.25
5968.00,1.24
5967.00,1.24
5966.00,1.23
5965.00,1.23
5964.00,1.22
5963.00,1.21
5962.00,1.21
5961.00,1.20
5960.00,1.20
5959.00,1.19
5958.00,1.19
5957.00,1.18
5956.00,1.18
5955.00,1.17
5954.00,1.17
5953.00,1.17
5952.00,1.16
5951.00,1.16
5950.00,1.16
5949.00,1.15
5948.00,1.15
5947.00,1.15
5946.00,1.15
5945.00,1.15
5944.00,1.14
5943.00,1.14
5942.00,1.14
5941.00,1.14
5940.00,1.14
5939.00,1.14
5938.00,1.13
5937.00,1.13
5936.00,1.13
5935.00,1.13
5934.00,1.13
5933.00,1.13
5932.00,1.13
5931.00,1.12
5930.00,1.12
5929.00,1.12
5928.00,1.12
5927.00,1.12
5926.00,1.12
5925.00,1.11
5924.00,1.11
5923.00,1.11
5922.00,1.11
5921.00,1.11
5920.00,1.11
5919.00,1.10
5918.00,1.10
5917.00,1.10
5916.00,1.10
5915.00,1.10
5914.00,1.10
5913.00,1.09
5912.00,1.09
5911.00,1.09
5910.00,1.09
5909.00,1.09
5908.00,1.09
5907.00,1.09
5906.00,1.09
5905.00,1.09
5904.00,1.09
5903.00,1.09
5902.00,1.09
5901.00,1.10
5900.00,1.10
5899.00,1.10
5898.00,1.10
5897.00,1.10
5896.00,1.10
5895.00,1.11
5894.00,1.11
5893.00,1.11
5892.00,1.11
5891.00,1.12
5890.00,1.12
5889.00,1.12
5888.00,1.12
5887.00,1.13
5886.00,1.13
5885.00,1.13
5884.00,1.14
5883.00,1.14
5882.00,1.14
5881.00,1.14
5880.00,1.15
5879.00,1.15
5878.00,1.15
5877.00,1.15
5876.00,1.16
5875.00,1.16
5874.00,1.16
5873.00,1.16
5872.00,1.16
5871.00,1.17
5870.00,1.17
5869.00,1.17
5868.00,1.17
5867.00,1.17
5866.00,1.17
5865.00,1.18
5864.00,1.18
5863.00,1.18
5862.00,1.18
5861.00,1.18
5860.00,1.18
5859.00,1.18
5858.00,1.18
5857.00,1.18
5856.00,1.18
5855.00,1.18
5854.00,1.18
5853.00,1.19
5852.00,1.19
5851.00,1.19
5850.00,1.19
5849.00,1.19
5848.00,1.19
5847.00,1.19
5846.00,1.19
5845.00,1.19
5844.00,1.19
5843.00,1.19
5842.00,1.19
5841.00,1.19
5840.00,1.18
5839.00,1.18
5838.00,1.18
5837.00,1.18
5836.00,1.18
5835.00,1.18
5834.00,1.18
5833.00,1.18
5832.00,1.18
5831.00,1.18
5830.00,1.18
5829.00,1.18
5828.00,1.18
5827.00,1.18
5826.00,1.18
5825.00,1.18
5824.00,1.18
5823.00,1.18
5822.00,1.18
5821.00,1.18
5820.00,1.18
5819.00,1.18
5818.00,1.18
5817.00,1.18
5816.00,1.18
5815.00,1.18
5814.00,1.19
5813.00,1.19
5812.00,1.19
5811.00,1.19
5810.00,1.19
5809.00,1.19
5808.00,1.19
5807.00,1.19
5806.00,1.18
5805.00,1.18
5804.00,1.18
5803.00,1.18
5802.00,1.18
5801.00,1.18
5800.00,1.18
5799.00,1.18
5798.00,1.18
5797.00,1.18
5796.00,1.17
5795.00,1.17
5794.00,1.17
5793.00,1.17
5792.00,1.17
5791.00,1.17
5790.00,1.16
5789.00,1.16
5788.00,1.16
5787.00,1.16
5786.00,1.16
5785.00,1.15
5784.00,1.15
5783.00,1.15
5782.00,1.15
5781.00,1.15
5780.00,1.15
5779.00,1.14
5778.00,1.14
5777.00,1.14
5776.00,1.14
5775.00,1.14
5774.00,1.14
5773.00,1.14
5772.00,1.14
5771.00,1.14
5770.00,1.14
5769.00,1.14
5768.00,1.14
5767.00,1.14
5766.00,1.15
5765.00,1.15
5764.00,1.15
5763.00,1.15
5762.00,1.15
5761.00,1.16
5760.00,1.16
5759.00,1.16
5758.00,1.16
5757.00,1.17
5756.00,1.17
5755.00,1.17
5754.00,1.17
5753.00,1.18
5752.00,1.18
5751.00,1.18
5750.00,1.18
5749.00,1.19
5748.00,1.19
5747.00,1.19
5746.00,1.19
5745.00,1.19
5744.00,1.19
5743.00,1.20
5742.00,1.20
5741.00,1.20
5740.00,1.20
5739.00,1.20
5738.00,1.20
5737.00,1.20
5736.00,1.20
5735.00,1.20
5734.00,1.21
5733.00,1.21
5732.00,1.21
5731.00,1.21
5730.00,1.21
5729.00,1.21
5728.00,1.21
5727.00,1.21
5726.00,1.21
5725.00,1.21
5724.00,1.21
5723.00,1.21
5722.00,1.21
5721.00,1.21
5720.00,1.21
5719.00,1.21
5718.00,1.21
5717.00,1.21
5716.00,1.21
5715.00,1.21
5714.00,1.21
5713.00,1.21
5712.00,1.21
5711.00,1.21
5710.00,1.21
5709.00,1.21
5708.00,1.21
5707.00,1.21
5706.00,1.20
5705.00,1.20
5704.00,1.20
5703.00,1.20
5702.00,1.20
5701.00,1.19
5700.00,1.19
5699.00,1.19
5698.00,1.19
5697.00,1.18
5696.00,1.18
5695.00,1.18
5694.00,1.18
5693.00,1.18
5692.00,1.17
5691.00,1.17
5690.00,1.17
5689.00,1.17
5688.00,1.17
5687.00,1.17
5686.00,1.17
5685.00,1.17
5684.00,1.17
5683.00,1.17
5682.00,1.17
5681.00,1.16
5680.00,1.16
5679.00,1.16
5678.00,1.16
5677.00,1.16
5676.00,1.16
5675.00,1.16
5674.00,1.16
5673.00,1.16
5672.00,1.16
5671.00,1.16
5670.00,1.17
5669.00,1.17
5668.00,1.17
5667.00,1.17
5666.00,1.17
5665.00,1.17
5664.00,1.17
5663.00,1.17
5662.00,1.17
5661.00,1.17
5660.00,1.17
5659.00,1.17
5658.00,1.17
5657.00,1.17
5656.00,1.18
5655.00,1.18
5654.00,1.18
5653.00,1.18
5652.00,1.18
5651.00,1.18
5650.00,1.18
5649.00,1.18
5648.00,1.18
5647.00,1.19
5646.00,1.19
5645.00,1.19
5644.00,1.19
5643.00,1.19
5642.00,1.19
5641.00,1.19
5640.00,1.19
5639.00,1.19
5638.00,1.19
5637.00,1.19
5636.00,1.19
5635.00,1.20
5634.00,1.20
5633.00,1.20
5632.00,1.20
5631.00,1.20
5630.00,1.20
5629.00,1.20
5628.00,1.20
5627.00,1.20
5626.00,1.20
5625.00,1.21
5624.00,1.21
5623.00,1.21
5622.00,1.21
5621.00,1.21
5620.00,1.21
5619.00,1.22
5618.00,1.22
5617.00,1.22
5616.00,1.22
5615.00,1.22
5614.00,1.22
5613.00,1.23
5612.00,1.23
5611.00,1.23
5610.00,1.23
5609.00,1.23
5608.00,1.23
5607.00,1.24
5606.00,1.24
5605.00,1.24
5604.00,1.24
5603.00,1.24
5602.00,1.24
5601.00,1.25
5600.00,1.25
5599.00,1.25
5598.00,1.25
5597.00,1.25
5596.00,1.25
5595.00,1.25
5594.00,1.26
5593.00,1.26
5592.00,1.26
5591.00,1.26
5590.00,1.26
5589.00,1.26
5588.00,1.26
5587.00,1.26
5586.00,1.26
5585.00,1.27
5584.00,1.27
5583.00,1.27
5582.00,1.27
5581.00,1.27
5580.00,1.27
5579.00,1.27
5578.00,1.27
5577.00,1.27
5576.00,1.27
5575.00,1.27
5574.00,1.27
5573.00,1.27
5572.00,1.28
5571.00,1.28
5570.00,1.28
5569.00,1.28
5568.00,1.28
5567.00,1.28
5566.00,1.29
5565.00,1.29
5564.00,1.29
5563.00,1.29
5562.00,1.30
5561.00,1.30
5560.00,1.30
5559.00,1.30
5558.00,1.30
5557.00,1.30
5556.00,1.31
5555.00,1.31
5554.00,1.31
5553.00,1.31
5552.00,1.31
5551.00,1.31
5550.00,1.31
5549.00,1.32
5548.00,1.32
5547.00,1.32
5546.00,1.32
5545.00,1.32
5544.00,1.32
5543.00,1.32
5542.00,1.32
5541.00,1.32
5540.00,1.32
5539.00,1.33
5538.00,1.33
5537.00,1.33
5536.00,1.33
5535.00,1.33
5534.00,1.33
5533.00,1.33
5532.00,1.33
5531.00,1.33
5530.00,1.33
5529.00,1.33
5528.00,1.34
5527.00,1.34
5526.00,1.34
5525.00,1.34
5524.00,1.34
5523.00,1.34
5522.00,1.34
5521.00,1.34
5520.00,1.34
5519.00,1.34
5518.00,1.35
5517.00,1.35
5516.00,1.35
5515.00,1.35
5514.00,1.35
5513.00,1.35
5512.00,1.35
5511.00,1.35
5510.00,1.35
5509.00,1.35
5508.00,1.35
5507.00,1.35
5506.00,1.35
5505.00,1.35
5504.00,1.35
5503.00,1.35
5502.00,1.35
5501.00,1.35
5500.00,1.35
5499.00,1.35
5498.00,1.36
5497.00,1.36
5496.00,1.36
5495.00,1.36
5494.00,1.36
5493.00,1.36
5492.00,1.36
5491.00,1.36
5490.00,1.36
5489.00,1.36
5488.00,1.37
5487.00,1.37
5486.00,1.37
5485.00,1.37
5484.00,1.37
5483.00,1.37
5482.00,1.38
5481.00,1.38
5480.00,1.38
5479.00,1.38
5478.00,1.38
5477.00,1.38
5476.00,1.39
5475.00,1.39
5474.00,1.39
5473.00,1.39
5472.00,1.39
5471.00,1.39
5470.00,1.39
5469.00,1.39
5468.00,1.39
5467.00,1.39
5466.00,1.39
5465.00,1.40
5464.00,1.40
5463.00,1.40
5462.00,1.40
5461.00,1.40
5460.00,1.40
5459.00,1.40
5458.00,1.40
5457.00,1.40
5456.00,1.40
5455.00,1.40
5454.00,1.39
5453.00,1.39
5452.00,1.39
5451.00,1.39
5450.00,1.39
5449.00,1.39
5448.00,1.39
5447.00,1.39
5446.00,1.39
5445.00,1.39
5444.00,1.39
5443.00,1.39
5442.00,1.39
5441.00,1.39
5440.00,1.39
5439.00,1.39
5438.00,1.39
5437.00,1.39
5436.00,1.39
5435.00,1.39
5434.00,1.39
5433.00,1.39
5432.00,1.39
5431.00,1.39
5430.00,1.39
5429.00,1.39
5428.00,1.39
5427.00,1.39
5426.00,1.39
5425.00,1.39
5424.00,1.39
5423.00,1.39
5422.00,1.39
5421.00,1.39
5420.00,1.39
5419.00,1.39
5418.00,1.38
5417.00,1.38
5416.00,1.38
5415.00,1.38
5414.00,1.38
5413.00,1.38
5412.00,1.37
5411.00,1.37
5410.00,1.37
5409.00,1.37
5408.00,1.37
5407.00,1.37
5406.00,1.37
5405.00,1.36
5404.00,1.36
5403.00,1.36
5402.00,1.36
5401.00,1.36
5400.00,1.36
5399.00,1.35
5398.00,1.35
5397.00,1.35
5396.00,1.35
5395.00,1.34
5394.00,1.34
5393.00,1.34
5392.00,1.34
5391.00,1.33
5390.00,1.33
5389.00,1.33
5388.00,1.32
5387.00,1.32
5386.00,1.32
5385.00,1.31
5384.00,1.31
5383.00,1.30
5382.00,1.30
5381.00,1.30
5380.00,1.29
5379.00,1.29
5378.00,1.28
5377.00,1.28
5376.00,1.27
5375.00,1.26
5374.00,1.26
5373.00,1.25
5372.00,1.25
5371.00,1.24
5370.00,1.24
5369.00,1.23
5368.00,1.22
5367.00,1.22
5366.00,1.21
5365.00,1.21
5364.00,1.20
5363.00,1.19
5362.00,1.19
5361.00,1.18
5360.00,1.17
5359.00,1.17
5358.00,1.16
5357.00,1.15
5356.00,1.14
5355.00,1.14
5354.00,1.13
5353.00,1.12
5352.00,1.12
5351.00,1.11
5350.00,1.10
5349.00,1.10
5348.00,1.09
5347.00,1.08
5346.00,1.08
5345.00,1.07
5344.00,1.06
5343.00,1.06
5342.00,1.05
5341.00,1.05
5340.00,1.04
5339.00,1.04
5338.00,1.03
5337.00,1.03
5336.00,1.02
5335.00,1.02
5334.00,1.01
5333.00,1.01
5332.00,1.00
5331.00,1.00
5330.00,1.00
5329.00,0.99
5328.00,0.99
5327.00,0.99
5326.00,0.98
5325.00,0.98
5324.00,0.98
5323.00,0.97
5322.00,0.97
5321.00,0.97
5320.00,0.97
5319.00,0.96
5318.00,0.96
5317.00,0.96
5316.00,0.96
5315.00,0.96
5314.00,0.95
5313.00,0.95
5312.00,0.95
5311.00,0.95
5310.00,0.95
5309.00,0.95
5308.00,0.94
5307.00,0.94
5306.00,0.94
5305.00,0.94
5304.00,0.94
5303.00,0.94
5302.00,0.94
5301.00,0.94
5300.00,0.93
5299.00,0.93
5298.00,0.93
5297.00,0.93
5296.00,0.93
5295.00,0.93
5294.00,0.93
5293.00,0.93
5292.00,0.93
5291.00,0.93
5290.00,0.93
5289.00,0.93
5288.00,0.93
5287.00,0.93
5286.00,0.93
5285.00,0.93
5284.00,0.94
5283.00,0.94
5282.00,0.94
5281.00,0.94
5280.00,0.94
5279.00,0.94
5278.00,0.94
5277.00,0.94
5276.00,0.94
5275.00,0.94
5274.00,0.94
5273.00,0.94
5272.00,0.94
5271.00,0.94
5270.00,0.94
5269.00,0.94
5268.00,0.94
5267.00,0.94
5266.00,0.94
5265.00,0.94
5264.00,0.94
5263.00,0.94
5262.00,0.94
5261.00,0.94
5260.00,0.94
5259.00,0.94
5258.00,0.94
5257.00,0.94
5256.00,0.94
5255.00,0.94
5254.00,0.94
5253.00,0.94
5252.00,0.94
5251.00,0.94
5250.00,0.94
5249.00,0.94
5248.00,0.94
5247.00,0.94
5246.00,0.94
5245.00,0.95
5244.00,0.95
5243.00,0.95
5242.00,0.95
5241.00,0.95
5240.00,0.95
5239.00,0.95
5238.00,0.95
5237.00,0.95
5236.00,0.95
5235.00,0.95
5234.00,0.95
5233.00,0.95
5232.00,0.95
5231.00,0.94
5230.00,0.94
5229.00,0.94
5228.00,0.94
5227.00,0.94
5226.00,0.94
5225.00,0.94
5224.00,0.94
5223.00,0.94
5222.00,0.94
5221.00,0.94
5220.00,0.94
5219.00,0.94
5218.00,0.94
5217.00,0.94
5216.00,0.94
5215.00,0.94
5214.00,0.94
5213.00,0.94
5212.00,0.94
5211.00,0.94
5210.00,0.94
5209.00,0.95
5208.00,0.95
5207.00,0.95
5206.00,0.95
5205.00,0.95
5204.00,0.95
5203.00,0.95
5202.00,0.95
5201.00,0.95
5200.00,0.95
5199.00,0.95
5198.00,0.96
5197.00,0.96
5196.00,0.96
5195.00,0.96
5194.00,0.96
5193.00,0.96
5192.00,0.96
5191.00,0.96
5190.00,0.96
5189.00,0.96
5188.00,0.97
5187.00,0.97
5186.00,0.97
5185.00,0.97
5184.00,0.97
5183.00,0.97
5182.00,0.97
5181.00,0.97
5180.00,0.97
5179.00,0.97
5178.00,0.97
5177.00,0.97
5176.00,0.97
5175.00,0.97
5174.00,0.97
5173.00,0.97
5172.00,0.97
5171.00,0.97
5170.00,0.97
5169.00,0.97
5168.00,0.97
5167.00,0.97
5166.00,0.97
5165.00,0.97
5164.00,0.97
5163.00,0.97
5162.00,0.97
5161.00,0.97
5160.00,0.97
5159.00,0.97
5158.00,0.98
5157.00,0.98
5156.00,0.98
5155.00,0.98
5154.00,0.98
5153.00,0.98
5152.00,0.98
5151.00,0.98
5150.00,0.98
5149.00,0.98
5148.00,0.99
5147.00,0.99
5146.00,0.99
5145.00,0.99
5144.00,0.99
5143.00,0.99
5142.00,0.99
5141.00,0.99
5140.00,0.99
5139.00,0.99
5138.00,0.99
5137.00,0.99
5136.00,0.99
5135.00,0.99
5134.00,0.99
5133.00,0.99
5132.00,0.99
5131.00,0.99
5130.00,0.99
5129.00,0.99
5128.00,0.99
5127.00,0.99
5126.00,0.99
5125.00,0.99
5124.00,0.99
5123.00,0.99
5122.00,0.99
5121.00,0.99
5120.00,0.99
5119.00,0.99
5118.00,0.99
5117.00,0.99
5116.00,0.99
5115.00,0.99
5114.00,0.99
5113.00,0.99
5112.00,0.99
5111.00,0.99
5110.00,0.99
5109.00,1.00
5108.00,1.00
5107.00,1.00
5106.00,1.00
5105.00,1.00
5104.00,1.00
5103.00,1.00
5102.00,1.00
5101.00,1.00
5100.00,1.00
5099.00,1.01
5098.00,1.01
5097.00,1.01
5096.00,1.01
5095.00,1.01
5094.00,1.01
5093.00,1.01
5092.00,1.01
5091.00,1.01
5090.00,1.01
5089.00,1.01
5088.00,1.01
5087.00,1.01
5086.00,1.01
5085.00,1.01
5084.00,1.01
5083.00,1.01
5082.00,1.01
5081.00,1.01
5080.00,1.01
5079.00,1.01
5078.00,1.01
5077.00,1.01
5076.00,1.01
5075.00,1.01
5074.00,1.01
5073.00,1.02
5072.00,1.02
5071.00,1.02
5070.00,1.02
5069.00,1.02
5068.00,1.02
5067.00,1.02
5066.00,1.02
5065.00,1.02
5064.00,1.02
5063.00,1.02
5062.00,1.02
5061.00,1.02
5060.00,1.02
5059.00,1.02
5058.00,1.02
5057.00,1.02
5056.00,1.02
5055.00,1.02
5054.00,1.02
5053.00,1.02
5052.00,1.02
5051.00,1.02
5050.00,1.03
5049.00,1.03
5048.00,1.03
5047.00,1.03
5046.00,1.03
5045.00,1.03
5044.00,1.03
5043.00,1.03
5042.00,1.03
5041.00,1.03
5040.00,1.03
5039.00,1.03
5038.00,1.03
5037.00,1.03
5036.00,1.03
5035.00,1.03
5034.00,1.03
5033.00,1.03
5032.00,1.03
5031.00,1.03
5030.00,1.03
5029.00,1.03
5028.00,1.03
5027.00,1.03
5026.00,1.03
5025.00,1.03
5024.00,1.03
5023.00,1.03
5022.00,1.03
5021.00,1.03
5020.00,1.03
5019.00,1.04
5018.00,1.04
5017.00,1.04
5016.00,1.04
5015.00,1.04
5014.00,1.04
5013.00,1.04
5012.00,1.04
5011.00,1.04
5010.00,1.04
5009.00,1.04
5008.00,1.04
5007.00,1.04
5006.00,1.04
5005.00,1.04
5004.00,1.04
5003.00,1.05
5002.00,1.05
5001.00,1.05
5000.00,1.05
4999.00,1.05
4998.00,1.05
4997.00,1.05
4996.00,1.05
4995.00,1.05
4994.00,1.05
4993.00,1.05
4992.00,1.05
4991.00,1.05
4990.00,1.05
4989.00,1.05
4988.00,1.05
4987.00,1.05
4986.00,1.05
4985.00,1.05
4984.00,1.05
4983.00,1.05
4982.00,1.05
4981.00,1.05
4980.00,1.05
4979.00,1.05
4978.00,1.05
4977.00,1.06
4976.00,1.06
4975.00,1.06
4974.00,1.06
4973.00,1.06
4972.00,1.06
4971.00,1.06
4970.00,1.06
4969.00,1.06
4968.00,1.06
4967.00,1.06
4966.00,1.06
4965.00,1.06
4964.00,1.06
4963.00,1.06
4962.00,1.06
4961.00,1.06
4960.00,1.06
4959.00,1.07
4958.00,1.07
4957.00,1.07
4956.00,1.07
4955.00,1.07
4954.00,1.07
4953.00,1.07
4952.00,1.07
4951.00,1.07
4950.00,1.07
4949.00,1.07
4948.00,1.07
4947.00,1.07
4946.00,1.07
4945.00,1.07
4944.00,1.07
4943.00,1.07
4942.00,1.07
4941.00,1.07
4940.00,1.07
4939.00,1.07
4938.00,1.07
4937.00,1.07
4936.00,1.07
4935.00,1.07
4934.00,1.07
4933.00,1.07
4932.00,1.07
4931.00,1.07
4930.00,1.07
4929.00,1.07
4928.00,1.07
4927.00,1.07
4926.00,1.07
4925.00,1.07
4924.00,1.07
4923.00,1.07
4922.00,1.07
4921.00,1.07
4920.00,1.07
4919.00,1.07
4918.00,1.07
4917.00,1.08
4916.00,1.08
4915.00,1.08
4914.00,1.08
4913.00,1.08
4912.00,1.09
4911.00,1.09
4910.00,1.09
4909.00,1.09
4908.00,1.09
4907.00,1.09
4906.00,1.10
4905.00,1.10
4904.00,1.10
4903.00,1.10
4902.00,1.10
4901.00,1.10
4900.00,1.10
4899.00,1.10
4898.00,1.10
4897.00,1.10
4896.00,1.10
4895.00,1.10
4894.00,1.10
4893.00,1.10
4892.00,1.10
4891.00,1.10
4890.00,1.10
4889.00,1.09
4888.00,1.09
4887.00,1.09
4886.00,1.09
4885.00,1.09
4884.00,1.09
4883.00,1.09
4882.00,1.09
4881.00,1.09
4880.00,1.09
4879.00,1.09
4878.00,1.10
4877.00,1.10
4876.00,1.10
4875.00,1.10
4874.00,1.10
4873.00,1.10
4872.00,1.10
4871.00,1.10
4870.00,1.10
4869.00,1.10
4868.00,1.10
4867.00,1.10
4866.00,1.11
4865.00,1.11
4864.00,1.11
4863.00,1.11
4862.00,1.11
4861.00,1.11
4860.00,1.11
4859.00,1.11
4858.00,1.11
4857.00,1.11
4856.00,1.11
4855.00,1.11
4854.00,1.11
4853.00,1.11
4852.00,1.11
4851.00,1.11
4850.00,1.11
4849.00,1.12
4848.00,1.12
4847.00,1.12
4846.00,1.12
4845.00,1.12
4844.00,1.12
4843.00,1.12
4842.00,1.12
4841.00,1.12
4840.00,1.12
4839.00,1.12
4838.00,1.12
4837.00,1.12
4836.00,1.12
4835.00,1.12
4834.00,1.12
4833.00,1.12
4832.00,1.12
4831.00,1.12
4830.00,1.12
4829.00,1.13
4828.00,1.13
4827.00,1.13
4826.00,1.13
4825.00,1.13
4824.00,1.13
4823.00,1.13
4822.00,1.13
4821.00,1.13
4820.00,1.13
4819.00,1.13
4818.00,1.13
4817.00,1.14
4816.00,1.14
4815.00,1.14
4814.00,1.14
4813.00,1.14
4812.00,1.14
4811.00,1.14
4810.00,1.14
4809.00,1.14
4808.00,1.14
4807.00,1.14
4806.00,1.14
4805.00,1.14
4804.00,1.14
4803.00,1.14
4802.00,1.14
4801.00,1.14
4800.00,1.14
4799.00,1.14
4798.00,1.14
4797.00,1.14
4796.00,1.14
4795.00,1.14
4794.00,1.14
4793.00,1.14
4792.00,1.14
4791.00,1.14
4790.00,1.14
4789.00,1.14
4788.00,1.14
4787.00,1.14
4786.00,1.14
4785.00,1.14
4784.00,1.14
4783.00,1.14
4782.00,1.14
4781.00,1.14
4780.00,1.14
4779.00,1.14
4778.00,1.14
4777.00,1.14
4776.00,1.14
4775.00,1.14
4774.00,1.14
4773.00,1.15
4772.00,1.15
4771.00,1.15
4770.00,1.15
4769.00,1.15
4768.00,1.15
4767.00,1.15
4766.00,1.15
4765.00,1.15
4764.00,1.15
4763.00,1.15
4762.00,1.15
4761.00,1.15
4760.00,1.15
4759.00,1.15
4758.00,1.15
4757.00,1.16
4756.00,1.16
4755.00,1.16
4754.00,1.16
4753.00,1.16
4752.00,1.16
4751.00,1.16
4750.00,1.16
4749.00,1.16
4748.00,1.16
4747.00,1.17
4746.00,1.17
4745.00,1.17
4744.00,1.17
4743.00,1.17
4742.00,1.17
4741.00,1.17
4740.00,1.17
4739.00,1.17
4738.00,1.18
4737.00,1.18
4736.00,1.18
4735.00,1.18
4734.00,1.18
4733.00,1.18
4732.00,1.18
4731.00,1.18
4730.00,1.18
4729.00,1.19
4728.00,1.19
4727.00,1.19
4726.00,1.19
4725.00,1.19
4724.00,1.19
4723.00,1.19
4722.00,1.19
4721.00,1.19
4720.00,1.19
4719.00,1.19
4718.00,1.19
4717.00,1.19
4716.00,1.19
4715.00,1.19
4714.00,1.19
4713.00,1.19
4712.00,1.19
4711.00,1.19
4710.00,1.19
4709.00,1.19
4708.00,1.19
4707.00,1.19
4706.00,1.19
4705.00,1.20
4704.00,1.20
4703.00,1.20
4702.00,1.20
4701.00,1.20
4700.00,1.20
4699.00,1.20
4698.00,1.20
4697.00,1.20
4696.00,1.21
4695.00,1.21
4694.00,1.21
4693.00,1.21
4692.00,1.21
4691.00,1.21
4690.00,1.21
4689.00,1.21
4688.00,1.21
4687.00,1.21
4686.00,1.21
4685.00,1.21
4684.00,1.21
4683.00,1.21
4682.00,1.21
4681.00,1.21
4680.00,1.21
4679.00,1.21
4678.00,1.21
4677.00,1.21
4676.00,1.21
4675.00,1.21
4674.00,1.21
4673.00,1.21
4672.00,1.21
4671.00,1.21
4670.00,1.21
4669.00,1.22
4668.00,1.22
4667.00,1.22
4666.00,1.22
4665.00,1.22
4664.00,1.22
4663.00,1.22
4662.00,1.22
4661.00,1.22
4660.00,1.22
4659.00,1.23
4658.00,1.23
4657.00,1.23
4656.00,1.23
4655.00,1.23
4654.00,1.23
4653.00,1.23
4652.00,1.23
4651.00,1.23
4650.00,1.24
4649.00,1.24
4648.00,1.24
4647.00,1.24
4646.00,1.24
4645.00,1.24
4644.00,1.24
4643.00,1.25
4642.00,1.25
4641.00,1.25
4640.00,1.25
4639.00,1.25
4638.00,1.25
4637.00,1.25
4636.00,1.25
4635.00,1.25
4634.00,1.25
4633.00,1.25
4632.00,1.25
4631.00,1.25
4630.00,1.25
4629.00,1.25
4628.00,1.25
4627.00,1.25
4626.00,1.26
4625.00,1.26
4624.00,1.26
4623.00,1.26
4622.00,1.26
4621.00,1.26
4620.00,1.26
4619.00,1.26
4618.00,1.26
4617.00,1.26
4616.00,1.26
4615.00,1.26
4614.00,1.26
4613.00,1.26
4612.00,1.26
4611.00,1.26
4610.00,1.26
4609.00,1.26
4608.00,1.26
4607.00,1.26
4606.00,1.26
4605.00,1.26
4604.00,1.26
4603.00,1.26
4602.00,1.26
4601.00,1.26
4600.00,1.26
4599.00,1.26
4598.00,1.26
4597.00,1.26
4596.00,1.26
4595.00,1.26
4594.00,1.26
4593.00,1.26
4592.00,1.26
4591.00,1.26
4590.00,1.26
4589.00,1.26
4588.00,1.26
4587.00,1.26
4586.00,1.26
4585.00,1.26
4584.00,1.26
4583.00,1.26
4582.00,1.26
4581.00,1.26
4580.00,1.26
4579.00,1.26
4578.00,1.26
4577.00,1.26
4576.00,1.26
4575.00,1.26
4574.00,1.26
4573.00,1.27
4572.00,1.27
4571.00,1.27
4570.00,1.27
4569.00,1.27
4568.00,1.27
4567.00,1.27
4566.00,1.27
4565.00,1.27
4564.00,1.27
4563.00,1.28
4562.00,1.28
4561.00,1.28
4560.00,1.28
4559.00,1.28
4558.00,1.28
4557.00,1.28
4556.00,1.28
4555.00,1.28
4554.00,1.28
4553.00,1.28
4552.00,1.29
4551.00,1.29
4550.00,1.29
4549.00,1.29
4548.00,1.29
4547.00,1.29
4546.00,1.29
4545.00,1.29
4544.00,1.29
4543.00,1.29
4542.00,1.29
4541.00,1.29
4540.00,1.29
4539.00,1.29
4538.00,1.29
4537.00,1.29
4536.00,1.30
4535.00,1.30
4534.00,1.30
4533.00,1.30
4532.00,1.30
4531.00,1.30
4530.00,1.30
4529.00,1.30
4528.00,1.30
4527.00,1.30
4526.00,1.30
4525.00,1.30
4524.00,1.30
4523.00,1.30
4522.00,1.30
4521.00,1.30
4520.00,1.30
4519.00,1.30
4518.00,1.30
4517.00,1.30
4516.00,1.30
4515.00,1.30
4514.00,1.30
4513.00,1.30
4512.00,1.30
4511.00,1.30
4510.00,1.30
4509.00,1.30
4508.00,1.30
4507.00,1.30
4506.00,1.30
4505.00,1.30
4504.00,1.30
4503.00,1.30
4502.00,1.30
4501.00,1.30
4500.00,1.30
4499.00,1.30
4498.00,1.30
4497.00,1.30
4496.00,1.30
4495.00,1.30
4494.00,1.30
4493.00,1.31
4492.00,1.31
4491.00,1.31
4490.00,1.31
4489.00,1.31
4488.00,1.31
4487.00,1.31
4486.00,1.31
4485.00,1.31
4484.00,1.31
4483.00,1.31
4482.00,1.31
4481.00,1.31
4480.00,1.31
4479.00,1.31
4478.00,1.31
4477.00,1.31
4476.00,1.31
4475.00,1.31
4474.00,1.31
4473.00,1.31
4472.00,1.31
4471.00,1.31
4470.00,1.31
4469.00,1.31
4468.00,1.31
4467.00,1.32
4466.00,1.32
4465.00,1.32
4464.00,1.32
4463.00,1.32
4462.00,1.32
4461.00,1.32
4460.00,1.31
4459.00,1.31
4458.00,1.31
4457.00,1.31
4456.00,1.31
4455.00,1.31
4454.00,1.31
4453.00,1.31
4452.00,1.31
4451.00,1.31
4450.00,1.31
4449.00,1.31
4448.00,1.31
4447.00,1.31
4446.00,1.30
4445.00,1.30
4444.00,1.30
4443.00,1.30
4442.00,1.30
4441.00,1.30
4440.00,1.30
4439.00,1.30
4438.00,1.30
4437.00,1.30
4436.00,1.30
4435.00,1.30
4434.00,1.30
4433.00,1.30
4432.00,1.30
4431.00,1.30
4430.00,1.30
4429.00,1.30
4428.00,1.30
4427.00,1.30
4426.00,1.30
4425.00,1.31
4424.00,1.31
4423.00,1.31
4422.00,1.31
4421.00,1.31
4420.00,1.31
4419.00,1.31
4418.00,1.31
4417.00,1.31
4416.00,1.31
4415.00,1.31
4414.00,1.31
4413.00,1.31
4412.00,1.31
4411.00,1.30
4410.00,1.30
4409.00,1.30
4408.00,1.30
4407.00,1.30
4406.00,1.30
4405.00,1.30
4404.00,1.30
4403.00,1.30
4402.00,1.31
4401.00,1.31
4400.00,1.31
4399.00,1.31
4398.00,1.31
4397.00,1.31
4396.00,1.31
4395.00,1.32
4394.00,1.32
4393.00,1.32
4392.00,1.32
4391.00,1.32
4390.00,1.32
4389.00,1.33
4388.00,1.33
4387.00,1.33
4386.00,1.33
4385.00,1.33
4384.00,1.33
4383.00,1.33
4382.00,1.33
4381.00,1.33
4380.00,1.33
4379.00,1.33
4378.00,1.33
4377.00,1.33
4376.00,1.33
4375.00,1.33
4374.00,1.33
4373.00,1.33
4372.00,1.33
4371.00,1.33
4370.00,1.33
4369.00,1.33
4368.00,1.33
4367.00,1.33
4366.00,1.33
4365.00,1.33
4364.00,1.33
4363.00,1.33
4362.00,1.33
4361.00,1.33
4360.00,1.33
4359.00,1.33
4358.00,1.33
4357.00,1.33
4356.00,1.33
4355.00,1.33
4354.00,1.33
4353.00,1.33
4352.00,1.33
4351.00,1.33
4350.00,1.33
4349.00,1.33
4348.00,1.33
4347.00,1.33
4346.00,1.33
4345.00,1.33
4344.00,1.33
4343.00,1.33
4342.00,1.34
4341.00,1.34
4340.00,1.34
4339.00,1.34
4338.00,1.34
4337.00,1.34
4336.00,1.34
4335.00,1.34
4334.00,1.34
4333.00,1.34
4332.00,1.34
4331.00,1.34
4330.00,1.34
4329.00,1.34
4328.00,1.34
4327.00,1.34
4326.00,1.34
4325.00,1.34
4324.00,1.34
4323.00,1.34
4322.00,1.34
4321.00,1.34
4320.00,1.34
4319.00,1.35
4318.00,1.35
4317.00,1.35
4316.00,1.35
4315.00,1.35
4314.00,1.35
4313.00,1.35
4312.00,1.35
4311.00,1.35
4310.00,1.35
4309.00,1.36
4308.00,1.36
4307.00,1.36
4306.00,1.36
4305.00,1.36
4304.00,1.36
4303.00,1.36
4302.00,1.36
4301.00,1.36
4300.00,1.36
4299.00,1.36
4298.00,1.37
4297.00,1.37
4296.00,1.37
4295.00,1.37
4294.00,1.37
4293.00,1.37
4292.00,1.37
4291.00,1.38
4290.00,1.38
4289.00,1.38
4288.00,1.38
4287.00,1.38
4286.00,1.38
4285.00,1.39
4284.00,1.39
4283.00,1.39
4282.00,1.39
4281.00,1.39
4280.00,1.39
4279.00,1.39
4278.00,1.39
4277.00,1.39
4276.00,1.39
4275.00,1.39
4274.00,1.39
4273.00,1.39
4272.00,1.39
4271.00,1.39
4270.00,1.39
4269.00,1.39
4268.00,1.39
4267.00,1.39
4266.00,1.39
4265.00,1.39
4264.00,1.39
4263.00,1.38
4262.00,1.38
4261.00,1.38
4260.00,1.38
4259.00,1.38
4258.00,1.38
4257.00,1.38
4256.00,1.38
4255.00,1.38
4254.00,1.38
4253.00,1.38
4252.00,1.38
4251.00,1.38
4250.00,1.38
4249.00,1.38
4248.00,1.38
4247.00,1.38
4246.00,1.38
4245.00,1.38
4244.00,1.38
4243.00,1.38
4242.00,1.38
4241.00,1.38
4240.00,1.38
4239.00,1.38
4238.00,1.38
4237.00,1.38
4236.00,1.38
4235.00,1.39
4234.00,1.39
4233.00,1.39
4232.00,1.39
4231.00,1.39
4230.00,1.39
4229.00,1.39
4228.00,1.39
4227.00,1.39
4226.00,1.40
4225.00,1.40
4224.00,1.40
4223.00,1.40
4222.00,1.40
4221.00,1.40
4220.00,1.40
4219.00,1.40
4218.00,1.40
4217.00,1.40
4216.00,1.40
4215.00,1.40
4214.00,1.40
4213.00,1.41
4212.00,1.41
4211.00,1.41
4210.00,1.41
4209.00,1.41
4208.00,1.41
4207.00,1.41
4206.00,1.41
4205.00,1.41
4204.00,1.41
4203.00,1.42
4202.00,1.42
4201.00,1.42
4200.00,1.42
4199.00,1.42
4198.00,1.42
4197.00,1.42
4196.00,1.42
4195.00,1.42
4194.00,1.42
4193.00,1.42
4192.00,1.42
4191.00,1.42
4190.00,1.42
4189.00,1.42
4188.00,1.42
4187.00,1.42
4186.00,1.42
4185.00,1.42
4184.00,1.42
4183.00,1.42
4182.00,1.43
4181.00,1.43
4180.00,1.43
4179.00,1.43
4178.00,1.43
4177.00,1.43
4176.00,1.43
4175.00,1.43
4174.00,1.43
4173.00,1.43
4172.00,1.44
4171.00,1.44
4170.00,1.44
4169.00,1.44
4168.00,1.44
4167.00,1.44
4166.00,1.44
4165.00,1.44
4164.00,1.44
4163.00,1.44
4162.00,1.44
4161.00,1.44
4160.00,1.44
4159.00,1.44
4158.00,1.44
4157.00,1.44
4156.00,1.44
4155.00,1.44
4154.00,1.44
4153.00,1.44
4152.00,1.44
4151.00,1.44
4150.00,1.44
4149.00,1.44
4148.00,1.44
4147.00,1.44
4146.00,1.44
4145.00,1.44
4144.00,1.44
4143.00,1.44
4142.00,1.44
4141.00,1.44
4140.00,1.44
4139.00,1.44
4138.00,1.44
4137.00,1.44
4136.00,1.44
4135.00,1.44
4134.00,1.45
4133.00,1.45
4132.00,1.45
4131.00,1.45
4130.00,1.45
4129.00,1.46
4128.00,1.46
4127.00,1.46
4126.00,1.46
4125.00,1.46
4124.00,1.47
4123.00,1.47
4122.00,1.47
4121.00,1.47
4120.00,1.47
4119.00,1.47
4118.00,1.48
4117.00,1.48
4116.00,1.48
4115.00,1.48
4114.00,1.48
4113.00,1.48
4112.00,1.48
4111.00,1.48
4110.00,1.48
4109.00,1.48
4108.00,1.48
4107.00,1.48
4106.00,1.48
4105.00,1.48
4104.00,1.48
4103.00,1.48
4102.00,1.48
4101.00,1.48
4100.00,1.47
4099.00,1.47
4098.00,1.47
4097.00,1.47
4096.00,1.47
4095.00,1.47
4094.00,1.47
4093.00,1.47
4092.00,1.47
4091.00,1.47
4090.00,1.47
4089.00,1.47
4088.00,1.47
4087.00,1.47
4086.00,1.46
4085.00,1.46
4084.00,1.46
4083.00,1.46
4082.00,1.46
4081.00,1.46
4080.00,1.46
4079.00,1.46
4078.00,1.46
4077.00,1.46
4076.00,1.46
4075.00,1.46
4074.00,1.46
4073.00,1.46
4072.00,1.46
4071.00,1.46
4070.00,1.46
4069.00,1.46
4068.00,1.46
4067.00,1.46
4066.00,1.46
4065.00,1.46
4064.00,1.46
4063.00,1.46
4062.00,1.47
4061.00,1.47
4060.00,1.47
4059.00,1.47
4058.00,1.47
4057.00,1.47
4056.00,1.47
4055.00,1.47
4054.00,1.47
4053.00,1.47
4052.00,1.48
4051.00,1.48
4050.00,1.48
4049.00,1.48
4048.00,1.48
4047.00,1.49
4046.00,1.49
4045.00,1.49
4044.00,1.49
4043.00,1.49
4042.00,1.49
4041.00,1.50
4040.00,1.50
4039.00,1.50
4038.00,1.50
4037.00,1.50
4036.00,1.50
4035.00,1.50
4034.00,1.50
4033.00,1.50
4032.00,1.50
4031.00,1.50
4030.00,1.50
4029.00,1.50
4028.00,1.50
4027.00,1.50
4026.00,1.50
4025.00,1.50
4024.00,1.50
4023.00,1.50
4022.00,1.50
4021.00,1.50
4020.00,1.50
4019.00,1.50
4018.00,1.50
4017.00,1.50
4016.00,1.50
4015.00,1.50
4014.00,1.50
4013.00,1.50
4012.00,1.50
4011.00,1.50
4010.00,1.50
4009.00,1.50
4008.00,1.50
4007.00,1.50
4006.00,1.51
4005.00,1.51
4004.00,1.51
4003.00,1.51
4002.00,1.51
4001.00,1.51
4000.00,1.51
