创建为新数据集,样品 306 用户 Administrator 日期 星期日, 七月 22 2018
cm-1,%T
10000.00,1.11
9999.00,1.11
9998.00,1.11
9997.00,1.11
9996.00,1.11
9995.00,1.11
9994.00,1.11
9993.00,1.11
9992.00,1.11
9991.00,1.11
9990.00,1.11
9989.00,1.11
9988.00,1.11
9987.00,1.11
9986.00,1.10
9985.00,1.10
9984.00,1.10
9983.00,1.10
9982.00,1.10
9981.00,1.09
9980.00,1.09
9979.00,1.09
9978.00,1.09
9977.00,1.09
9976.00,1.09
9975.00,1.09
9974.00,1.09
9973.00,1.09
9972.00,1.10
9971.00,1.10
9970.00,1.10
9969.00,1.10
9968.00,1.10
9967.00,1.11
9966.00,1.11
9965.00,1.11
9964.00,1.11
9963.00,1.11
9962.00,1.11
9961.00,1.11
9960.00,1.11
9959.00,1.11
9958.00,1.11
9957.00,1.11
9956.00,1.11
9955.00,1.11
9954.00,1.11
9953.00,1.11
9952.00,1.11
9951.00,1.11
9950.00,1.11
9949.00,1.11
9948.00,1.11
9947.00,1.11
9946.00,1.11
9945.00,1.10
9944.00,1.10
9943.00,1.10
9942.00,1.10
9941.00,1.10
9940.00,1.10
9939.00,1.10
9938.00,1.10
9937.00,1.10
9936.00,1.10
9935.00,1.09
9934.00,1.09
9933.00,1.09
9932.00,1.09
9931.00,1.10
9930.00,1.10
9929.00,1.10
9928.00,1.10
9927.00,1.10
9926.00,1.10
9925.00,1.10
9924.00,1.10
9923.00,1.10
9922.00,1.11
9921.00,1.11
9920.00,1.11
9919.00,1.11
9918.00,1.11
9917.00,1.11
9916.00,1.11
9915.00,1.11
9914.00,1.11
9913.00,1.10
9912.00,1.10
9911.00,1.10
9910.00,1.10
9909.00,1.10
9908.00,1.09
9907.00,1.09
9906.00,1.09
9905.00,1.08
9904.00,1.08
9903.00,1.08
9902.00,1.08
9901.00,1.07
9900.00,1.07
9899.00,1.07
9898.00,1.07
9897.00,1.07
9896.00,1.07
9895.00,1.06
9894.00,1.06
9893.00,1.06
9892.00,1.06
9891.00,1.07
9890.00,1.07
9889.00,1.07
9888.00,1.07
9887.00,1.07
9886.00,1.07
9885.00,1.08
9884.00,1.08
9883.00,1.08
9882.00,1.08
9881.00,1.09
9880.00,1.09
9879.00,1.09
9878.00,1.09
9877.00,1.09
9876.00,1.09
9875.00,1.10
9874.00,1.10
9873.00,1.10
9872.00,1.10
9871.00,1.10
9870.00,1.10
9869.00,1.09
9868.00,1.09
9867.00,1.09
9866.00,1.09
9865.00,1.09
9864.00,1.09
9863.00,1.08
9862.00,1.08
9861.00,1.08
9860.00,1.08
9859.00,1.08
9858.00,1.07
9857.00,1.07
9856.00,1.07
9855.00,1.07
9854.00,1.07
9853.00,1.07
9852.00,1.07
9851.00,1.07
9850.00,1.07
9849.00,1.07
9848.00,1.07
9847.00,1.07
9846.00,1.07
9845.00,1.07
9844.00,1.07
9843.00,1.07
9842.00,1.07
9841.00,1.08
9840.00,1.08
9839.00,1.08
9838.00,1.08
9837.00,1.08
9836.00,1.08
9835.00,1.08
9834.00,1.08
9833.00,1.08
9832.00,1.08
9831.00,1.08
9830.00,1.08
9829.00,1.08
9828.00,1.08
9827.00,1.08
9826.00,1.08
9825.00,1.08
9824.00,1.08
9823.00,1.08
9822.00,1.08
9821.00,1.08
9820.00,1.08
9819.00,1.08
9818.00,1.08
9817.00,1.08
9816.00,1.08
9815.00,1.08
9814.00,1.08
9813.00,1.08
9812.00,1.08
9811.00,1.08
9810.00,1.08
9809.00,1.08
9808.00,1.08
9807.00,1.08
9806.00,1.08
9805.00,1.08
9804.00,1.08
9803.00,1.08
9802.00,1.07
9801.00,1.07
9800.00,1.07
9799.00,1.07
9798.00,1.07
9797.00,1.06
9796.00,1.06
9795.00,1.06
9794.00,1.06
9793.00,1.06
9792.00,1.06
9791.00,1.06
9790.00,1.06
9789.00,1.06
9788.00,1.06
9787.00,1.06
9786.00,1.06
9785.00,1.06
9784.00,1.06
9783.00,1.07
9782.00,1.07
9781.00,1.07
9780.00,1.07
9779.00,1.07
9778.00,1.08
9777.00,1.08
9776.00,1.08
9775.00,1.08
9774.00,1.08
9773.00,1.08
9772.00,1.09
9771.00,1.09
9770.00,1.09
9769.00,1.09
9768.00,1.09
9767.00,1.09
9766.00,1.09
9765.00,1.09
9764.00,1.08
9763.00,1.08
9762.00,1.08
9761.00,1.08
9760.00,1.08
9759.00,1.08
9758.00,1.08
9757.00,1.08
9756.00,1.08
9755.00,1.09
9754.00,1.09
9753.00,1.09
9752.00,1.09
9751.00,1.09
9750.00,1.10
9749.00,1.10
9748.00,1.10
9747.00,1.10
9746.00,1.10
9745.00,1.11
9744.00,1.11
9743.00,1.11
9742.00,1.11
9741.00,1.11
9740.00,1.11
9739.00,1.11
9738.00,1.11
9737.00,1.11
9736.00,1.11
9735.00,1.11
9734.00,1.11
9733.00,1.11
9732.00,1.11
9731.00,1.11
9730.00,1.11
9729.00,1.11
9728.00,1.11
9727.00,1.10
9726.00,1.10
9725.00,1.10
9724.00,1.10
9723.00,1.09
9722.00,1.09
9721.00,1.09
9720.00,1.08
9719.00,1.08
9718.00,1.08
9717.00,1.08
9716.00,1.07
9715.00,1.07
9714.00,1.07
9713.00,1.07
9712.00,1.07
9711.00,1.07
9710.00,1.07
9709.00,1.07
9708.00,1.07
9707.00,1.07
9706.00,1.07
9705.00,1.07
9704.00,1.07
9703.00,1.07
9702.00,1.07
9701.00,1.07
9700.00,1.07
9699.00,1.08
9698.00,1.08
9697.00,1.08
9696.00,1.08
9695.00,1.08
9694.00,1.08
9693.00,1.08
9692.00,1.08
9691.00,1.08
9690.00,1.08
9689.00,1.08
9688.00,1.08
9687.00,1.08
9686.00,1.08
9685.00,1.08
9684.00,1.08
9683.00,1.07
9682.00,1.07
9681.00,1.07
9680.00,1.07
9679.00,1.06
9678.00,1.06
9677.00,1.06
9676.00,1.06
9675.00,1.05
9674.00,1.05
9673.00,1.05
9672.00,1.05
9671.00,1.05
9670.00,1.05
9669.00,1.05
9668.00,1.05
9667.00,1.05
9666.00,1.06
9665.00,1.06
9664.00,1.06
9663.00,1.06
9662.00,1.07
9661.00,1.07
9660.00,1.07
9659.00,1.07
9658.00,1.08
9657.00,1.08
9656.00,1.08
9655.00,1.08
9654.00,1.09
9653.00,1.09
9652.00,1.09
9651.00,1.09
9650.00,1.09
9649.00,1.09
9648.00,1.09
9647.00,1.08
9646.00,1.08
9645.00,1.08
9644.00,1.08
9643.00,1.08
9642.00,1.07
9641.00,1.07
9640.00,1.07
9639.00,1.07
9638.00,1.06
9637.00,1.06
9636.00,1.06
9635.00,1.06
9634.00,1.06
9633.00,1.05
9632.00,1.05
9631.00,1.05
9630.00,1.05
9629.00,1.05
9628.00,1.05
9627.00,1.05
9626.00,1.05
9625.00,1.05
9624.00,1.05
9623.00,1.06
9622.00,1.06
9621.00,1.06
9620.00,1.06
9619.00,1.06
9618.00,1.07
9617.00,1.07
9616.00,1.07
9615.00,1.07
9614.00,1.07
9613.00,1.07
9612.00,1.08
9611.00,1.08
9610.00,1.08
9609.00,1.08
9608.00,1.08
9607.00,1.07
9606.00,1.07
9605.00,1.07
9604.00,1.07
9603.00,1.07
9602.00,1.07
9601.00,1.07
9600.00,1.07
9599.00,1.07
9598.00,1.07
9597.00,1.07
9596.00,1.07
9595.00,1.07
9594.00,1.07
9593.00,1.07
9592.00,1.07
9591.00,1.07
9590.00,1.07
9589.00,1.07
9588.00,1.07
9587.00,1.07
9586.00,1.07
9585.00,1.07
9584.00,1.08
9583.00,1.08
9582.00,1.08
9581.00,1.08
9580.00,1.08
9579.00,1.08
9578.00,1.08
9577.00,1.08
9576.00,1.09
9575.00,1.09
9574.00,1.09
9573.00,1.09
9572.00,1.09
9571.00,1.09
9570.00,1.09
9569.00,1.09
9568.00,1.10
9567.00,1.10
9566.00,1.10
9565.00,1.10
9564.00,1.10
9563.00,1.10
9562.00,1.10
9561.00,1.10
9560.00,1.10
9559.00,1.10
9558.00,1.10
9557.00,1.10
9556.00,1.10
9555.00,1.10
9554.00,1.10
9553.00,1.10
9552.00,1.10
9551.00,1.09
9550.00,1.09
9549.00,1.09
9548.00,1.09
9547.00,1.09
9546.00,1.09
9545.00,1.08
9544.00,1.08
9543.00,1.08
9542.00,1.08
9541.00,1.08
9540.00,1.07
9539.00,1.07
9538.00,1.07
9537.00,1.07
9536.00,1.07
9535.00,1.07
9534.00,1.06
9533.00,1.06
9532.00,1.06
9531.00,1.06
9530.00,1.06
9529.00,1.06
9528.00,1.06
9527.00,1.06
9526.00,1.07
9525.00,1.07
9524.00,1.07
9523.00,1.07
9522.00,1.07
9521.00,1.08
9520.00,1.08
9519.00,1.08
9518.00,1.09
9517.00,1.09
9516.00,1.09
9515.00,1.10
9514.00,1.10
9513.00,1.10
9512.00,1.10
9511.00,1.10
9510.00,1.10
9509.00,1.10
9508.00,1.10
9507.00,1.10
9506.00,1.10
9505.00,1.10
9504.00,1.10
9503.00,1.10
9502.00,1.10
9501.00,1.10
9500.00,1.10
9499.00,1.09
9498.00,1.09
9497.00,1.09
9496.00,1.09
9495.00,1.09
9494.00,1.09
9493.00,1.09
9492.00,1.09
9491.00,1.09
9490.00,1.09
9489.00,1.09
9488.00,1.09
9487.00,1.09
9486.00,1.09
9485.00,1.09
9484.00,1.09
9483.00,1.09
9482.00,1.09
9481.00,1.09
9480.00,1.09
9479.00,1.09
9478.00,1.09
9477.00,1.09
9476.00,1.09
9475.00,1.09
9474.00,1.09
9473.00,1.09
9472.00,1.09
9471.00,1.09
9470.00,1.09
9469.00,1.08
9468.00,1.08
9467.00,1.08
9466.00,1.08
9465.00,1.08
9464.00,1.08
9463.00,1.08
9462.00,1.08
9461.00,1.09
9460.00,1.09
9459.00,1.09
9458.00,1.09
9457.00,1.09
9456.00,1.09
9455.00,1.09
9454.00,1.09
9453.00,1.09
9452.00,1.09
9451.00,1.09
9450.00,1.09
9449.00,1.09
9448.00,1.09
9447.00,1.09
9446.00,1.09
9445.00,1.09
9444.00,1.08
9443.00,1.08
9442.00,1.08
9441.00,1.08
9440.00,1.08
9439.00,1.08
9438.00,1.08
9437.00,1.08
9436.00,1.08
9435.00,1.07
9434.00,1.07
9433.00,1.07
9432.00,1.07
9431.00,1.07
9430.00,1.07
9429.00,1.07
9428.00,1.07
9427.00,1.07
9426.00,1.07
9425.00,1.07
9424.00,1.08
9423.00,1.08
9422.00,1.08
9421.00,1.08
9420.00,1.08
9419.00,1.08
9418.00,1.09
9417.00,1.09
9416.00,1.09
9415.00,1.09
9414.00,1.09
9413.00,1.09
9412.00,1.09
9411.00,1.10
9410.00,1.10
9409.00,1.10
9408.00,1.09
9407.00,1.09
9406.00,1.09
9405.00,1.09
9404.00,1.09
9403.00,1.09
9402.00,1.09
9401.00,1.09
9400.00,1.09
9399.00,1.09
9398.00,1.09
9397.00,1.08
9396.00,1.08
9395.00,1.09
9394.00,1.09
9393.00,1.09
9392.00,1.09
9391.00,1.09
9390.00,1.09
9389.00,1.09
9388.00,1.09
9387.00,1.09
9386.00,1.09
9385.00,1.09
9384.00,1.09
9383.00,1.09
9382.00,1.08
9381.00,1.08
9380.00,1.08
9379.00,1.08
9378.00,1.08
9377.00,1.08
9376.00,1.08
9375.00,1.08
9374.00,1.08
9373.00,1.08
9372.00,1.08
9371.00,1.08
9370.00,1.08
9369.00,1.08
9368.00,1.08
9367.00,1.08
9366.00,1.08
9365.00,1.08
9364.00,1.08
9363.00,1.08
9362.00,1.08
9361.00,1.08
9360.00,1.09
9359.00,1.09
9358.00,1.09
9357.00,1.09
9356.00,1.09
9355.00,1.09
9354.00,1.09
9353.00,1.09
9352.00,1.09
9351.00,1.09
9350.00,1.09
9349.00,1.10
9348.00,1.10
9347.00,1.10
9346.00,1.10
9345.00,1.10
9344.00,1.10
9343.00,1.10
9342.00,1.10
9341.00,1.10
9340.00,1.10
9339.00,1.10
9338.00,1.10
9337.00,1.10
9336.00,1.10
9335.00,1.10
9334.00,1.10
9333.00,1.10
9332.00,1.10
9331.00,1.09
9330.00,1.09
9329.00,1.09
9328.00,1.09
9327.00,1.08
9326.00,1.08
9325.00,1.08
9324.00,1.08
9323.00,1.07
9322.00,1.07
9321.00,1.07
9320.00,1.07
9319.00,1.06
9318.00,1.06
9317.00,1.06
9316.00,1.06
9315.00,1.06
9314.00,1.06
9313.00,1.06
9312.00,1.06
9311.00,1.06
9310.00,1.06
9309.00,1.06
9308.00,1.06
9307.00,1.07
9306.00,1.07
9305.00,1.07
9304.00,1.07
9303.00,1.07
9302.00,1.07
9301.00,1.08
9300.00,1.08
9299.00,1.08
9298.00,1.08
9297.00,1.08
9296.00,1.08
9295.00,1.08
9294.00,1.09
9293.00,1.09
9292.00,1.09
9291.00,1.09
9290.00,1.09
9289.00,1.09
9288.00,1.09
9287.00,1.09
9286.00,1.09
9285.00,1.09
9284.00,1.09
9283.00,1.09
9282.00,1.09
9281.00,1.09
9280.00,1.09
9279.00,1.09
9278.00,1.09
9277.00,1.09
9276.00,1.09
9275.00,1.09
9274.00,1.09
9273.00,1.08
9272.00,1.08
9271.00,1.08
9270.00,1.08
9269.00,1.08
9268.00,1.08
9267.00,1.08
9266.00,1.08
9265.00,1.08
9264.00,1.08
9263.00,1.08
9262.00,1.08
9261.00,1.08
9260.00,1.08
9259.00,1.08
9258.00,1.07
9257.00,1.07
9256.00,1.07
9255.00,1.07
9254.00,1.07
9253.00,1.07
9252.00,1.07
9251.00,1.07
9250.00,1.07
9249.00,1.07
9248.00,1.07
9247.00,1.07
9246.00,1.07
9245.00,1.07
9244.00,1.07
9243.00,1.07
9242.00,1.07
9241.00,1.07
9240.00,1.07
9239.00,1.07
9238.00,1.08
9237.00,1.08
9236.00,1.08
9235.00,1.08
9234.00,1.08
9233.00,1.08
9232.00,1.09
9231.00,1.09
9230.00,1.09
9229.00,1.09
9228.00,1.09
9227.00,1.09
9226.00,1.09
9225.00,1.09
9224.00,1.09
9223.00,1.09
9222.00,1.09
9221.00,1.09
9220.00,1.09
9219.00,1.09
9218.00,1.09
9217.00,1.09
9216.00,1.09
9215.00,1.09
9214.00,1.09
9213.00,1.09
9212.00,1.09
9211.00,1.10
9210.00,1.10
9209.00,1.10
9208.00,1.10
9207.00,1.10
9206.00,1.10
9205.00,1.10
9204.00,1.10
9203.00,1.10
9202.00,1.10
9201.00,1.10
9200.00,1.10
9199.00,1.10
9198.00,1.10
9197.00,1.10
9196.00,1.10
9195.00,1.10
9194.00,1.10
9193.00,1.10
9192.00,1.09
9191.00,1.09
9190.00,1.09
9189.00,1.09
9188.00,1.09
9187.00,1.09
9186.00,1.09
9185.00,1.09
9184.00,1.09
9183.00,1.09
9182.00,1.09
9181.00,1.09
9180.00,1.09
9179.00,1.09
9178.00,1.09
9177.00,1.09
9176.00,1.09
9175.00,1.09
9174.00,1.09
9173.00,1.09
9172.00,1.09
9171.00,1.10
9170.00,1.10
9169.00,1.10
9168.00,1.10
9167.00,1.10
9166.00,1.11
9165.00,1.11
9164.00,1.11
9163.00,1.11
9162.00,1.11
9161.00,1.11
9160.00,1.11
9159.00,1.11
9158.00,1.11
9157.00,1.11
9156.00,1.11
9155.00,1.11
9154.00,1.11
9153.00,1.11
9152.00,1.11
9151.00,1.11
9150.00,1.11
9149.00,1.10
9148.00,1.10
9147.00,1.10
9146.00,1.10
9145.00,1.10
9144.00,1.10
9143.00,1.10
9142.00,1.10
9141.00,1.10
9140.00,1.10
9139.00,1.10
9138.00,1.10
9137.00,1.10
9136.00,1.10
9135.00,1.10
9134.00,1.10
9133.00,1.10
9132.00,1.10
9131.00,1.10
9130.00,1.10
9129.00,1.10
9128.00,1.10
9127.00,1.10
9126.00,1.10
9125.00,1.10
9124.00,1.10
9123.00,1.10
9122.00,1.10
9121.00,1.10
9120.00,1.10
9119.00,1.10
9118.00,1.09
9117.00,1.09
9116.00,1.09
9115.00,1.09
9114.00,1.09
9113.00,1.09
9112.00,1.09
9111.00,1.09
9110.00,1.09
9109.00,1.09
9108.00,1.09
9107.00,1.09
9106.00,1.09
9105.00,1.09
9104.00,1.09
9103.00,1.09
9102.00,1.09
9101.00,1.09
9100.00,1.09
9099.00,1.09
9098.00,1.09
9097.00,1.09
9096.00,1.09
9095.00,1.09
9094.00,1.09
9093.00,1.09
9092.00,1.09
9091.00,1.09
9090.00,1.09
9089.00,1.09
9088.00,1.09
9087.00,1.10
9086.00,1.10
9085.00,1.10
9084.00,1.10
9083.00,1.10
9082.00,1.10
9081.00,1.10
9080.00,1.09
9079.00,1.09
9078.00,1.09
9077.00,1.09
9076.00,1.09
9075.00,1.09
9074.00,1.09
9073.00,1.09
9072.00,1.09
9071.00,1.09
9070.00,1.09
9069.00,1.09
9068.00,1.09
9067.00,1.09
9066.00,1.08
9065.00,1.08
9064.00,1.08
9063.00,1.08
9062.00,1.08
9061.00,1.08
9060.00,1.08
9059.00,1.08
9058.00,1.08
9057.00,1.08
9056.00,1.08
9055.00,1.08
9054.00,1.08
9053.00,1.09
9052.00,1.09
9051.00,1.09
9050.00,1.09
9049.00,1.09
9048.00,1.09
9047.00,1.09
9046.00,1.09
9045.00,1.09
9044.00,1.09
9043.00,1.09
9042.00,1.09
9041.00,1.09
9040.00,1.09
9039.00,1.09
9038.00,1.09
9037.00,1.09
9036.00,1.09
9035.00,1.09
9034.00,1.09
9033.00,1.09
9032.00,1.09
9031.00,1.09
9030.00,1.09
9029.00,1.09
9028.00,1.09
9027.00,1.09
9026.00,1.09
9025.00,1.09
9024.00,1.09
9023.00,1.10
9022.00,1.10
9021.00,1.10
9020.00,1.10
9019.00,1.10
9018.00,1.10
9017.00,1.10
9016.00,1.10
9015.00,1.10
9014.00,1.10
9013.00,1.10
9012.00,1.09
9011.00,1.09
9010.00,1.09
9009.00,1.09
9008.00,1.09
9007.00,1.09
9006.00,1.09
9005.00,1.09
9004.00,1.09
9003.00,1.09
9002.00,1.09
9001.00,1.09
9000.00,1.09
8999.00,1.09
8998.00,1.09
8997.00,1.09
8996.00,1.09
8995.00,1.10
8994.00,1.10
8993.00,1.10
8992.00,1.10
8991.00,1.10
8990.00,1.10
8989.00,1.10
8988.00,1.10
8987.00,1.10
8986.00,1.11
8985.00,1.11
8984.00,1.11
8983.00,1.11
8982.00,1.11
8981.00,1.11
8980.00,1.11
8979.00,1.11
8978.00,1.11
8977.00,1.11
8976.00,1.11
8975.00,1.11
8974.00,1.11
8973.00,1.11
8972.00,1.11
8971.00,1.10
8970.00,1.10
8969.00,1.10
8968.00,1.10
8967.00,1.10
8966.00,1.09
8965.00,1.09
8964.00,1.09
8963.00,1.09
8962.00,1.09
8961.00,1.09
8960.00,1.09
8959.00,1.09
8958.00,1.09
8957.00,1.09
8956.00,1.09
8955.00,1.09
8954.00,1.09
8953.00,1.09
8952.00,1.09
8951.00,1.09
8950.00,1.10
8949.00,1.10
8948.00,1.10
8947.00,1.10
8946.00,1.10
8945.00,1.10
8944.00,1.10
8943.00,1.10
8942.00,1.10
8941.00,1.10
8940.00,1.10
8939.00,1.10
8938.00,1.11
8937.00,1.11
8936.00,1.11
8935.00,1.11
8934.00,1.11
8933.00,1.11
8932.00,1.11
8931.00,1.11
8930.00,1.11
8929.00,1.11
8928.00,1.11
8927.00,1.10
8926.00,1.10
8925.00,1.10
8924.00,1.10
8923.00,1.10
8922.00,1.10
8921.00,1.10
8920.00,1.10
8919.00,1.10
8918.00,1.10
8917.00,1.09
8916.00,1.09
8915.00,1.09
8914.00,1.09
8913.00,1.09
8912.00,1.10
8911.00,1.10
8910.00,1.10
8909.00,1.10
8908.00,1.10
8907.00,1.10
8906.00,1.10
8905.00,1.10
8904.00,1.10
8903.00,1.10
8902.00,1.10
8901.00,1.10
8900.00,1.10
8899.00,1.10
8898.00,1.10
8897.00,1.10
8896.00,1.10
8895.00,1.10
8894.00,1.10
8893.00,1.10
8892.00,1.10
8891.00,1.10
8890.00,1.10
8889.00,1.10
8888.00,1.10
8887.00,1.10
8886.00,1.10
8885.00,1.10
8884.00,1.10
8883.00,1.11
8882.00,1.11
8881.00,1.11
8880.00,1.11
8879.00,1.11
8878.00,1.11
8877.00,1.11
8876.00,1.11
8875.00,1.11
8874.00,1.11
8873.00,1.11
8872.00,1.11
8871.00,1.11
8870.00,1.11
8869.00,1.11
8868.00,1.11
8867.00,1.11
8866.00,1.11
8865.00,1.11
8864.00,1.11
8863.00,1.11
8862.00,1.11
8861.00,1.11
8860.00,1.11
8859.00,1.10
8858.00,1.10
8857.00,1.10
8856.00,1.10
8855.00,1.09
8854.00,1.09
8853.00,1.09
8852.00,1.08
8851.00,1.08
8850.00,1.08
8849.00,1.08
8848.00,1.08
8847.00,1.08
8846.00,1.07
8845.00,1.07
8844.00,1.07
8843.00,1.07
8842.00,1.07
8841.00,1.07
8840.00,1.08
8839.00,1.08
8838.00,1.08
8837.00,1.08
8836.00,1.08
8835.00,1.08
8834.00,1.08
8833.00,1.08
8832.00,1.08
8831.00,1.08
8830.00,1.08
8829.00,1.08
8828.00,1.08
8827.00,1.08
8826.00,1.08
8825.00,1.08
8824.00,1.07
8823.00,1.07
8822.00,1.07
8821.00,1.07
8820.00,1.07
8819.00,1.07
8818.00,1.06
8817.00,1.06
8816.00,1.06
8815.00,1.06
8814.00,1.06
8813.00,1.06
8812.00,1.05
8811.00,1.05
8810.00,1.05
8809.00,1.05
8808.00,1.05
8807.00,1.05
8806.00,1.05
8805.00,1.05
8804.00,1.05
8803.00,1.05
8802.00,1.05
8801.00,1.05
8800.00,1.05
8799.00,1.05
8798.00,1.05
8797.00,1.05
8796.00,1.05
8795.00,1.05
8794.00,1.05
8793.00,1.05
8792.00,1.06
8791.00,1.06
8790.00,1.06
8789.00,1.06
8788.00,1.06
8787.00,1.06
8786.00,1.06
8785.00,1.06
8784.00,1.06
8783.00,1.06
8782.00,1.06
8781.00,1.06
8780.00,1.06
8779.00,1.06
8778.00,1.06
8777.00,1.06
8776.00,1.06
8775.00,1.06
8774.00,1.06
8773.00,1.06
8772.00,1.06
8771.00,1.06
8770.00,1.06
8769.00,1.06
8768.00,1.06
8767.00,1.06
8766.00,1.06
8765.00,1.06
8764.00,1.06
8763.00,1.06
8762.00,1.06
8761.00,1.06
8760.00,1.06
8759.00,1.06
8758.00,1.06
8757.00,1.06
8756.00,1.06
8755.00,1.06
8754.00,1.06
8753.00,1.06
8752.00,1.06
8751.00,1.06
8750.00,1.05
8749.00,1.05
8748.00,1.05
8747.00,1.05
8746.00,1.05
8745.00,1.05
8744.00,1.05
8743.00,1.05
8742.00,1.04
8741.00,1.04
8740.00,1.04
8739.00,1.04
8738.00,1.04
8737.00,1.04
8736.00,1.04
8735.00,1.04
8734.00,1.04
8733.00,1.04
8732.00,1.04
8731.00,1.04
8730.00,1.04
8729.00,1.04
8728.00,1.04
8727.00,1.04
8726.00,1.04
8725.00,1.04
8724.00,1.04
8723.00,1.04
8722.00,1.04
8721.00,1.04
8720.00,1.04
8719.00,1.04
8718.00,1.04
8717.00,1.04
8716.00,1.04
8715.00,1.04
8714.00,1.04
8713.00,1.04
8712.00,1.04
8711.00,1.04
8710.00,1.04
8709.00,1.04
8708.00,1.04
8707.00,1.05
8706.00,1.05
8705.00,1.05
8704.00,1.05
8703.00,1.05
8702.00,1.05
8701.00,1.05
8700.00,1.05
8699.00,1.05
8698.00,1.05
8697.00,1.05
8696.00,1.05
8695.00,1.05
8694.00,1.05
8693.00,1.04
8692.00,1.04
8691.00,1.04
8690.00,1.04
8689.00,1.04
8688.00,1.03
8687.00,1.03
8686.00,1.03
8685.00,1.03
8684.00,1.03
8683.00,1.03
8682.00,1.03
8681.00,1.03
8680.00,1.03
8679.00,1.02
8678.00,1.02
8677.00,1.02
8676.00,1.02
8675.00,1.02
8674.00,1.02
8673.00,1.02
8672.00,1.02
8671.00,1.03
8670.00,1.03
8669.00,1.02
8668.00,1.02
8667.00,1.02
8666.00,1.02
8665.00,1.02
8664.00,1.02
8663.00,1.02
8662.00,1.02
8661.00,1.02
8660.00,1.02
8659.00,1.02
8658.00,1.02
8657.00,1.02
8656.00,1.02
8655.00,1.02
8654.00,1.02
8653.00,1.02
8652.00,1.02
8651.00,1.02
8650.00,1.02
8649.00,1.02
8648.00,1.02
8647.00,1.02
8646.00,1.02
8645.00,1.02
8644.00,1.02
8643.00,1.02
8642.00,1.02
8641.00,1.02
8640.00,1.02
8639.00,1.02
8638.00,1.02
8637.00,1.02
8636.00,1.02
8635.00,1.02
8634.00,1.02
8633.00,1.01
8632.00,1.01
8631.00,1.01
8630.00,1.01
8629.00,1.01
8628.00,1.01
8627.00,1.01
8626.00,1.01
8625.00,1.01
8624.00,1.01
8623.00,1.01
8622.00,1.01
8621.00,1.01
8620.00,1.01
8619.00,1.01
8618.00,1.01
8617.00,1.00
8616.00,1.00
8615.00,1.00
8614.00,1.00
8613.00,1.00
8612.00,1.00
8611.00,1.00
8610.00,1.00
8609.00,1.01
8608.00,1.01
8607.00,1.01
8606.00,1.01
8605.00,1.01
8604.00,1.01
8603.00,1.01
8602.00,1.01
8601.00,1.01
8600.00,1.01
8599.00,1.01
8598.00,1.01
8597.00,1.01
8596.00,1.01
8595.00,1.01
8594.00,1.01
8593.00,1.01
8592.00,1.01
8591.00,1.01
8590.00,1.01
8589.00,1.00
8588.00,1.00
8587.00,1.00
8586.00,1.00
8585.00,1.00
8584.00,1.00
8583.00,1.00
8582.00,1.00
8581.00,1.00
8580.00,1.00
8579.00,0.99
8578.00,0.99
8577.00,0.99
8576.00,0.99
8575.00,0.99
8574.00,0.99
8573.00,0.99
8572.00,0.99
8571.00,0.99
8570.00,0.99
8569.00,0.99
8568.00,0.99
8567.00,0.99
8566.00,0.99
8565.00,0.99
8564.00,0.99
8563.00,0.99
8562.00,0.99
8561.00,0.99
8560.00,0.99
8559.00,0.99
8558.00,0.99
8557.00,0.99
8556.00,0.99
8555.00,0.99
8554.00,0.99
8553.00,0.99
8552.00,0.99
8551.00,0.99
8550.00,0.99
8549.00,0.99
8548.00,0.99
8547.00,0.99
8546.00,0.99
8545.00,0.99
8544.00,0.99
8543.00,0.99
8542.00,0.99
8541.00,0.99
8540.00,0.98
8539.00,0.98
8538.00,0.98
8537.00,0.98
8536.00,0.98
8535.00,0.98
8534.00,0.97
8533.00,0.97
8532.00,0.97
8531.00,0.97
8530.00,0.97
8529.00,0.97
8528.00,0.97
8527.00,0.97
8526.00,0.97
8525.00,0.97
8524.00,0.97
8523.00,0.97
8522.00,0.97
8521.00,0.97
8520.00,0.97
8519.00,0.97
8518.00,0.97
8517.00,0.97
8516.00,0.97
8515.00,0.97
8514.00,0.97
8513.00,0.97
8512.00,0.97
8511.00,0.97
8510.00,0.97
8509.00,0.97
8508.00,0.97
8507.00,0.97
8506.00,0.96
8505.00,0.96
8504.00,0.96
8503.00,0.96
8502.00,0.96
8501.00,0.96
8500.00,0.96
8499.00,0.96
8498.00,0.96
8497.00,0.96
8496.00,0.96
8495.00,0.96
8494.00,0.96
8493.00,0.96
8492.00,0.96
8491.00,0.97
8490.00,0.97
8489.00,0.97
8488.00,0.97
8487.00,0.97
8486.00,0.97
8485.00,0.97
8484.00,0.97
8483.00,0.97
8482.00,0.97
8481.00,0.97
8480.00,0.97
8479.00,0.97
8478.00,0.96
8477.00,0.96
8476.00,0.96
8475.00,0.96
8474.00,0.96
8473.00,0.95
8472.00,0.95
8471.00,0.95
8470.00,0.95
8469.00,0.94
8468.00,0.94
8467.00,0.94
8466.00,0.94
8465.00,0.94
8464.00,0.94
8463.00,0.93
8462.00,0.93
8461.00,0.93
8460.00,0.93
8459.00,0.93
8458.00,0.93
8457.00,0.93
8456.00,0.93
8455.00,0.93
8454.00,0.94
8453.00,0.94
8452.00,0.94
8451.00,0.94
8450.00,0.93
8449.00,0.93
8448.00,0.93
8447.00,0.93
8446.00,0.93
8445.00,0.93
8444.00,0.93
8443.00,0.92
8442.00,0.92
8441.00,0.92
8440.00,0.92
8439.00,0.91
8438.00,0.91
8437.00,0.91
8436.00,0.91
8435.00,0.91
8434.00,0.91
8433.00,0.90
8432.00,0.90
8431.00,0.90
8430.00,0.90
8429.00,0.90
8428.00,0.90
8427.00,0.90
8426.00,0.91
8425.00,0.91
8424.00,0.91
8423.00,0.91
8422.00,0.91
8421.00,0.91
8420.00,0.91
8419.00,0.91
8418.00,0.91
8417.00,0.91
8416.00,0.92
8415.00,0.92
8414.00,0.92
8413.00,0.92
8412.00,0.92
8411.00,0.92
8410.00,0.92
8409.00,0.92
8408.00,0.93
8407.00,0.93
8406.00,0.93
8405.00,0.93
8404.00,0.93
8403.00,0.93
8402.00,0.93
8401.00,0.93
8400.00,0.93
8399.00,0.93
8398.00,0.93
8397.00,0.93
8396.00,0.93
8395.00,0.93
8394.00,0.93
8393.00,0.93
8392.00,0.94
8391.00,0.94
8390.00,0.94
8389.00,0.94
8388.00,0.94
8387.00,0.94
8386.00,0.94
8385.00,0.94
8384.00,0.95
8383.00,0.95
8382.00,0.95
8381.00,0.95
8380.00,0.95
8379.00,0.95
8378.00,0.95
8377.00,0.95
8376.00,0.95
8375.00,0.95
8374.00,0.95
8373.00,0.95
8372.00,0.95
8371.00,0.95
8370.00,0.95
8369.00,0.95
8368.00,0.95
8367.00,0.95
8366.00,0.95
8365.00,0.95
8364.00,0.95
8363.00,0.95
8362.00,0.95
8361.00,0.95
8360.00,0.95
8359.00,0.95
8358.00,0.95
8357.00,0.95
8356.00,0.95
8355.00,0.95
8354.00,0.95
8353.00,0.96
8352.00,0.96
8351.00,0.96
8350.00,0.96
8349.00,0.96
8348.00,0.96
8347.00,0.96
8346.00,0.96
8345.00,0.96
8344.00,0.96
8343.00,0.96
8342.00,0.96
8341.00,0.96
8340.00,0.96
8339.00,0.96
8338.00,0.96
8337.00,0.96
8336.00,0.96
8335.00,0.96
8334.00,0.96
8333.00,0.96
8332.00,0.96
8331.00,0.96
8330.00,0.96
8329.00,0.96
8328.00,0.96
8327.00,0.96
8326.00,0.96
8325.00,0.96
8324.00,0.96
8323.00,0.96
8322.00,0.96
8321.00,0.97
8320.00,0.97
8319.00,0.97
8318.00,0.97
8317.00,0.97
8316.00,0.97
8315.00,0.97
8314.00,0.97
8313.00,0.97
8312.00,0.97
8311.00,0.97
8310.00,0.97
8309.00,0.97
8308.00,0.97
8307.00,0.98
8306.00,0.98
8305.00,0.98
8304.00,0.98
8303.00,0.98
8302.00,0.98
8301.00,0.98
8300.00,0.98
8299.00,0.98
8298.00,0.98
8297.00,0.98
8296.00,0.98
8295.00,0.98
8294.00,0.98
8293.00,0.98
8292.00,0.98
8291.00,0.98
8290.00,0.98
8289.00,0.98
8288.00,0.98
8287.00,0.98
8286.00,0.98
8285.00,0.98
8284.00,0.98
8283.00,0.98
8282.00,0.98
8281.00,0.98
8280.00,0.98
8279.00,0.98
8278.00,0.98
8277.00,0.98
8276.00,0.98
8275.00,0.98
8274.00,0.98
8273.00,0.98
8272.00,0.98
8271.00,0.98
8270.00,0.98
8269.00,0.98
8268.00,0.98
8267.00,0.98
8266.00,0.98
8265.00,0.98
8264.00,0.98
8263.00,0.98
8262.00,0.98
8261.00,0.98
8260.00,0.98
8259.00,0.98
8258.00,0.98
8257.00,0.98
8256.00,0.98
8255.00,0.98
8254.00,0.98
8253.00,0.98
8252.00,0.98
8251.00,0.98
8250.00,0.99
8249.00,0.99
8248.00,0.99
8247.00,0.99
8246.00,0.99
8245.00,0.99
8244.00,0.99
8243.00,0.99
8242.00,0.99
8241.00,0.99
8240.00,0.99
8239.00,0.99
8238.00,0.99
8237.00,0.99
8236.00,1.00
8235.00,1.00
8234.00,1.00
8233.00,1.00
8232.00,1.00
8231.00,1.00
8230.00,1.00
8229.00,1.00
8228.00,1.00
8227.00,1.00
8226.00,1.00
8225.00,1.00
8224.00,1.00
8223.00,1.00
8222.00,1.00
8221.00,1.00
8220.00,1.00
8219.00,1.00
8218.00,1.00
8217.00,1.00
8216.00,1.00
8215.00,1.00
8214.00,1.00
8213.00,1.00
8212.00,1.01
8211.00,1.01
8210.00,1.01
8209.00,1.01
8208.00,1.01
8207.00,1.01
8206.00,1.01
8205.00,1.01
8204.00,1.01
8203.00,1.01
8202.00,1.01
8201.00,1.01
8200.00,1.01
8199.00,1.01
8198.00,1.01
8197.00,1.01
8196.00,1.01
8195.00,1.01
8194.00,1.01
8193.00,1.01
8192.00,1.01
8191.00,1.01
8190.00,1.01
8189.00,1.01
8188.00,1.01
8187.00,1.01
8186.00,1.01
8185.00,1.01
8184.00,1.00
8183.00,1.00
8182.00,1.00
8181.00,1.00
8180.00,1.00
8179.00,1.00
8178.00,1.00
8177.00,1.00
8176.00,1.00
8175.00,1.00
8174.00,1.00
8173.00,1.00
8172.00,1.00
8171.00,1.00
8170.00,1.00
8169.00,1.00
8168.00,1.00
8167.00,1.00
8166.00,1.01
8165.00,1.01
8164.00,1.01
8163.00,1.01
8162.00,1.01
8161.00,1.01
8160.00,1.01
8159.00,1.01
8158.00,1.02
8157.00,1.02
8156.00,1.02
8155.00,1.02
8154.00,1.02
8153.00,1.02
8152.00,1.02
8151.00,1.02
8150.00,1.02
8149.00,1.02
8148.00,1.03
8147.00,1.03
8146.00,1.03
8145.00,1.03
8144.00,1.03
8143.00,1.03
8142.00,1.03
8141.00,1.03
8140.00,1.03
8139.00,1.03
8138.00,1.04
8137.00,1.04
8136.00,1.04
8135.00,1.04
8134.00,1.04
8133.00,1.04
8132.00,1.04
8131.00,1.04
8130.00,1.04
8129.00,1.04
8128.00,1.04
8127.00,1.04
8126.00,1.04
8125.00,1.04
8124.00,1.04
8123.00,1.04
8122.00,1.03
8121.00,1.03
8120.00,1.03
8119.00,1.03
8118.00,1.03
8117.00,1.03
8116.00,1.03
8115.00,1.03
8114.00,1.03
8113.00,1.03
8112.00,1.03
8111.00,1.03
8110.00,1.03
8109.00,1.03
8108.00,1.03
8107.00,1.03
8106.00,1.03
8105.00,1.04
8104.00,1.04
8103.00,1.04
8102.00,1.04
8101.00,1.04
8100.00,1.04
8099.00,1.04
8098.00,1.04
8097.00,1.04
8096.00,1.04
8095.00,1.04
8094.00,1.04
8093.00,1.04
8092.00,1.04
8091.00,1.04
8090.00,1.04
8089.00,1.04
8088.00,1.05
8087.00,1.05
8086.00,1.05
8085.00,1.05
8084.00,1.05
8083.00,1.05
8082.00,1.05
8081.00,1.05
8080.00,1.05
8079.00,1.05
8078.00,1.05
8077.00,1.05
8076.00,1.05
8075.00,1.05
8074.00,1.05
8073.00,1.05
8072.00,1.05
8071.00,1.05
8070.00,1.05
8069.00,1.05
8068.00,1.05
8067.00,1.05
8066.00,1.05
8065.00,1.05
8064.00,1.05
8063.00,1.05
8062.00,1.05
8061.00,1.05
8060.00,1.05
8059.00,1.05
8058.00,1.05
8057.00,1.05
8056.00,1.05
8055.00,1.04
8054.00,1.04
8053.00,1.04
8052.00,1.04
8051.00,1.04
8050.00,1.04
8049.00,1.04
8048.00,1.04
8047.00,1.04
8046.00,1.04
8045.00,1.04
8044.00,1.04
8043.00,1.04
8042.00,1.04
8041.00,1.04
8040.00,1.05
8039.00,1.05
8038.00,1.05
8037.00,1.05
8036.00,1.05
8035.00,1.05
8034.00,1.05
8033.00,1.05
8032.00,1.05
8031.00,1.05
8030.00,1.05
8029.00,1.05
8028.00,1.05
8027.00,1.06
8026.00,1.06
8025.00,1.06
8024.00,1.06
8023.00,1.06
8022.00,1.06
8021.00,1.06
8020.00,1.06
8019.00,1.06
8018.00,1.06
8017.00,1.06
8016.00,1.06
8015.00,1.05
8014.00,1.05
8013.00,1.05
8012.00,1.05
8011.00,1.05
8010.00,1.05
8009.00,1.05
8008.00,1.05
8007.00,1.05
8006.00,1.06
8005.00,1.06
8004.00,1.06
8003.00,1.06
8002.00,1.06
8001.00,1.06
8000.00,1.06
7999.00,1.06
7998.00,1.06
7997.00,1.06
7996.00,1.06
7995.00,1.06
7994.00,1.06
7993.00,1.06
7992.00,1.06
7991.00,1.06
7990.00,1.06
7989.00,1.06
7988.00,1.06
7987.00,1.06
7986.00,1.06
7985.00,1.06
7984.00,1.06
7983.00,1.07
7982.00,1.07
7981.00,1.07
7980.00,1.07
7979.00,1.07
7978.00,1.07
7977.00,1.07
7976.00,1.07
7975.00,1.07
7974.00,1.07
7973.00,1.06
7972.00,1.06
7971.00,1.06
7970.00,1.06
7969.00,1.06
7968.00,1.06
7967.00,1.06
7966.00,1.06
7965.00,1.06
7964.00,1.06
7963.00,1.06
7962.00,1.06
7961.00,1.06
7960.00,1.06
7959.00,1.06
7958.00,1.06
7957.00,1.06
7956.00,1.06
7955.00,1.07
7954.00,1.07
7953.00,1.07
7952.00,1.07
7951.00,1.07
7950.00,1.07
7949.00,1.07
7948.00,1.07
7947.00,1.07
7946.00,1.08
7945.00,1.08
7944.00,1.08
7943.00,1.08
7942.00,1.08
7941.00,1.08
7940.00,1.07
7939.00,1.07
7938.00,1.07
7937.00,1.07
7936.00,1.07
7935.00,1.07
7934.00,1.07
7933.00,1.07
7932.00,1.07
7931.00,1.07
7930.00,1.07
7929.00,1.07
7928.00,1.07
7927.00,1.07
7926.00,1.07
7925.00,1.07
7924.00,1.07
7923.00,1.07
7922.00,1.07
7921.00,1.07
7920.00,1.07
7919.00,1.07
7918.00,1.07
7917.00,1.07
7916.00,1.07
7915.00,1.07
7914.00,1.07
7913.00,1.07
7912.00,1.07
7911.00,1.07
7910.00,1.07
7909.00,1.07
7908.00,1.07
7907.00,1.07
7906.00,1.07
7905.00,1.07
7904.00,1.08
7903.00,1.08
7902.00,1.08
7901.00,1.08
7900.00,1.08
7899.00,1.08
7898.00,1.08
7897.00,1.08
7896.00,1.08
7895.00,1.08
7894.00,1.08
7893.00,1.08
7892.00,1.08
7891.00,1.08
7890.00,1.08
7889.00,1.08
7888.00,1.08
7887.00,1.08
7886.00,1.08
7885.00,1.08
7884.00,1.08
7883.00,1.08
7882.00,1.08
7881.00,1.08
7880.00,1.08
7879.00,1.08
7878.00,1.08
7877.00,1.08
7876.00,1.08
7875.00,1.08
7874.00,1.08
7873.00,1.08
7872.00,1.08
7871.00,1.08
7870.00,1.08
7869.00,1.08
7868.00,1.08
7867.00,1.08
7866.00,1.08
7865.00,1.08
7864.00,1.08
7863.00,1.08
7862.00,1.08
7861.00,1.08
7860.00,1.08
7859.00,1.08
7858.00,1.08
7857.00,1.08
7856.00,1.08
7855.00,1.09
7854.00,1.09
7853.00,1.09
7852.00,1.09
7851.00,1.09
7850.00,1.09
7849.00,1.09
7848.00,1.09
7847.00,1.09
7846.00,1.09
7845.00,1.09
7844.00,1.09
7843.00,1.09
7842.00,1.09
7841.00,1.09
7840.00,1.09
7839.00,1.09
7838.00,1.09
7837.00,1.09
7836.00,1.09
7835.00,1.09
7834.00,1.09
7833.00,1.09
7832.00,1.09
7831.00,1.10
7830.00,1.10
7829.00,1.10
7828.00,1.10
7827.00,1.10
7826.00,1.10
7825.00,1.10
7824.00,1.10
7823.00,1.10
7822.00,1.10
7821.00,1.10
7820.00,1.10
7819.00,1.10
7818.00,1.10
7817.00,1.10
7816.00,1.10
7815.00,1.10
7814.00,1.10
7813.00,1.09
7812.00,1.09
7811.00,1.09
7810.00,1.09
7809.00,1.09
7808.00,1.09
7807.00,1.09
7806.00,1.09
7805.00,1.10
7804.00,1.10
7803.00,1.10
7802.00,1.10
7801.00,1.10
7800.00,1.10
7799.00,1.10
7798.00,1.10
7797.00,1.10
7796.00,1.10
7795.00,1.10
7794.00,1.10
7793.00,1.10
7792.00,1.09
7791.00,1.09
7790.00,1.09
7789.00,1.09
7788.00,1.09
7787.00,1.09
7786.00,1.09
7785.00,1.09
7784.00,1.09
7783.00,1.09
7782.00,1.09
7781.00,1.09
7780.00,1.09
7779.00,1.09
7778.00,1.10
7777.00,1.10
7776.00,1.10
7775.00,1.10
7774.00,1.10
7773.00,1.10
7772.00,1.10
7771.00,1.10
7770.00,1.10
7769.00,1.10
7768.00,1.10
7767.00,1.11
7766.00,1.11
7765.00,1.11
7764.00,1.11
7763.00,1.11
7762.00,1.11
7761.00,1.11
7760.00,1.11
7759.00,1.11
7758.00,1.11
7757.00,1.11
7756.00,1.11
7755.00,1.11
7754.00,1.10
7753.00,1.10
7752.00,1.10
7751.00,1.10
7750.00,1.10
7749.00,1.11
7748.00,1.11
7747.00,1.11
7746.00,1.11
7745.00,1.11
7744.00,1.11
7743.00,1.11
7742.00,1.11
7741.00,1.11
7740.00,1.11
7739.00,1.11
7738.00,1.11
7737.00,1.11
7736.00,1.11
7735.00,1.11
7734.00,1.11
7733.00,1.11
7732.00,1.11
7731.00,1.11
7730.00,1.11
7729.00,1.11
7728.00,1.11
7727.00,1.11
7726.00,1.11
7725.00,1.11
7724.00,1.11
7723.00,1.11
7722.00,1.11
7721.00,1.11
7720.00,1.11
7719.00,1.11
7718.00,1.10
7717.00,1.10
7716.00,1.10
7715.00,1.10
7714.00,1.10
7713.00,1.10
7712.00,1.10
7711.00,1.10
7710.00,1.10
7709.00,1.10
7708.00,1.10
7707.00,1.10
7706.00,1.10
7705.00,1.10
7704.00,1.10
7703.00,1.10
7702.00,1.10
7701.00,1.10
7700.00,1.10
7699.00,1.10
7698.00,1.10
7697.00,1.10
7696.00,1.10
7695.00,1.10
7694.00,1.10
7693.00,1.10
7692.00,1.10
7691.00,1.10
7690.00,1.10
7689.00,1.10
7688.00,1.10
7687.00,1.10
7686.00,1.11
7685.00,1.11
7684.00,1.11
7683.00,1.11
7682.00,1.11
7681.00,1.11
7680.00,1.11
7679.00,1.11
7678.00,1.11
7677.00,1.11
7676.00,1.11
7675.00,1.11
7674.00,1.11
7673.00,1.11
7672.00,1.11
7671.00,1.11
7670.00,1.11
7669.00,1.11
7668.00,1.11
7667.00,1.11
7666.00,1.11
7665.00,1.11
7664.00,1.11
7663.00,1.11
7662.00,1.11
7661.00,1.11
7660.00,1.11
7659.00,1.11
7658.00,1.11
7657.00,1.11
7656.00,1.11
7655.00,1.11
7654.00,1.11
7653.00,1.11
7652.00,1.11
7651.00,1.11
7650.00,1.11
7649.00,1.11
7648.00,1.11
7647.00,1.11
7646.00,1.11
7645.00,1.11
7644.00,1.11
7643.00,1.11
7642.00,1.11
7641.00,1.11
7640.00,1.11
7639.00,1.11
7638.00,1.11
7637.00,1.11
7636.00,1.11
7635.00,1.11
7634.00,1.11
7633.00,1.11
7632.00,1.11
7631.00,1.11
7630.00,1.11
7629.00,1.11
7628.00,1.11
7627.00,1.11
7626.00,1.11
7625.00,1.11
7624.00,1.11
7623.00,1.11
7622.00,1.11
7621.00,1.11
7620.00,1.11
7619.00,1.11
7618.00,1.11
7617.00,1.11
7616.00,1.11
7615.00,1.11
7614.00,1.11
7613.00,1.11
7612.00,1.11
7611.00,1.11
7610.00,1.11
7609.00,1.11
7608.00,1.11
7607.00,1.11
7606.00,1.11
7605.00,1.11
7604.00,1.10
7603.00,1.10
7602.00,1.10
7601.00,1.10
7600.00,1.10
7599.00,1.10
7598.00,1.10
7597.00,1.10
7596.00,1.10
7595.00,1.10
7594.00,1.10
7593.00,1.10
7592.00,1.11
7591.00,1.11
7590.00,1.11
7589.00,1.11
7588.00,1.11
7587.00,1.11
7586.00,1.11
7585.00,1.11
7584.00,1.11
7583.00,1.11
7582.00,1.11
7581.00,1.11
7580.00,1.11
7579.00,1.11
7578.00,1.11
7577.00,1.11
7576.00,1.11
7575.00,1.11
7574.00,1.11
7573.00,1.11
7572.00,1.11
7571.00,1.11
7570.00,1.11
7569.00,1.11
7568.00,1.11
7567.00,1.11
7566.00,1.10
7565.00,1.10
7564.00,1.10
7563.00,1.10
7562.00,1.10
7561.00,1.10
7560.00,1.10
7559.00,1.10
7558.00,1.10
7557.00,1.10
7556.00,1.10
7555.00,1.10
7554.00,1.10
7553.00,1.10
7552.00,1.10
7551.00,1.10
7550.00,1.10
7549.00,1.10
7548.00,1.10
7547.00,1.10
7546.00,1.10
7545.00,1.10
7544.00,1.10
7543.00,1.10
7542.00,1.10
7541.00,1.10
7540.00,1.10
7539.00,1.10
7538.00,1.10
7537.00,1.10
7536.00,1.10
7535.00,1.10
7534.00,1.10
7533.00,1.10
7532.00,1.10
7531.00,1.10
7530.00,1.10
7529.00,1.10
7528.00,1.10
7527.00,1.10
7526.00,1.10
7525.00,1.10
7524.00,1.10
7523.00,1.10
7522.00,1.10
7521.00,1.10
7520.00,1.10
7519.00,1.10
7518.00,1.10
7517.00,1.10
7516.00,1.10
7515.00,1.10
7514.00,1.10
7513.00,1.10
7512.00,1.09
7511.00,1.09
7510.00,1.09
7509.00,1.09
7508.00,1.09
7507.00,1.09
7506.00,1.09
7505.00,1.09
7504.00,1.09
7503.00,1.09
7502.00,1.09
7501.00,1.09
7500.00,1.09
7499.00,1.09
7498.00,1.09
7497.00,1.09
7496.00,1.09
7495.00,1.09
7494.00,1.09
7493.00,1.08
7492.00,1.08
7491.00,1.08
7490.00,1.08
7489.00,1.08
7488.00,1.08
7487.00,1.08
7486.00,1.08
7485.00,1.08
7484.00,1.08
7483.00,1.08
7482.00,1.08
7481.00,1.08
7480.00,1.08
7479.00,1.08
7478.00,1.08
7477.00,1.08
7476.00,1.08
7475.00,1.08
7474.00,1.08
7473.00,1.08
7472.00,1.08
7471.00,1.07
7470.00,1.07
7469.00,1.07
7468.00,1.07
7467.00,1.07
7466.00,1.07
7465.00,1.07
7464.00,1.07
7463.00,1.07
7462.00,1.07
7461.00,1.07
7460.00,1.07
7459.00,1.07
7458.00,1.07
7457.00,1.07
7456.00,1.07
7455.00,1.07
7454.00,1.07
7453.00,1.07
7452.00,1.07
7451.00,1.07
7450.00,1.07
7449.00,1.07
7448.00,1.07
7447.00,1.07
7446.00,1.07
7445.00,1.07
7444.00,1.07
7443.00,1.07
7442.00,1.07
7441.00,1.07
7440.00,1.07
7439.00,1.07
7438.00,1.07
7437.00,1.07
7436.00,1.06
7435.00,1.06
7434.00,1.06
7433.00,1.06
7432.00,1.06
7431.00,1.06
7430.00,1.06
7429.00,1.06
7428.00,1.06
7427.00,1.06
7426.00,1.06
7425.00,1.05
7424.00,1.05
7423.00,1.05
7422.00,1.05
7421.00,1.05
7420.00,1.05
7419.00,1.05
7418.00,1.04
7417.00,1.04
7416.00,1.04
7415.00,1.04
7414.00,1.04
7413.00,1.04
7412.00,1.04
7411.00,1.04
7410.00,1.03
7409.00,1.03
7408.00,1.03
7407.00,1.03
7406.00,1.03
7405.00,1.03
7404.00,1.03
7403.00,1.03
7402.00,1.03
7401.00,1.02
7400.00,1.02
7399.00,1.02
7398.00,1.02
7397.00,1.02
7396.00,1.02
7395.00,1.02
7394.00,1.02
7393.00,1.02
7392.00,1.02
7391.00,1.02
7390.00,1.02
7389.00,1.02
7388.00,1.02
7387.00,1.01
7386.00,1.01
7385.00,1.01
7384.00,1.01
7383.00,1.01
7382.00,1.01
7381.00,1.01
7380.00,1.01
7379.00,1.01
7378.00,1.01
7377.00,1.01
7376.00,1.01
7375.00,1.01
7374.00,1.01
7373.00,1.01
7372.00,1.01
7371.00,1.01
7370.00,1.01
7369.00,1.01
7368.00,1.01
7367.00,1.00
7366.00,1.00
7365.00,1.00
7364.00,1.00
7363.00,1.00
7362.00,1.00
7361.00,1.00
7360.00,1.00
7359.00,1.00
7358.00,1.00
7357.00,1.00
7356.00,1.00
7355.00,1.00
7354.00,1.00
7353.00,1.00
7352.00,1.00
7351.00,1.00
7350.00,1.00
7349.00,1.00
7348.00,1.00
7347.00,1.00
7346.00,1.00
7345.00,1.00
7344.00,1.00
7343.00,1.00
7342.00,1.00
7341.00,1.00
7340.00,1.00
7339.00,1.00
7338.00,1.00
7337.00,1.00
7336.00,1.00
7335.00,1.00
7334.00,1.00
7333.00,1.00
7332.00,1.00
7331.00,1.00
7330.00,1.00
7329.00,1.00
7328.00,1.00
7327.00,1.00
7326.00,1.00
7325.00,0.99
7324.00,0.99
7323.00,0.99
7322.00,0.99
7321.00,0.99
7320.00,0.99
7319.00,0.99
7318.00,0.99
7317.00,0.99
7316.00,0.99
7315.00,0.99
7314.00,0.99
7313.00,0.98
7312.00,0.98
7311.00,0.98
7310.00,0.98
7309.00,0.98
7308.00,0.98
7307.00,0.98
7306.00,0.98
7305.00,0.97
7304.00,0.97
7303.00,0.97
7302.00,0.97
7301.00,0.97
7300.00,0.97
7299.00,0.97
7298.00,0.97
7297.00,0.97
7296.00,0.97
7295.00,0.97
7294.00,0.97
7293.00,0.96
7292.00,0.96
7291.00,0.96
7290.00,0.96
7289.00,0.96
7288.00,0.96
7287.00,0.96
7286.00,0.96
7285.00,0.96
7284.00,0.96
7283.00,0.96
7282.00,0.95
7281.00,0.95
7280.00,0.95
7279.00,0.95
7278.00,0.95
7277.00,0.95
7276.00,0.95
7275.00,0.95
7274.00,0.95
7273.00,0.94
7272.00,0.94
7271.00,0.94
7270.00,0.94
7269.00,0.94
7268.00,0.94
7267.00,0.94
7266.00,0.94
7265.00,0.94
7264.00,0.94
7263.00,0.93
7262.00,0.93
7261.00,0.93
7260.00,0.93
7259.00,0.93
7258.00,0.93
7257.00,0.93
7256.00,0.93
7255.00,0.93
7254.00,0.93
7253.00,0.92
7252.00,0.92
7251.00,0.92
7250.00,0.92
7249.00,0.92
7248.00,0.92
7247.00,0.92
7246.00,0.91
7245.00,0.91
7244.00,0.91
7243.00,0.91
7242.00,0.91
7241.00,0.90
7240.00,0.90
7239.00,0.90
7238.00,0.90
7237.00,0.89
7236.00,0.89
7235.00,0.89
7234.00,0.88
7233.00,0.88
7232.00,0.88
7231.00,0.87
7230.00,0.87
7229.00,0.87
7228.00,0.86
7227.00,0.86
7226.00,0.86
7225.00,0.85
7224.00,0.85
7223.00,0.85
7222.00,0.84
7221.00,0.84
7220.00,0.83
7219.00,0.83
7218.00,0.83
7217.00,0.82
7216.00,0.82
7215.00,0.82
7214.00,0.81
7213.00,0.81
7212.00,0.81
7211.00,0.81
7210.00,0.80
7209.00,0.80
7208.00,0.80
7207.00,0.80
7206.00,0.79
7205.00,0.79
7204.00,0.79
7203.00,0.79
7202.00,0.78
7201.00,0.78
7200.00,0.78
7199.00,0.78
7198.00,0.78
7197.00,0.78
7196.00,0.77
7195.00,0.77
7194.00,0.77
7193.00,0.77
7192.00,0.77
7191.00,0.77
7190.00,0.77
7189.00,0.76
7188.00,0.76
7187.00,0.76
7186.00,0.76
7185.00,0.76
7184.00,0.75
7183.00,0.75
7182.00,0.75
7181.00,0.75
7180.00,0.74
7179.00,0.74
7178.00,0.74
7177.00,0.74
7176.00,0.73
7175.00,0.73
7174.00,0.73
7173.00,0.73
7172.00,0.72
7171.00,0.72
7170.00,0.72
7169.00,0.72
7168.00,0.71
7167.00,0.71
7166.00,0.71
7165.00,0.71
7164.00,0.70
7163.00,0.70
7162.00,0.70
7161.00,0.70
7160.00,0.70
7159.00,0.70
7158.00,0.69
7157.00,0.69
7156.00,0.69
7155.00,0.69
7154.00,0.69
7153.00,0.69
7152.00,0.68
7151.00,0.68
7150.00,0.68
7149.00,0.68
7148.00,0.67
7147.00,0.67
7146.00,0.67
7145.00,0.67
7144.00,0.66
7143.00,0.66
7142.00,0.66
7141.00,0.66
7140.00,0.66
7139.00,0.65
7138.00,0.65
7137.00,0.65
7136.00,0.65
7135.00,0.65
7134.00,0.65
7133.00,0.64
7132.00,0.64
7131.00,0.64
7130.00,0.64
7129.00,0.64
7128.00,0.64
7127.00,0.63
7126.00,0.63
7125.00,0.63
7124.00,0.63
7123.00,0.63
7122.00,0.62
7121.00,0.62
7120.00,0.62
7119.00,0.62
7118.00,0.62
7117.00,0.62
7116.00,0.61
7115.00,0.61
7114.00,0.61
7113.00,0.61
7112.00,0.61
7111.00,0.60
7110.00,0.60
7109.00,0.60
7108.00,0.60
7107.00,0.59
7106.00,0.59
7105.00,0.59
7104.00,0.59
7103.00,0.58
7102.00,0.58
7101.00,0.58
7100.00,0.58
7099.00,0.58
7098.00,0.57
7097.00,0.57
7096.00,0.57
7095.00,0.57
7094.00,0.57
7093.00,0.56
7092.00,0.56
7091.00,0.56
7090.00,0.56
7089.00,0.56
7088.00,0.56
7087.00,0.56
7086.00,0.55
7085.00,0.55
7084.00,0.55
7083.00,0.55
7082.00,0.55
7081.00,0.55
7080.00,0.55
7079.00,0.55
7078.00,0.55
7077.00,0.55
7076.00,0.54
7075.00,0.54
7074.00,0.54
7073.00,0.54
7072.00,0.54
7071.00,0.54
7070.00,0.54
7069.00,0.54
7068.00,0.54
7067.00,0.54
7066.00,0.54
7065.00,0.53
7064.00,0.53
7063.00,0.53
7062.00,0.53
7061.00,0.53
7060.00,0.53
7059.00,0.52
7058.00,0.52
7057.00,0.52
7056.00,0.52
7055.00,0.52
7054.00,0.52
7053.00,0.51
7052.00,0.51
7051.00,0.51
7050.00,0.51
7049.00,0.51
7048.00,0.51
7047.00,0.51
7046.00,0.51
7045.00,0.51
7044.00,0.51
7043.00,0.51
7042.00,0.50
7041.00,0.50
7040.00,0.50
7039.00,0.50
7038.00,0.50
7037.00,0.50
7036.00,0.50
7035.00,0.50
7034.00,0.50
7033.00,0.50
7032.00,0.50
7031.00,0.50
7030.00,0.50
7029.00,0.50
7028.00,0.50
7027.00,0.50
7026.00,0.49
7025.00,0.49
7024.00,0.49
7023.00,0.49
7022.00,0.49
7021.00,0.49
7020.00,0.49
7019.00,0.49
7018.00,0.49
7017.00,0.49
7016.00,0.49
7015.00,0.49
7014.00,0.49
7013.00,0.49
7012.00,0.49
7011.00,0.49
7010.00,0.48
7009.00,0.48
7008.00,0.48
7007.00,0.48
7006.00,0.48
7005.00,0.48
7004.00,0.48
7003.00,0.48
7002.00,0.48
7001.00,0.48
7000.00,0.48
6999.00,0.48
6998.00,0.48
6997.00,0.48
6996.00,0.48
6995.00,0.48
6994.00,0.48
6993.00,0.48
6992.00,0.48
6991.00,0.48
6990.00,0.48
6989.00,0.48
6988.00,0.48
6987.00,0.48
6986.00,0.48
6985.00,0.48
6984.00,0.48
6983.00,0.48
6982.00,0.48
6981.00,0.48
6980.00,0.48
6979.00,0.48
6978.00,0.48
6977.00,0.48
6976.00,0.47
6975.00,0.47
6974.00,0.47
6973.00,0.47
6972.00,0.47
6971.00,0.47
6970.00,0.47
6969.00,0.47
6968.00,0.47
6967.00,0.47
6966.00,0.47
6965.00,0.47
6964.00,0.46
6963.00,0.46
6962.00,0.46
6961.00,0.46
6960.00,0.46
6959.00,0.46
6958.00,0.46
6957.00,0.46
6956.00,0.46
6955.00,0.46
6954.00,0.46
6953.00,0.46
6952.00,0.46
6951.00,0.46
6950.00,0.46
6949.00,0.46
6948.00,0.46
6947.00,0.46
6946.00,0.46
6945.00,0.46
6944.00,0.46
6943.00,0.46
6942.00,0.46
6941.00,0.46
6940.00,0.46
6939.00,0.46
6938.00,0.46
6937.00,0.46
6936.00,0.46
6935.00,0.46
6934.00,0.46
6933.00,0.46
6932.00,0.46
6931.00,0.46
6930.00,0.46
6929.00,0.46
6928.00,0.46
6927.00,0.46
6926.00,0.46
6925.00,0.46
6924.00,0.46
6923.00,0.46
6922.00,0.46
6921.00,0.46
6920.00,0.46
6919.00,0.46
6918.00,0.46
6917.00,0.46
6916.00,0.46
6915.00,0.46
6914.00,0.46
6913.00,0.46
6912.00,0.46
6911.00,0.46
6910.00,0.46
6909.00,0.46
6908.00,0.45
6907.00,0.45
6906.00,0.45
6905.00,0.45
6904.00,0.45
6903.00,0.45
6902.00,0.45
6901.00,0.45
6900.00,0.45
6899.00,0.45
6898.00,0.45
6897.00,0.45
6896.00,0.45
6895.00,0.45
6894.00,0.45
6893.00,0.45
6892.00,0.45
6891.00,0.45
6890.00,0.45
6889.00,0.45
6888.00,0.45
6887.00,0.45
6886.00,0.45
6885.00,0.45
6884.00,0.45
6883.00,0.45
6882.00,0.45
6881.00,0.45
6880.00,0.45
6879.00,0.45
6878.00,0.45
6877.00,0.45
6876.00,0.45
6875.00,0.45
6874.00,0.45
6873.00,0.45
6872.00,0.45
6871.00,0.45
6870.00,0.45
6869.00,0.45
6868.00,0.45
6867.00,0.45
6866.00,0.45
6865.00,0.45
6864.00,0.45
6863.00,0.45
6862.00,0.45
6861.00,0.45
6860.00,0.45
6859.00,0.45
6858.00,0.45
6857.00,0.45
6856.00,0.45
6855.00,0.45
6854.00,0.45
6853.00,0.45
6852.00,0.45
6851.00,0.45
6850.00,0.45
6849.00,0.45
6848.00,0.45
6847.00,0.45
6846.00,0.46
6845.00,0.46
6844.00,0.46
6843.00,0.46
6842.00,0.46
6841.00,0.46
6840.00,0.46
6839.00,0.46
6838.00,0.46
6837.00,0.46
6836.00,0.46
6835.00,0.46
6834.00,0.46
6833.00,0.46
6832.00,0.46
6831.00,0.46
6830.00,0.46
6829.00,0.46
6828.00,0.46
6827.00,0.45
6826.00,0.45
6825.00,0.45
6824.00,0.46
6823.00,0.46
6822.00,0.46
6821.00,0.46
6820.00,0.46
6819.00,0.46
6818.00,0.46
6817.00,0.46
6816.00,0.46
6815.00,0.46
6814.00,0.46
6813.00,0.46
6812.00,0.46
6811.00,0.46
6810.00,0.46
6809.00,0.46
6808.00,0.46
6807.00,0.46
6806.00,0.46
6805.00,0.46
6804.00,0.46
6803.00,0.46
6802.00,0.46
6801.00,0.46
6800.00,0.46
6799.00,0.46
6798.00,0.46
6797.00,0.46
6796.00,0.46
6795.00,0.46
6794.00,0.46
6793.00,0.46
6792.00,0.46
6791.00,0.46
6790.00,0.46
6789.00,0.46
6788.00,0.46
6787.00,0.46
6786.00,0.47
6785.00,0.47
6784.00,0.47
6783.00,0.47
6782.00,0.47
6781.00,0.47
6780.00,0.47
6779.00,0.47
6778.00,0.47
6777.00,0.47
6776.00,0.47
6775.00,0.47
6774.00,0.47
6773.00,0.47
6772.00,0.47
6771.00,0.47
6770.00,0.47
6769.00,0.48
6768.00,0.48
6767.00,0.48
6766.00,0.48
6765.00,0.48
6764.00,0.48
6763.00,0.48
6762.00,0.48
6761.00,0.48
6760.00,0.48
6759.00,0.48
6758.00,0.48
6757.00,0.48
6756.00,0.48
6755.00,0.48
6754.00,0.48
6753.00,0.48
6752.00,0.48
6751.00,0.48
6750.00,0.48
6749.00,0.48
6748.00,0.48
6747.00,0.48
6746.00,0.48
6745.00,0.48
6744.00,0.48
6743.00,0.48
6742.00,0.48
6741.00,0.48
6740.00,0.48
6739.00,0.48
6738.00,0.48
6737.00,0.48
6736.00,0.48
6735.00,0.48
6734.00,0.48
6733.00,0.48
6732.00,0.48
6731.00,0.49
6730.00,0.49
6729.00,0.49
6728.00,0.49
6727.00,0.49
6726.00,0.49
6725.00,0.49
6724.00,0.49
6723.00,0.49
6722.00,0.50
6721.00,0.50
6720.00,0.50
6719.00,0.50
6718.00,0.50
6717.00,0.50
6716.00,0.50
6715.00,0.50
6714.00,0.50
6713.00,0.50
6712.00,0.50
6711.00,0.50
6710.00,0.50
6709.00,0.50
6708.00,0.50
6707.00,0.50
6706.00,0.51
6705.00,0.51
6704.00,0.51
6703.00,0.51
6702.00,0.51
6701.00,0.51
6700.00,0.51
6699.00,0.51
6698.00,0.51
6697.00,0.51
6696.00,0.51
6695.00,0.51
6694.00,0.52
6693.00,0.52
6692.00,0.52
6691.00,0.52
6690.00,0.52
6689.00,0.52
6688.00,0.52
6687.00,0.52
6686.00,0.52
6685.00,0.52
6684.00,0.52
6683.00,0.52
6682.00,0.52
6681.00,0.52
6680.00,0.52
6679.00,0.52
6678.00,0.52
6677.00,0.52
6676.00,0.52
6675.00,0.52
6674.00,0.52
6673.00,0.52
6672.00,0.52
6671.00,0.52
6670.00,0.52
6669.00,0.53
6668.00,0.53
6667.00,0.53
6666.00,0.53
6665.00,0.53
6664.00,0.53
6663.00,0.53
6662.00,0.53
6661.00,0.53
6660.00,0.53
6659.00,0.54
6658.00,0.54
6657.00,0.54
6656.00,0.54
6655.00,0.54
6654.00,0.54
6653.00,0.54
6652.00,0.54
6651.00,0.54
6650.00,0.54
6649.00,0.54
6648.00,0.54
6647.00,0.54
6646.00,0.54
6645.00,0.54
6644.00,0.54
6643.00,0.54
6642.00,0.54
6641.00,0.54
6640.00,0.54
6639.00,0.55
6638.00,0.55
6637.00,0.55
6636.00,0.55
6635.00,0.55
6634.00,0.55
6633.00,0.55
6632.00,0.55
6631.00,0.55
6630.00,0.55
6629.00,0.55
6628.00,0.55
6627.00,0.55
6626.00,0.55
6625.00,0.55
6624.00,0.55
6623.00,0.55
6622.00,0.55
6621.00,0.56
6620.00,0.56
6619.00,0.56
6618.00,0.56
6617.00,0.56
6616.00,0.56
6615.00,0.56
6614.00,0.56
6613.00,0.56
6612.00,0.57
6611.00,0.57
6610.00,0.57
6609.00,0.57
6608.00,0.57
6607.00,0.57
6606.00,0.57
6605.00,0.57
6604.00,0.57
6603.00,0.57
6602.00,0.57
6601.00,0.57
6600.00,0.57
6599.00,0.57
6598.00,0.58
6597.00,0.58
6596.00,0.58
6595.00,0.58
6594.00,0.58
6593.00,0.58
6592.00,0.58
6591.00,0.58
6590.00,0.58
6589.00,0.58
6588.00,0.58
6587.00,0.58
6586.00,0.58
6585.00,0.58
6584.00,0.58
6583.00,0.58
6582.00,0.58
6581.00,0.59
6580.00,0.59
6579.00,0.59
6578.00,0.59
6577.00,0.59
6576.00,0.59
6575.00,0.59
6574.00,0.59
6573.00,0.59
6572.00,0.59
6571.00,0.59
6570.00,0.59
6569.00,0.59
6568.00,0.59
6567.00,0.59
6566.00,0.59
6565.00,0.59
6564.00,0.59
6563.00,0.59
6562.00,0.59
6561.00,0.60
6560.00,0.60
6559.00,0.60
6558.00,0.60
6557.00,0.60
6556.00,0.60
6555.00,0.60
6554.00,0.60
6553.00,0.60
6552.00,0.60
6551.00,0.60
6550.00,0.60
6549.00,0.60
6548.00,0.60
6547.00,0.61
6546.00,0.61
6545.00,0.61
6544.00,0.61
6543.00,0.61
6542.00,0.61
6541.00,0.61
6540.00,0.61
6539.00,0.61
6538.00,0.61
6537.00,0.61
6536.00,0.61
6535.00,0.61
6534.00,0.61
6533.00,0.61
6532.00,0.61
6531.00,0.61
6530.00,0.61
6529.00,0.62
6528.00,0.62
6527.00,0.62
6526.00,0.62
6525.00,0.62
6524.00,0.62
6523.00,0.62
6522.00,0.62
6521.00,0.62
6520.00,0.62
6519.00,0.62
6518.00,0.62
6517.00,0.62
6516.00,0.62
6515.00,0.62
6514.00,0.62
6513.00,0.62
6512.00,0.62
6511.00,0.62
6510.00,0.63
6509.00,0.63
6508.00,0.63
6507.00,0.63
6506.00,0.63
6505.00,0.63
6504.00,0.63
6503.00,0.63
6502.00,0.63
6501.00,0.63
6500.00,0.63
6499.00,0.63
6498.00,0.63
6497.00,0.63
6496.00,0.63
6495.00,0.63
6494.00,0.63
6493.00,0.63
6492.00,0.63
6491.00,0.63
6490.00,0.63
6489.00,0.63
6488.00,0.63
6487.00,0.63
6486.00,0.63
6485.00,0.64
6484.00,0.64
6483.00,0.64
6482.00,0.64
6481.00,0.64
6480.00,0.64
6479.00,0.64
6478.00,0.64
6477.00,0.64
6476.00,0.64
6475.00,0.64
6474.00,0.64
6473.00,0.64
6472.00,0.64
6471.00,0.64
6470.00,0.64
6469.00,0.64
6468.00,0.64
6467.00,0.64
6466.00,0.64
6465.00,0.64
6464.00,0.64
6463.00,0.64
6462.00,0.64
6461.00,0.64
6460.00,0.64
6459.00,0.65
6458.00,0.65
6457.00,0.65
6456.00,0.65
6455.00,0.65
6454.00,0.65
6453.00,0.65
6452.00,0.65
6451.00,0.65
6450.00,0.65
6449.00,0.65
6448.00,0.65
6447.00,0.65
6446.00,0.65
6445.00,0.65
6444.00,0.65
6443.00,0.65
6442.00,0.65
6441.00,0.65
6440.00,0.65
6439.00,0.65
6438.00,0.65
6437.00,0.65
6436.00,0.65
6435.00,0.65
6434.00,0.65
6433.00,0.65
6432.00,0.65
6431.00,0.65
6430.00,0.65
6429.00,0.66
6428.00,0.66
6427.00,0.66
6426.00,0.66
6425.00,0.66
6424.00,0.66
6423.00,0.66
6422.00,0.66
6421.00,0.66
6420.00,0.66
6419.00,0.66
6418.00,0.66
6417.00,0.66
6416.00,0.66
6415.00,0.66
6414.00,0.66
6413.00,0.66
6412.00,0.66
6411.00,0.66
6410.00,0.66
6409.00,0.67
6408.00,0.67
6407.00,0.67
6406.00,0.67
6405.00,0.67
6404.00,0.67
6403.00,0.67
6402.00,0.67
6401.00,0.67
6400.00,0.67
6399.00,0.67
6398.00,0.67
6397.00,0.67
6396.00,0.67
6395.00,0.67
6394.00,0.67
6393.00,0.67
6392.00,0.67
6391.00,0.67
6390.00,0.67
6389.00,0.67
6388.00,0.67
6387.00,0.67
6386.00,0.67
6385.00,0.68
6384.00,0.68
6383.00,0.68
6382.00,0.68
6381.00,0.68
6380.00,0.68
6379.00,0.68
6378.00,0.68
6377.00,0.68
6376.00,0.68
6375.00,0.68
6374.00,0.68
6373.00,0.68
6372.00,0.68
6371.00,0.68
6370.00,0.68
6369.00,0.68
6368.00,0.68
6367.00,0.68
6366.00,0.68
6365.00,0.68
6364.00,0.68
6363.00,0.68
6362.00,0.68
6361.00,0.68
6360.00,0.68
6359.00,0.68
6358.00,0.68
6357.00,0.69
6356.00,0.69
6355.00,0.69
6354.00,0.69
6353.00,0.69
6352.00,0.69
6351.00,0.69
6350.00,0.69
6349.00,0.69
6348.00,0.69
6347.00,0.69
6346.00,0.69
6345.00,0.69
6344.00,0.69
6343.00,0.69
6342.00,0.70
6341.00,0.70
6340.00,0.70
6339.00,0.70
6338.00,0.70
6337.00,0.70
6336.00,0.70
6335.00,0.70
6334.00,0.70
6333.00,0.70
6332.00,0.70
6331.00,0.70
6330.00,0.70
6329.00,0.70
6328.00,0.70
6327.00,0.71
6326.00,0.71
6325.00,0.71
6324.00,0.71
6323.00,0.71
6322.00,0.71
6321.00,0.71
6320.00,0.71
6319.00,0.71
6318.00,0.71
6317.00,0.71
6316.00,0.72
6315.00,0.72
6314.00,0.72
6313.00,0.72
6312.00,0.72
6311.00,0.72
6310.00,0.72
6309.00,0.72
6308.00,0.72
6307.00,0.72
6306.00,0.73
6305.00,0.73
6304.00,0.73
6303.00,0.73
6302.00,0.73
6301.00,0.73
6300.00,0.73
6299.00,0.73
6298.00,0.73
6297.00,0.73
6296.00,0.73
6295.00,0.74
6294.00,0.74
6293.00,0.74
6292.00,0.74
6291.00,0.74
6290.00,0.74
6289.00,0.74
6288.00,0.74
6287.00,0.74
6286.00,0.74
6285.00,0.74
6284.00,0.74
6283.00,0.74
6282.00,0.74
6281.00,0.74
6280.00,0.74
6279.00,0.74
6278.00,0.74
6277.00,0.74
6276.00,0.74
6275.00,0.74
6274.00,0.75
6273.00,0.75
6272.00,0.75
6271.00,0.75
6270.00,0.75
6269.00,0.75
6268.00,0.75
6267.00,0.75
6266.00,0.75
6265.00,0.75
6264.00,0.75
6263.00,0.76
6262.00,0.76
6261.00,0.76
6260.00,0.76
6259.00,0.76
6258.00,0.76
6257.00,0.76
6256.00,0.76
6255.00,0.76
6254.00,0.76
6253.00,0.76
6252.00,0.77
6251.00,0.77
6250.00,0.77
6249.00,0.77
6248.00,0.77
6247.00,0.77
6246.00,0.77
6245.00,0.77
6244.00,0.77
6243.00,0.77
6242.00,0.78
6241.00,0.78
6240.00,0.78
6239.00,0.78
6238.00,0.78
6237.00,0.78
6236.00,0.78
6235.00,0.78
6234.00,0.79
6233.00,0.79
6232.00,0.79
6231.00,0.79
6230.00,0.79
6229.00,0.79
6228.00,0.79
6227.00,0.79
6226.00,0.79
6225.00,0.79
6224.00,0.80
6223.00,0.80
6222.00,0.80
6221.00,0.80
6220.00,0.80
6219.00,0.80
6218.00,0.80
6217.00,0.80
6216.00,0.80
6215.00,0.81
6214.00,0.81
6213.00,0.81
6212.00,0.81
6211.00,0.81
6210.00,0.81
6209.00,0.81
6208.00,0.81
6207.00,0.81
6206.00,0.81
6205.00,0.81
6204.00,0.81
6203.00,0.81
6202.00,0.82
6201.00,0.82
6200.00,0.82
6199.00,0.82
6198.00,0.82
6197.00,0.82
6196.00,0.82
6195.00,0.82
6194.00,0.82
6193.00,0.82
6192.00,0.82
6191.00,0.83
6190.00,0.83
6189.00,0.83
6188.00,0.83
6187.00,0.83
6186.00,0.83
6185.00,0.84
6184.00,0.84
6183.00,0.84
6182.00,0.84
6181.00,0.84
6180.00,0.84
6179.00,0.85
6178.00,0.85
6177.00,0.85
6176.00,0.85
6175.00,0.85
6174.00,0.86
6173.00,0.86
6172.00,0.86
6171.00,0.86
6170.00,0.86
6169.00,0.86
6168.00,0.86
6167.00,0.86
6166.00,0.87
6165.00,0.87
6164.00,0.87
6163.00,0.87
6162.00,0.87
6161.00,0.87
6160.00,0.87
6159.00,0.87
6158.00,0.87
6157.00,0.87
6156.00,0.87
6155.00,0.88
6154.00,0.88
6153.00,0.88
6152.00,0.88
6151.00,0.88
6150.00,0.88
6149.00,0.88
6148.00,0.89
6147.00,0.89
6146.00,0.89
6145.00,0.89
6144.00,0.89
6143.00,0.89
6142.00,0.89
6141.00,0.89
6140.00,0.89
6139.00,0.89
6138.00,0.90
6137.00,0.90
6136.00,0.90
6135.00,0.90
6134.00,0.90
6133.00,0.90
6132.00,0.90
6131.00,0.90
6130.00,0.91
6129.00,0.91
6128.00,0.91
6127.00,0.91
6126.00,0.91
6125.00,0.91
6124.00,0.91
6123.00,0.92
6122.00,0.92
6121.00,0.92
6120.00,0.92
6119.00,0.92
6118.00,0.92
6117.00,0.93
6116.00,0.93
6115.00,0.93
6114.00,0.93
6113.00,0.93
6112.00,0.93
6111.00,0.93
6110.00,0.93
6109.00,0.93
6108.00,0.94
6107.00,0.94
6106.00,0.94
6105.00,0.94
6104.00,0.94
6103.00,0.94
6102.00,0.94
6101.00,0.94
6100.00,0.94
6099.00,0.95
6098.00,0.95
6097.00,0.95
6096.00,0.95
6095.00,0.95
6094.00,0.95
6093.00,0.95
6092.00,0.95
6091.00,0.95
6090.00,0.96
6089.00,0.96
6088.00,0.96
6087.00,0.96
6086.00,0.96
6085.00,0.96
6084.00,0.96
6083.00,0.96
6082.00,0.96
6081.00,0.96
6080.00,0.96
6079.00,0.96
6078.00,0.96
6077.00,0.97
6076.00,0.97
6075.00,0.97
6074.00,0.97
6073.00,0.97
6072.00,0.97
6071.00,0.97
6070.00,0.97
6069.00,0.98
6068.00,0.98
6067.00,0.98
6066.00,0.98
6065.00,0.98
6064.00,0.98
6063.00,0.98
6062.00,0.98
6061.00,0.98
6060.00,0.98
6059.00,0.98
6058.00,0.98
6057.00,0.99
6056.00,0.99
6055.00,0.99
6054.00,0.99
6053.00,0.99
6052.00,0.99
6051.00,0.99
6050.00,0.99
6049.00,0.99
6048.00,0.99
6047.00,0.99
6046.00,0.99
6045.00,0.99
6044.00,0.99
6043.00,0.99
6042.00,1.00
6041.00,1.00
6040.00,1.00
6039.00,1.00
6038.00,1.00
6037.00,1.00
6036.00,1.00
6035.00,1.00
6034.00,1.00
6033.00,1.00
6032.00,1.00
6031.00,1.01
6030.00,1.01
6029.00,1.01
6028.00,1.01
6027.00,1.01
6026.00,1.01
6025.00,1.01
6024.00,1.01
6023.00,1.01
6022.00,1.01
6021.00,1.01
6020.00,1.01
6019.00,1.01
6018.00,1.01
6017.00,1.01
6016.00,1.01
6015.00,1.01
6014.00,1.01
6013.00,1.01
6012.00,1.00
6011.00,1.00
6010.00,1.00
6009.00,1.00
6008.00,1.00
6007.00,1.00
6006.00,1.00
6005.00,1.00
6004.00,1.00
6003.00,1.00
6002.00,1.00
6001.00,1.00
6000.00,0.99
5999.00,0.99
5998.00,0.99
5997.00,0.99
5996.00,0.99
5995.00,0.99
5994.00,0.99
5993.00,0.99
5992.00,0.99
5991.00,0.98
5990.00,0.98
5989.00,0.98
5988.00,0.98
5987.00,0.98
5986.00,0.98
5985.00,0.97
5984.00,0.97
5983.00,0.97
5982.00,0.97
5981.00,0.96
5980.00,0.96
5979.00,0.96
5978.00,0.96
5977.00,0.95
5976.00,0.95
5975.00,0.94
5974.00,0.94
5973.00,0.93
5972.00,0.93
5971.00,0.92
5970.00,0.92
5969.00,0.91
5968.00,0.91
5967.00,0.90
5966.00,0.90
5965.00,0.89
5964.00,0.88
5963.00,0.88
5962.00,0.87
5961.00,0.86
5960.00,0.86
5959.00,0.85
5958.00,0.85
5957.00,0.84
5956.00,0.83
5955.00,0.83
5954.00,0.82
5953.00,0.81
5952.00,0.81
5951.00,0.80
5950.00,0.80
5949.00,0.79
5948.00,0.79
5947.00,0.78
5946.00,0.78
5945.00,0.77
5944.00,0.77
5943.00,0.77
5942.00,0.76
5941.00,0.76
5940.00,0.76
5939.00,0.76
5938.00,0.75
5937.00,0.75
5936.00,0.75
5935.00,0.75
5934.00,0.75
5933.00,0.75
5932.00,0.75
5931.00,0.75
5930.00,0.75
5929.00,0.75
5928.00,0.75
5927.00,0.75
5926.00,0.75
5925.00,0.75
5924.00,0.74
5923.00,0.74
5922.00,0.74
5921.00,0.74
5920.00,0.74
5919.00,0.74
5918.00,0.74
5917.00,0.73
5916.00,0.73
5915.00,0.73
5914.00,0.73
5913.00,0.72
5912.00,0.72
5911.00,0.72
5910.00,0.72
5909.00,0.72
5908.00,0.71
5907.00,0.71
5906.00,0.71
5905.00,0.71
5904.00,0.71
5903.00,0.71
5902.00,0.71
5901.00,0.71
5900.00,0.71
5899.00,0.71
5898.00,0.71
5897.00,0.71
5896.00,0.71
5895.00,0.71
5894.00,0.71
5893.00,0.71
5892.00,0.71
5891.00,0.72
5890.00,0.72
5889.00,0.72
5888.00,0.72
5887.00,0.72
5886.00,0.73
5885.00,0.73
5884.00,0.73
5883.00,0.73
5882.00,0.74
5881.00,0.74
5880.00,0.74
5879.00,0.74
5878.00,0.74
5877.00,0.75
5876.00,0.75
5875.00,0.75
5874.00,0.75
5873.00,0.76
5872.00,0.76
5871.00,0.76
5870.00,0.76
5869.00,0.76
5868.00,0.77
5867.00,0.77
5866.00,0.77
5865.00,0.77
5864.00,0.77
5863.00,0.77
5862.00,0.78
5861.00,0.78
5860.00,0.78
5859.00,0.78
5858.00,0.78
5857.00,0.78
5856.00,0.78
5855.00,0.79
5854.00,0.79
5853.00,0.79
5852.00,0.79
5851.00,0.79
5850.00,0.79
5849.00,0.79
5848.00,0.79
5847.00,0.79
5846.00,0.79
5845.00,0.79
5844.00,0.79
5843.00,0.79
5842.00,0.79
5841.00,0.79
5840.00,0.79
5839.00,0.79
5838.00,0.79
5837.00,0.79
5836.00,0.79
5835.00,0.79
5834.00,0.79
5833.00,0.79
5832.00,0.79
5831.00,0.79
5830.00,0.79
5829.00,0.79
5828.00,0.79
5827.00,0.79
5826.00,0.79
5825.00,0.79
5824.00,0.79
5823.00,0.79
5822.00,0.79
5821.00,0.79
5820.00,0.79
5819.00,0.79
5818.00,0.79
5817.00,0.79
5816.00,0.79
5815.00,0.79
5814.00,0.79
5813.00,0.79
5812.00,0.79
5811.00,0.79
5810.00,0.79
5809.00,0.79
5808.00,0.79
5807.00,0.80
5806.00,0.80
5805.00,0.80
5804.00,0.80
5803.00,0.80
5802.00,0.80
5801.00,0.80
5800.00,0.79
5799.00,0.79
5798.00,0.79
5797.00,0.79
5796.00,0.79
5795.00,0.79
5794.00,0.79
5793.00,0.79
5792.00,0.78
5791.00,0.78
5790.00,0.78
5789.00,0.78
5788.00,0.78
5787.00,0.77
5786.00,0.77
5785.00,0.77
5784.00,0.77
5783.00,0.77
5782.00,0.76
5781.00,0.76
5780.00,0.76
5779.00,0.76
5778.00,0.76
5777.00,0.76
5776.00,0.76
5775.00,0.75
5774.00,0.75
5773.00,0.75
5772.00,0.75
5771.00,0.75
5770.00,0.75
5769.00,0.75
5768.00,0.75
5767.00,0.75
5766.00,0.75
5765.00,0.75
5764.00,0.76
5763.00,0.76
5762.00,0.76
5761.00,0.76
5760.00,0.76
5759.00,0.76
5758.00,0.77
5757.00,0.77
5756.00,0.77
5755.00,0.78
5754.00,0.78
5753.00,0.78
5752.00,0.79
5751.00,0.79
5750.00,0.79
5749.00,0.80
5748.00,0.80
5747.00,0.80
5746.00,0.81
5745.00,0.81
5744.00,0.81
5743.00,0.82
5742.00,0.82
5741.00,0.82
5740.00,0.83
5739.00,0.83
5738.00,0.83
5737.00,0.83
5736.00,0.84
5735.00,0.84
5734.00,0.84
5733.00,0.84
5732.00,0.84
5731.00,0.85
5730.00,0.85
5729.00,0.85
5728.00,0.85
5727.00,0.85
5726.00,0.85
5725.00,0.85
5724.00,0.85
5723.00,0.86
5722.00,0.86
5721.00,0.86
5720.00,0.86
5719.00,0.86
5718.00,0.86
5717.00,0.86
5716.00,0.86
5715.00,0.86
5714.00,0.86
5713.00,0.86
5712.00,0.86
5711.00,0.86
5710.00,0.86
5709.00,0.86
5708.00,0.86
5707.00,0.86
5706.00,0.86
5705.00,0.86
5704.00,0.86
5703.00,0.86
5702.00,0.86
5701.00,0.86
5700.00,0.86
5699.00,0.85
5698.00,0.85
5697.00,0.85
5696.00,0.85
5695.00,0.85
5694.00,0.85
5693.00,0.85
5692.00,0.85
5691.00,0.84
5690.00,0.84
5689.00,0.84
5688.00,0.84
5687.00,0.84
5686.00,0.84
5685.00,0.83
5684.00,0.83
5683.00,0.83
5682.00,0.83
5681.00,0.83
5680.00,0.83
5679.00,0.83
5678.00,0.83
5677.00,0.83
5676.00,0.83
5675.00,0.83
5674.00,0.83
5673.00,0.83
5672.00,0.83
5671.00,0.83
5670.00,0.83
5669.00,0.83
5668.00,0.83
5667.00,0.83
5666.00,0.83
5665.00,0.83
5664.00,0.83
5663.00,0.83
5662.00,0.84
5661.00,0.84
5660.00,0.84
5659.00,0.84
5658.00,0.84
5657.00,0.84
5656.00,0.84
5655.00,0.85
5654.00,0.85
5653.00,0.85
5652.00,0.85
5651.00,0.85
5650.00,0.86
5649.00,0.86
5648.00,0.86
5647.00,0.86
5646.00,0.86
5645.00,0.87
5644.00,0.87
5643.00,0.87
5642.00,0.87
5641.00,0.87
5640.00,0.88
5639.00,0.88
5638.00,0.88
5637.00,0.88
5636.00,0.88
5635.00,0.89
5634.00,0.89
5633.00,0.89
5632.00,0.89
5631.00,0.89
5630.00,0.90
5629.00,0.90
5628.00,0.90
5627.00,0.90
5626.00,0.90
5625.00,0.91
5624.00,0.91
5623.00,0.91
5622.00,0.91
5621.00,0.91
5620.00,0.92
5619.00,0.92
5618.00,0.92
5617.00,0.92
5616.00,0.92
5615.00,0.92
5614.00,0.92
5613.00,0.93
5612.00,0.93
5611.00,0.93
5610.00,0.93
5609.00,0.93
5608.00,0.93
5607.00,0.94
5606.00,0.94
5605.00,0.94
5604.00,0.94
5603.00,0.94
5602.00,0.94
5601.00,0.95
5600.00,0.95
5599.00,0.95
5598.00,0.95
5597.00,0.95
5596.00,0.95
5595.00,0.96
5594.00,0.96
5593.00,0.96
5592.00,0.96
5591.00,0.96
5590.00,0.96
5589.00,0.96
5588.00,0.96
5587.00,0.97
5586.00,0.97
5585.00,0.97
5584.00,0.97
5583.00,0.97
5582.00,0.97
5581.00,0.97
5580.00,0.97
5579.00,0.98
5578.00,0.98
5577.00,0.98
5576.00,0.98
5575.00,0.98
5574.00,0.98
5573.00,0.98
5572.00,0.99
5571.00,0.99
5570.00,0.99
5569.00,0.99
5568.00,0.99
5567.00,0.99
5566.00,0.99
5565.00,0.99
5564.00,1.00
5563.00,1.00
5562.00,1.00
5561.00,1.00
5560.00,1.00
5559.00,1.00
5558.00,1.00
5557.00,1.00
5556.00,1.00
5555.00,1.00
5554.00,1.01
5553.00,1.01
5552.00,1.01
5551.00,1.01
5550.00,1.01
5549.00,1.01
5548.00,1.01
5547.00,1.01
5546.00,1.01
5545.00,1.02
5544.00,1.02
5543.00,1.02
5542.00,1.02
5541.00,1.02
5540.00,1.02
5539.00,1.02
5538.00,1.02
5537.00,1.02
5536.00,1.02
5535.00,1.03
5534.00,1.03
5533.00,1.03
5532.00,1.03
5531.00,1.03
5530.00,1.03
5529.00,1.03
5528.00,1.03
5527.00,1.03
5526.00,1.03
5525.00,1.03
5524.00,1.04
5523.00,1.04
5522.00,1.04
5521.00,1.04
5520.00,1.04
5519.00,1.04
5518.00,1.04
5517.00,1.04
5516.00,1.04
5515.00,1.04
5514.00,1.04
5513.00,1.04
5512.00,1.04
5511.00,1.04
5510.00,1.04
5509.00,1.04
5508.00,1.04
5507.00,1.04
5506.00,1.04
5505.00,1.04
5504.00,1.04
5503.00,1.04
5502.00,1.05
5501.00,1.05
5500.00,1.05
5499.00,1.05
5498.00,1.05
5497.00,1.05
5496.00,1.05
5495.00,1.05
5494.00,1.05
5493.00,1.05
5492.00,1.05
5491.00,1.05
5490.00,1.05
5489.00,1.06
5488.00,1.06
5487.00,1.06
5486.00,1.06
5485.00,1.06
5484.00,1.06
5483.00,1.06
5482.00,1.06
5481.00,1.06
5480.00,1.06
5479.00,1.07
5478.00,1.07
5477.00,1.07
5476.00,1.07
5475.00,1.07
5474.00,1.07
5473.00,1.07
5472.00,1.08
5471.00,1.08
5470.00,1.08
5469.00,1.08
5468.00,1.08
5467.00,1.08
5466.00,1.08
5465.00,1.08
5464.00,1.09
5463.00,1.09
5462.00,1.09
5461.00,1.09
5460.00,1.09
5459.00,1.09
5458.00,1.09
5457.00,1.09
5456.00,1.09
5455.00,1.09
5454.00,1.10
5453.00,1.10
5452.00,1.10
5451.00,1.10
5450.00,1.10
5449.00,1.10
5448.00,1.10
5447.00,1.10
5446.00,1.10
5445.00,1.10
5444.00,1.10
5443.00,1.10
5442.00,1.10
5441.00,1.10
5440.00,1.10
5439.00,1.10
5438.00,1.10
5437.00,1.10
5436.00,1.10
5435.00,1.10
5434.00,1.10
5433.00,1.11
5432.00,1.11
5431.00,1.11
5430.00,1.11
5429.00,1.11
5428.00,1.11
5427.00,1.11
5426.00,1.11
5425.00,1.11
5424.00,1.11
5423.00,1.11
5422.00,1.11
5421.00,1.11
5420.00,1.11
5419.00,1.11
5418.00,1.11
5417.00,1.11
5416.00,1.11
5415.00,1.11
5414.00,1.11
5413.00,1.11
5412.00,1.11
5411.00,1.11
5410.00,1.12
5409.00,1.12
5408.00,1.12
5407.00,1.12
5406.00,1.12
5405.00,1.12
5404.00,1.12
5403.00,1.11
5402.00,1.11
5401.00,1.11
5400.00,1.11
5399.00,1.11
5398.00,1.11
5397.00,1.11
5396.00,1.11
5395.00,1.11
5394.00,1.11
5393.00,1.11
5392.00,1.11
5391.00,1.11
5390.00,1.11
5389.00,1.11
5388.00,1.11
5387.00,1.10
5386.00,1.10
5385.00,1.10
5384.00,1.10
5383.00,1.10
5382.00,1.10
5381.00,1.09
5380.00,1.09
5379.00,1.09
5378.00,1.09
5377.00,1.08
5376.00,1.08
5375.00,1.08
5374.00,1.08
5373.00,1.07
5372.00,1.07
5371.00,1.07
5370.00,1.06
5369.00,1.06
5368.00,1.06
5367.00,1.05
5366.00,1.05
5365.00,1.04
5364.00,1.04
5363.00,1.04
5362.00,1.03
5361.00,1.03
5360.00,1.02
5359.00,1.02
5358.00,1.01
5357.00,1.00
5356.00,1.00
5355.00,0.99
5354.00,0.99
5353.00,0.98
5352.00,0.97
5351.00,0.97
5350.00,0.96
5349.00,0.95
5348.00,0.95
5347.00,0.94
5346.00,0.93
5345.00,0.92
5344.00,0.92
5343.00,0.91
5342.00,0.90
5341.00,0.89
5340.00,0.88
5339.00,0.88
5338.00,0.87
5337.00,0.86
5336.00,0.85
5335.00,0.84
5334.00,0.83
5333.00,0.83
5332.00,0.82
5331.00,0.81
5330.00,0.80
5329.00,0.79
5328.00,0.78
5327.00,0.77
5326.00,0.77
5325.00,0.76
5324.00,0.75
5323.00,0.74
5322.00,0.73
5321.00,0.73
5320.00,0.72
5319.00,0.71
5318.00,0.70
5317.00,0.70
5316.00,0.69
5315.00,0.68
5314.00,0.68
5313.00,0.67
5312.00,0.66
5311.00,0.66
5310.00,0.65
5309.00,0.65
5308.00,0.64
5307.00,0.64
5306.00,0.63
5305.00,0.63
5304.00,0.62
5303.00,0.62
5302.00,0.61
5301.00,0.61
5300.00,0.60
5299.00,0.60
5298.00,0.60
5297.00,0.59
5296.00,0.59
5295.00,0.59
5294.00,0.58
5293.00,0.58
5292.00,0.58
5291.00,0.58
5290.00,0.58
5289.00,0.57
5288.00,0.57
5287.00,0.57
5286.00,0.57
5285.00,0.57
5284.00,0.57
5283.00,0.57
5282.00,0.56
5281.00,0.56
5280.00,0.56
5279.00,0.56
5278.00,0.56
5277.00,0.56
5276.00,0.56
5275.00,0.56
5274.00,0.56
5273.00,0.56
5272.00,0.56
5271.00,0.56
5270.00,0.56
5269.00,0.56
5268.00,0.56
5267.00,0.56
5266.00,0.55
5265.00,0.55
5264.00,0.55
5263.00,0.55
5262.00,0.55
5261.00,0.55
5260.00,0.55
5259.00,0.55
5258.00,0.55
5257.00,0.55
5256.00,0.55
5255.00,0.55
5254.00,0.55
5253.00,0.55
5252.00,0.55
5251.00,0.55
5250.00,0.55
5249.00,0.55
5248.00,0.55
5247.00,0.55
5246.00,0.55
5245.00,0.55
5244.00,0.55
5243.00,0.55
5242.00,0.55
5241.00,0.55
5240.00,0.55
5239.00,0.55
5238.00,0.55
5237.00,0.55
5236.00,0.56
5235.00,0.56
5234.00,0.56
5233.00,0.56
5232.00,0.56
5231.00,0.56
5230.00,0.56
5229.00,0.56
5228.00,0.56
5227.00,0.56
5226.00,0.56
5225.00,0.56
5224.00,0.56
5223.00,0.56
5222.00,0.56
5221.00,0.56
5220.00,0.56
5219.00,0.56
5218.00,0.56
5217.00,0.56
5216.00,0.56
5215.00,0.56
5214.00,0.56
5213.00,0.56
5212.00,0.56
5211.00,0.56
5210.00,0.56
5209.00,0.56
5208.00,0.56
5207.00,0.56
5206.00,0.56
5205.00,0.56
5204.00,0.56
5203.00,0.56
5202.00,0.56
5201.00,0.56
5200.00,0.56
5199.00,0.56
5198.00,0.56
5197.00,0.56
5196.00,0.57
5195.00,0.57
5194.00,0.57
5193.00,0.57
5192.00,0.57
5191.00,0.57
5190.00,0.57
5189.00,0.57
5188.00,0.57
5187.00,0.57
5186.00,0.57
5185.00,0.57
5184.00,0.57
5183.00,0.57
5182.00,0.57
5181.00,0.57
5180.00,0.57
5179.00,0.57
5178.00,0.57
5177.00,0.57
5176.00,0.57
5175.00,0.57
5174.00,0.57
5173.00,0.57
5172.00,0.57
5171.00,0.57
5170.00,0.57
5169.00,0.57
5168.00,0.57
5167.00,0.57
5166.00,0.58
5165.00,0.58
5164.00,0.58
5163.00,0.58
5162.00,0.58
5161.00,0.58
5160.00,0.58
5159.00,0.58
5158.00,0.58
5157.00,0.58
5156.00,0.58
5155.00,0.58
5154.00,0.58
5153.00,0.58
5152.00,0.58
5151.00,0.58
5150.00,0.58
5149.00,0.58
5148.00,0.58
5147.00,0.58
5146.00,0.58
5145.00,0.58
5144.00,0.58
5143.00,0.58
5142.00,0.58
5141.00,0.58
5140.00,0.58
5139.00,0.58
5138.00,0.58
5137.00,0.58
5136.00,0.58
5135.00,0.58
5134.00,0.58
5133.00,0.59
5132.00,0.59
5131.00,0.59
5130.00,0.59
5129.00,0.59
5128.00,0.59
5127.00,0.59
5126.00,0.59
5125.00,0.59
5124.00,0.59
5123.00,0.59
5122.00,0.59
5121.00,0.59
5120.00,0.59
5119.00,0.59
5118.00,0.59
5117.00,0.59
5116.00,0.59
5115.00,0.59
5114.00,0.59
5113.00,0.59
5112.00,0.59
5111.00,0.59
5110.00,0.59
5109.00,0.59
5108.00,0.59
5107.00,0.60
5106.00,0.60
5105.00,0.60
5104.00,0.60
5103.00,0.60
5102.00,0.60
5101.00,0.60
5100.00,0.60
5099.00,0.60
5098.00,0.60
5097.00,0.60
5096.00,0.60
5095.00,0.60
5094.00,0.60
5093.00,0.61
5092.00,0.61
5091.00,0.61
5090.00,0.61
5089.00,0.61
5088.00,0.61
5087.00,0.61
5086.00,0.61
5085.00,0.61
5084.00,0.61
5083.00,0.61
5082.00,0.61
5081.00,0.61
5080.00,0.61
5079.00,0.61
5078.00,0.61
5077.00,0.61
5076.00,0.61
5075.00,0.61
5074.00,0.61
5073.00,0.61
5072.00,0.61
5071.00,0.61
5070.00,0.61
5069.00,0.61
5068.00,0.61
5067.00,0.61
5066.00,0.61
5065.00,0.61
5064.00,0.61
5063.00,0.61
5062.00,0.61
5061.00,0.61
5060.00,0.61
5059.00,0.62
5058.00,0.62
5057.00,0.62
5056.00,0.62
5055.00,0.62
5054.00,0.62
5053.00,0.62
5052.00,0.62
5051.00,0.62
5050.00,0.62
5049.00,0.62
5048.00,0.63
5047.00,0.63
5046.00,0.63
5045.00,0.63
5044.00,0.63
5043.00,0.63
5042.00,0.63
5041.00,0.63
5040.00,0.63
5039.00,0.63
5038.00,0.63
5037.00,0.63
5036.00,0.64
5035.00,0.64
5034.00,0.64
5033.00,0.64
5032.00,0.64
5031.00,0.64
5030.00,0.64
5029.00,0.64
5028.00,0.64
5027.00,0.64
5026.00,0.64
5025.00,0.64
5024.00,0.64
5023.00,0.64
5022.00,0.64
5021.00,0.64
5020.00,0.64
5019.00,0.64
5018.00,0.64
5017.00,0.64
5016.00,0.64
5015.00,0.64
5014.00,0.64
5013.00,0.64
5012.00,0.64
5011.00,0.64
5010.00,0.64
5009.00,0.65
5008.00,0.65
5007.00,0.65
5006.00,0.65
5005.00,0.65
5004.00,0.65
5003.00,0.65
5002.00,0.65
5001.00,0.65
5000.00,0.65
4999.00,0.65
4998.00,0.65
4997.00,0.65
4996.00,0.65
4995.00,0.66
4994.00,0.66
4993.00,0.66
4992.00,0.66
4991.00,0.66
4990.00,0.66
4989.00,0.66
4988.00,0.66
4987.00,0.66
4986.00,0.66
4985.00,0.66
4984.00,0.66
4983.00,0.66
4982.00,0.66
4981.00,0.66
4980.00,0.66
4979.00,0.67
4978.00,0.67
4977.00,0.67
4976.00,0.67
4975.00,0.67
4974.00,0.67
4973.00,0.67
4972.00,0.67
4971.00,0.67
4970.00,0.67
4969.00,0.67
4968.00,0.67
4967.00,0.67
4966.00,0.67
4965.00,0.68
4964.00,0.68
4963.00,0.68
4962.00,0.68
4961.00,0.68
4960.00,0.68
4959.00,0.68
4958.00,0.68
4957.00,0.68
4956.00,0.68
4955.00,0.68
4954.00,0.68
4953.00,0.69
4952.00,0.69
4951.00,0.69
4950.00,0.69
4949.00,0.69
4948.00,0.69
4947.00,0.69
4946.00,0.69
4945.00,0.69
4944.00,0.69
4943.00,0.69
4942.00,0.69
4941.00,0.69
4940.00,0.69
4939.00,0.69
4938.00,0.69
4937.00,0.69
4936.00,0.69
4935.00,0.69
4934.00,0.69
4933.00,0.69
4932.00,0.69
4931.00,0.70
4930.00,0.70
4929.00,0.70
4928.00,0.70
4927.00,0.70
4926.00,0.70
4925.00,0.70
4924.00,0.70
4923.00,0.70
4922.00,0.70
4921.00,0.70
4920.00,0.70
4919.00,0.70
4918.00,0.70
4917.00,0.70
4916.00,0.71
4915.00,0.71
4914.00,0.71
4913.00,0.71
4912.00,0.71
4911.00,0.71
4910.00,0.71
4909.00,0.71
4908.00,0.71
4907.00,0.71
4906.00,0.71
4905.00,0.71
4904.00,0.71
4903.00,0.71
4902.00,0.71
4901.00,0.71
4900.00,0.71
4899.00,0.71
4898.00,0.71
4897.00,0.71
4896.00,0.71
4895.00,0.71
4894.00,0.71
4893.00,0.71
4892.00,0.71
4891.00,0.71
4890.00,0.71
4889.00,0.71
4888.00,0.71
4887.00,0.71
4886.00,0.71
4885.00,0.72
4884.00,0.72
4883.00,0.72
4882.00,0.72
4881.00,0.72
4880.00,0.72
4879.00,0.72
4878.00,0.72
4877.00,0.72
4876.00,0.72
4875.00,0.72
4874.00,0.72
4873.00,0.72
4872.00,0.72
4871.00,0.72
4870.00,0.72
4869.00,0.72
4868.00,0.72
4867.00,0.72
4866.00,0.72
4865.00,0.72
4864.00,0.72
4863.00,0.72
4862.00,0.72
4861.00,0.72
4860.00,0.72
4859.00,0.72
4858.00,0.72
4857.00,0.72
4856.00,0.72
4855.00,0.72
4854.00,0.72
4853.00,0.72
4852.00,0.72
4851.00,0.72
4850.00,0.72
4849.00,0.72
4848.00,0.72
4847.00,0.73
4846.00,0.73
4845.00,0.73
4844.00,0.73
4843.00,0.73
4842.00,0.73
4841.00,0.73
4840.00,0.73
4839.00,0.73
4838.00,0.73
4837.00,0.73
4836.00,0.73
4835.00,0.73
4834.00,0.73
4833.00,0.74
4832.00,0.74
4831.00,0.74
4830.00,0.74
4829.00,0.74
4828.00,0.74
4827.00,0.74
4826.00,0.74
4825.00,0.74
4824.00,0.74
4823.00,0.74
4822.00,0.74
4821.00,0.74
4820.00,0.74
4819.00,0.74
4818.00,0.74
4817.00,0.74
4816.00,0.74
4815.00,0.74
4814.00,0.74
4813.00,0.75
4812.00,0.75
4811.00,0.75
4810.00,0.75
4809.00,0.75
4808.00,0.75
4807.00,0.75
4806.00,0.75
4805.00,0.75
4804.00,0.75
4803.00,0.75
4802.00,0.75
4801.00,0.75
4800.00,0.76
4799.00,0.76
4798.00,0.76
4797.00,0.76
4796.00,0.76
4795.00,0.76
4794.00,0.76
4793.00,0.76
4792.00,0.76
4791.00,0.76
4790.00,0.76
4789.00,0.76
4788.00,0.77
4787.00,0.77
4786.00,0.77
4785.00,0.77
4784.00,0.77
4783.00,0.77
4782.00,0.77
4781.00,0.77
4780.00,0.77
4779.00,0.77
4778.00,0.77
4777.00,0.77
4776.00,0.78
4775.00,0.78
4774.00,0.78
4773.00,0.78
4772.00,0.78
4771.00,0.78
4770.00,0.78
4769.00,0.78
4768.00,0.78
4767.00,0.78
4766.00,0.78
4765.00,0.78
4764.00,0.78
4763.00,0.79
4762.00,0.79
4761.00,0.79
4760.00,0.79
4759.00,0.79
4758.00,0.79
4757.00,0.79
4756.00,0.79
4755.00,0.80
4754.00,0.80
4753.00,0.80
4752.00,0.80
4751.00,0.80
4750.00,0.80
4749.00,0.80
4748.00,0.80
4747.00,0.80
4746.00,0.80
4745.00,0.80
4744.00,0.81
4743.00,0.81
4742.00,0.81
4741.00,0.81
4740.00,0.81
4739.00,0.81
4738.00,0.81
4737.00,0.81
4736.00,0.81
4735.00,0.81
4734.00,0.81
4733.00,0.81
4732.00,0.81
4731.00,0.81
4730.00,0.81
4729.00,0.82
4728.00,0.82
4727.00,0.82
4726.00,0.82
4725.00,0.82
4724.00,0.82
4723.00,0.82
4722.00,0.83
4721.00,0.83
4720.00,0.83
4719.00,0.83
4718.00,0.83
4717.00,0.83
4716.00,0.83
4715.00,0.83
4714.00,0.84
4713.00,0.84
4712.00,0.84
4711.00,0.84
4710.00,0.84
4709.00,0.84
4708.00,0.84
4707.00,0.84
4706.00,0.84
4705.00,0.84
4704.00,0.84
4703.00,0.85
4702.00,0.85
4701.00,0.85
4700.00,0.85
4699.00,0.85
4698.00,0.85
4697.00,0.85
4696.00,0.85
4695.00,0.86
4694.00,0.86
4693.00,0.86
4692.00,0.86
4691.00,0.86
4690.00,0.86
4689.00,0.86
4688.00,0.87
4687.00,0.87
4686.00,0.87
4685.00,0.87
4684.00,0.87
4683.00,0.87
4682.00,0.87
4681.00,0.87
4680.00,0.88
4679.00,0.88
4678.00,0.88
4677.00,0.88
4676.00,0.88
4675.00,0.88
4674.00,0.88
4673.00,0.88
4672.00,0.88
4671.00,0.88
4670.00,0.88
4669.00,0.88
4668.00,0.88
4667.00,0.89
4666.00,0.89
4665.00,0.89
4664.00,0.89
4663.00,0.89
4662.00,0.89
4661.00,0.89
4660.00,0.89
4659.00,0.89
4658.00,0.90
4657.00,0.90
4656.00,0.90
4655.00,0.90
4654.00,0.90
4653.00,0.90
4652.00,0.90
4651.00,0.90
4650.00,0.90
4649.00,0.90
4648.00,0.90
4647.00,0.90
4646.00,0.90
4645.00,0.91
4644.00,0.91
4643.00,0.91
4642.00,0.91
4641.00,0.91
4640.00,0.91
4639.00,0.91
4638.00,0.91
4637.00,0.91
4636.00,0.92
4635.00,0.92
4634.00,0.92
4633.00,0.92
4632.00,0.92
4631.00,0.92
4630.00,0.92
4629.00,0.92
4628.00,0.92
4627.00,0.92
4626.00,0.92
4625.00,0.92
4624.00,0.92
4623.00,0.92
4622.00,0.92
4621.00,0.92
4620.00,0.92
4619.00,0.92
4618.00,0.93
4617.00,0.93
4616.00,0.93
4615.00,0.93
4614.00,0.93
4613.00,0.93
4612.00,0.93
4611.00,0.93
4610.00,0.93
4609.00,0.93
4608.00,0.93
4607.00,0.93
4606.00,0.94
4605.00,0.94
4604.00,0.94
4603.00,0.94
4602.00,0.94
4601.00,0.94
4600.00,0.94
4599.00,0.94
4598.00,0.94
4597.00,0.94
4596.00,0.94
4595.00,0.95
4594.00,0.95
4593.00,0.95
4592.00,0.95
4591.00,0.95
4590.00,0.95
4589.00,0.95
4588.00,0.95
4587.00,0.95
4586.00,0.96
4585.00,0.96
4584.00,0.96
4583.00,0.96
4582.00,0.96
4581.00,0.96
4580.00,0.96
4579.00,0.96
4578.00,0.96
4577.00,0.97
4576.00,0.97
4575.00,0.97
4574.00,0.97
4573.00,0.97
4572.00,0.97
4571.00,0.97
4570.00,0.97
4569.00,0.97
4568.00,0.97
4567.00,0.97
4566.00,0.97
4565.00,0.97
4564.00,0.97
4563.00,0.97
4562.00,0.97
4561.00,0.97
4560.00,0.97
4559.00,0.97
4558.00,0.97
4557.00,0.97
4556.00,0.97
4555.00,0.97
4554.00,0.97
4553.00,0.97
4552.00,0.97
4551.00,0.97
4550.00,0.97
4549.00,0.97
4548.00,0.97
4547.00,0.97
4546.00,0.97
4545.00,0.97
4544.00,0.97
4543.00,0.97
4542.00,0.97
4541.00,0.97
4540.00,0.97
4539.00,0.97
4538.00,0.97
4537.00,0.97
4536.00,0.97
4535.00,0.97
4534.00,0.97
4533.00,0.97
4532.00,0.97
4531.00,0.97
4530.00,0.97
4529.00,0.97
4528.00,0.97
4527.00,0.97
4526.00,0.98
4525.00,0.98
4524.00,0.98
4523.00,0.98
4522.00,0.98
4521.00,0.98
4520.00,0.98
4519.00,0.98
4518.00,0.98
4517.00,0.98
4516.00,0.98
4515.00,0.98
4514.00,0.99
4513.00,0.99
4512.00,0.99
4511.00,0.99
4510.00,0.99
4509.00,0.99
4508.00,0.99
4507.00,0.99
4506.00,0.99
4505.00,0.99
4504.00,0.99
4503.00,0.99
4502.00,0.99
4501.00,0.99
4500.00,0.99
4499.00,0.99
4498.00,0.98
4497.00,0.98
4496.00,0.98
4495.00,0.98
4494.00,0.98
4493.00,0.98
4492.00,0.98
4491.00,0.98
4490.00,0.98
4489.00,0.97
4488.00,0.97
4487.00,0.97
4486.00,0.97
4485.00,0.97
4484.00,0.97
4483.00,0.97
4482.00,0.97
4481.00,0.97
4480.00,0.96
4479.00,0.96
4478.00,0.96
4477.00,0.96
4476.00,0.96
4475.00,0.96
4474.00,0.96
4473.00,0.95
4472.00,0.95
4471.00,0.95
4470.00,0.95
4469.00,0.95
4468.00,0.95
4467.00,0.94
4466.00,0.94
4465.00,0.94
4464.00,0.94
4463.00,0.94
4462.00,0.94
4461.00,0.93
4460.00,0.93
4459.00,0.93
4458.00,0.93
4457.00,0.93
4456.00,0.93
4455.00,0.92
4454.00,0.92
4453.00,0.92
4452.00,0.92
4451.00,0.91
4450.00,0.91
4449.00,0.91
4448.00,0.91
4447.00,0.91
4446.00,0.90
4445.00,0.90
4444.00,0.90
4443.00,0.90
4442.00,0.90
4441.00,0.90
4440.00,0.89
4439.00,0.89
4438.00,0.89
4437.00,0.89
4436.00,0.89
4435.00,0.89
4434.00,0.89
4433.00,0.89
4432.00,0.89
4431.00,0.89
4430.00,0.89
4429.00,0.89
4428.00,0.89
4427.00,0.89
4426.00,0.89
4425.00,0.89
4424.00,0.89
4423.00,0.89
4422.00,0.89
4421.00,0.89
4420.00,0.89
4419.00,0.89
4418.00,0.89
4417.00,0.89
4416.00,0.89
4415.00,0.89
4414.00,0.89
4413.00,0.89
4412.00,0.89
4411.00,0.89
4410.00,0.89
4409.00,0.89
4408.00,0.89
4407.00,0.90
4406.00,0.90
4405.00,0.90
4404.00,0.90
4403.00,0.90
4402.00,0.90
4401.00,0.90
4400.00,0.90
4399.00,0.90
4398.00,0.90
4397.00,0.90
4396.00,0.90
4395.00,0.90
4394.00,0.90
4393.00,0.90
4392.00,0.90
4391.00,0.90
4390.00,0.90
4389.00,0.90
4388.00,0.90
4387.00,0.90
4386.00,0.90
4385.00,0.90
4384.00,0.90
4383.00,0.90
4382.00,0.90
4381.00,0.90
4380.00,0.90
4379.00,0.90
4378.00,0.90
4377.00,0.90
4376.00,0.90
4375.00,0.90
4374.00,0.90
4373.00,0.91
4372.00,0.91
4371.00,0.91
4370.00,0.91
4369.00,0.91
4368.00,0.91
4367.00,0.91
4366.00,0.91
4365.00,0.91
4364.00,0.91
4363.00,0.91
4362.00,0.91
4361.00,0.92
4360.00,0.92
4359.00,0.92
4358.00,0.92
4357.00,0.92
4356.00,0.92
4355.00,0.92
4354.00,0.92
4353.00,0.92
4352.00,0.92
4351.00,0.92
4350.00,0.92
4349.00,0.92
4348.00,0.92
4347.00,0.92
4346.00,0.92
4345.00,0.92
4344.00,0.92
4343.00,0.92
4342.00,0.92
4341.00,0.92
4340.00,0.92
4339.00,0.92
4338.00,0.92
4337.00,0.92
4336.00,0.92
4335.00,0.92
4334.00,0.92
4333.00,0.92
4332.00,0.92
4331.00,0.92
4330.00,0.92
4329.00,0.93
4328.00,0.93
4327.00,0.93
4326.00,0.93
4325.00,0.93
4324.00,0.93
4323.00,0.93
4322.00,0.93
4321.00,0.93
4320.00,0.94
4319.00,0.94
4318.00,0.94
4317.00,0.94
4316.00,0.94
4315.00,0.94
4314.00,0.94
4313.00,0.94
4312.00,0.95
4311.00,0.95
4310.00,0.95
4309.00,0.95
4308.00,0.95
4307.00,0.95
4306.00,0.95
4305.00,0.95
4304.00,0.95
4303.00,0.95
4302.00,0.96
4301.00,0.96
4300.00,0.96
4299.00,0.96
4298.00,0.96
4297.00,0.96
4296.00,0.96
4295.00,0.96
4294.00,0.96
4293.00,0.96
4292.00,0.96
4291.00,0.96
4290.00,0.96
4289.00,0.96
4288.00,0.96
4287.00,0.96
4286.00,0.97
4285.00,0.97
4284.00,0.97
4283.00,0.97
4282.00,0.97
4281.00,0.97
4280.00,0.97
4279.00,0.97
4278.00,0.98
4277.00,0.98
4276.00,0.98
4275.00,0.98
4274.00,0.98
4273.00,0.98
4272.00,0.98
4271.00,0.98
4270.00,0.98
4269.00,0.99
4268.00,0.99
4267.00,0.99
4266.00,0.99
4265.00,0.99
4264.00,0.99
4263.00,0.99
4262.00,0.99
4261.00,0.99
4260.00,0.99
4259.00,0.99
4258.00,0.99
4257.00,0.99
4256.00,0.99
4255.00,0.99
4254.00,0.99
4253.00,0.99
4252.00,0.99
4251.00,0.99
4250.00,0.99
4249.00,0.99
4248.00,0.99
4247.00,0.99
4246.00,0.99
4245.00,0.99
4244.00,0.99
4243.00,0.99
4242.00,0.99
4241.00,0.99
4240.00,0.99
4239.00,0.99
4238.00,1.00
4237.00,1.00
4236.00,1.00
4235.00,1.00
4234.00,1.00
4233.00,1.00
4232.00,1.00
4231.00,1.00
4230.00,1.00
4229.00,1.00
4228.00,1.01
4227.00,1.01
4226.00,1.01
4225.00,1.01
4224.00,1.01
4223.00,1.01
4222.00,1.01
4221.00,1.01
4220.00,1.02
4219.00,1.02
4218.00,1.02
4217.00,1.02
4216.00,1.02
4215.00,1.02
4214.00,1.02
4213.00,1.02
4212.00,1.02
4211.00,1.02
4210.00,1.02
4209.00,1.02
4208.00,1.02
4207.00,1.02
4206.00,1.02
4205.00,1.02
4204.00,1.02
4203.00,1.02
4202.00,1.02
4201.00,1.02
4200.00,1.02
4199.00,1.02
4198.00,1.02
4197.00,1.02
4196.00,1.02
4195.00,1.02
4194.00,1.02
4193.00,1.02
4192.00,1.02
4191.00,1.02
4190.00,1.02
4189.00,1.02
4188.00,1.02
4187.00,1.02
4186.00,1.03
4185.00,1.03
4184.00,1.03
4183.00,1.03
4182.00,1.03
4181.00,1.03
4180.00,1.03
4179.00,1.03
4178.00,1.03
4177.00,1.03
4176.00,1.04
4175.00,1.04
4174.00,1.04
4173.00,1.04
4172.00,1.04
4171.00,1.04
4170.00,1.04
4169.00,1.04
4168.00,1.04
4167.00,1.04
4166.00,1.04
4165.00,1.04
4164.00,1.04
4163.00,1.04
4162.00,1.04
4161.00,1.04
4160.00,1.04
4159.00,1.04
4158.00,1.04
4157.00,1.04
4156.00,1.04
4155.00,1.04
4154.00,1.04
4153.00,1.04
4152.00,1.04
4151.00,1.04
4150.00,1.04
4149.00,1.04
4148.00,1.04
4147.00,1.04
4146.00,1.04
4145.00,1.04
4144.00,1.04
4143.00,1.04
4142.00,1.04
4141.00,1.04
4140.00,1.04
4139.00,1.05
4138.00,1.05
4137.00,1.05
4136.00,1.05
4135.00,1.05
4134.00,1.05
4133.00,1.05
4132.00,1.06
4131.00,1.06
4130.00,1.06
4129.00,1.06
4128.00,1.06
4127.00,1.06
4126.00,1.06
4125.00,1.06
4124.00,1.06
4123.00,1.06
4122.00,1.06
4121.00,1.06
4120.00,1.06
4119.00,1.06
4118.00,1.06
4117.00,1.06
4116.00,1.06
4115.00,1.06
4114.00,1.06
4113.00,1.06
4112.00,1.06
4111.00,1.06
4110.00,1.06
4109.00,1.06
4108.00,1.06
4107.00,1.06
4106.00,1.06
4105.00,1.06
4104.00,1.06
4103.00,1.06
4102.00,1.06
4101.00,1.06
4100.00,1.06
4099.00,1.06
4098.00,1.06
4097.00,1.06
4096.00,1.06
4095.00,1.06
4094.00,1.06
4093.00,1.06
4092.00,1.06
4091.00,1.06
4090.00,1.06
4089.00,1.06
4088.00,1.06
4087.00,1.06
4086.00,1.07
4085.00,1.07
4084.00,1.07
4083.00,1.07
4082.00,1.07
4081.00,1.07
4080.00,1.07
4079.00,1.07
4078.00,1.07
4077.00,1.07
4076.00,1.07
4075.00,1.08
4074.00,1.08
4073.00,1.08
4072.00,1.08
4071.00,1.08
4070.00,1.08
4069.00,1.08
4068.00,1.08
4067.00,1.08
4066.00,1.08
4065.00,1.08
4064.00,1.08
4063.00,1.08
4062.00,1.08
4061.00,1.08
4060.00,1.08
4059.00,1.08
4058.00,1.08
4057.00,1.08
4056.00,1.08
4055.00,1.08
4054.00,1.09
4053.00,1.09
4052.00,1.09
4051.00,1.09
4050.00,1.09
4049.00,1.09
4048.00,1.10
4047.00,1.10
4046.00,1.10
4045.00,1.10
4044.00,1.10
4043.00,1.10
4042.00,1.10
4041.00,1.10
4040.00,1.10
4039.00,1.10
4038.00,1.10
4037.00,1.10
4036.00,1.10
4035.00,1.10
4034.00,1.10
4033.00,1.10
4032.00,1.10
4031.00,1.10
4030.00,1.10
4029.00,1.10
4028.00,1.10
4027.00,1.10
4026.00,1.10
4025.00,1.10
4024.00,1.10
4023.00,1.10
4022.00,1.10
4021.00,1.10
4020.00,1.10
4019.00,1.10
4018.00,1.10
4017.00,1.10
4016.00,1.10
4015.00,1.10
4014.00,1.11
4013.00,1.11
4012.00,1.11
4011.00,1.11
4010.00,1.11
4009.00,1.11
4008.00,1.11
4007.00,1.11
4006.00,1.11
4005.00,1.11
4004.00,1.11
4003.00,1.11
4002.00,1.11
4001.00,1.11
4000.00,1.11
