创建为新数据集,样品 309 用户 Administrator 日期 星期日, 七月 22 2018
cm-1,%T
10000.00,1.12
9999.00,1.12
9998.00,1.11
9997.00,1.11
9996.00,1.11
9995.00,1.11
9994.00,1.11
9993.00,1.10
9992.00,1.10
9991.00,1.10
9990.00,1.10
9989.00,1.10
9988.00,1.10
9987.00,1.10
9986.00,1.10
9985.00,1.11
9984.00,1.11
9983.00,1.11
9982.00,1.11
9981.00,1.11
9980.00,1.11
9979.00,1.11
9978.00,1.11
9977.00,1.11
9976.00,1.11
9975.00,1.11
9974.00,1.11
9973.00,1.11
9972.00,1.11
9971.00,1.11
9970.00,1.11
9969.00,1.11
9968.00,1.11
9967.00,1.11
9966.00,1.11
9965.00,1.11
9964.00,1.11
9963.00,1.11
9962.00,1.11
9961.00,1.11
9960.00,1.10
9959.00,1.10
9958.00,1.10
9957.00,1.10
9956.00,1.10
9955.00,1.10
9954.00,1.10
9953.00,1.10
9952.00,1.11
9951.00,1.11
9950.00,1.11
9949.00,1.11
9948.00,1.11
9947.00,1.11
9946.00,1.11
9945.00,1.11
9944.00,1.11
9943.00,1.11
9942.00,1.11
9941.00,1.10
9940.00,1.10
9939.00,1.10
9938.00,1.10
9937.00,1.10
9936.00,1.10
9935.00,1.10
9934.00,1.09
9933.00,1.09
9932.00,1.09
9931.00,1.09
9930.00,1.10
9929.00,1.10
9928.00,1.10
9927.00,1.10
9926.00,1.10
9925.00,1.10
9924.00,1.10
9923.00,1.11
9922.00,1.11
9921.00,1.11
9920.00,1.11
9919.00,1.11
9918.00,1.11
9917.00,1.11
9916.00,1.11
9915.00,1.11
9914.00,1.11
9913.00,1.11
9912.00,1.11
9911.00,1.11
9910.00,1.11
9909.00,1.11
9908.00,1.10
9907.00,1.10
9906.00,1.10
9905.00,1.10
9904.00,1.10
9903.00,1.10
9902.00,1.10
9901.00,1.10
9900.00,1.10
9899.00,1.10
9898.00,1.10
9897.00,1.10
9896.00,1.10
9895.00,1.10
9894.00,1.10
9893.00,1.11
9892.00,1.11
9891.00,1.11
9890.00,1.11
9889.00,1.11
9888.00,1.11
9887.00,1.11
9886.00,1.11
9885.00,1.11
9884.00,1.11
9883.00,1.11
9882.00,1.11
9881.00,1.11
9880.00,1.11
9879.00,1.11
9878.00,1.11
9877.00,1.10
9876.00,1.10
9875.00,1.10
9874.00,1.10
9873.00,1.10
9872.00,1.10
9871.00,1.10
9870.00,1.10
9869.00,1.10
9868.00,1.10
9867.00,1.09
9866.00,1.09
9865.00,1.09
9864.00,1.09
9863.00,1.09
9862.00,1.09
9861.00,1.09
9860.00,1.09
9859.00,1.08
9858.00,1.08
9857.00,1.08
9856.00,1.08
9855.00,1.08
9854.00,1.07
9853.00,1.07
9852.00,1.07
9851.00,1.07
9850.00,1.07
9849.00,1.07
9848.00,1.07
9847.00,1.07
9846.00,1.08
9845.00,1.08
9844.00,1.08
9843.00,1.08
9842.00,1.08
9841.00,1.08
9840.00,1.08
9839.00,1.09
9838.00,1.09
9837.00,1.09
9836.00,1.09
9835.00,1.09
9834.00,1.09
9833.00,1.09
9832.00,1.09
9831.00,1.09
9830.00,1.09
9829.00,1.09
9828.00,1.09
9827.00,1.09
9826.00,1.09
9825.00,1.09
9824.00,1.09
9823.00,1.09
9822.00,1.09
9821.00,1.09
9820.00,1.09
9819.00,1.09
9818.00,1.09
9817.00,1.09
9816.00,1.09
9815.00,1.10
9814.00,1.10
9813.00,1.10
9812.00,1.10
9811.00,1.10
9810.00,1.10
9809.00,1.10
9808.00,1.10
9807.00,1.10
9806.00,1.11
9805.00,1.11
9804.00,1.11
9803.00,1.11
9802.00,1.11
9801.00,1.11
9800.00,1.11
9799.00,1.11
9798.00,1.11
9797.00,1.11
9796.00,1.11
9795.00,1.11
9794.00,1.11
9793.00,1.11
9792.00,1.11
9791.00,1.11
9790.00,1.11
9789.00,1.11
9788.00,1.10
9787.00,1.10
9786.00,1.10
9785.00,1.10
9784.00,1.10
9783.00,1.10
9782.00,1.09
9781.00,1.09
9780.00,1.09
9779.00,1.09
9778.00,1.09
9777.00,1.09
9776.00,1.08
9775.00,1.08
9774.00,1.08
9773.00,1.08
9772.00,1.08
9771.00,1.08
9770.00,1.08
9769.00,1.08
9768.00,1.07
9767.00,1.07
9766.00,1.07
9765.00,1.07
9764.00,1.07
9763.00,1.07
9762.00,1.07
9761.00,1.08
9760.00,1.08
9759.00,1.08
9758.00,1.08
9757.00,1.08
9756.00,1.08
9755.00,1.09
9754.00,1.09
9753.00,1.09
9752.00,1.09
9751.00,1.09
9750.00,1.10
9749.00,1.10
9748.00,1.10
9747.00,1.10
9746.00,1.10
9745.00,1.10
9744.00,1.10
9743.00,1.10
9742.00,1.10
9741.00,1.09
9740.00,1.09
9739.00,1.09
9738.00,1.09
9737.00,1.08
9736.00,1.08
9735.00,1.08
9734.00,1.08
9733.00,1.07
9732.00,1.07
9731.00,1.07
9730.00,1.07
9729.00,1.07
9728.00,1.07
9727.00,1.07
9726.00,1.07
9725.00,1.07
9724.00,1.08
9723.00,1.08
9722.00,1.08
9721.00,1.08
9720.00,1.09
9719.00,1.09
9718.00,1.09
9717.00,1.09
9716.00,1.09
9715.00,1.09
9714.00,1.09
9713.00,1.09
9712.00,1.09
9711.00,1.09
9710.00,1.09
9709.00,1.09
9708.00,1.09
9707.00,1.09
9706.00,1.09
9705.00,1.09
9704.00,1.08
9703.00,1.08
9702.00,1.08
9701.00,1.08
9700.00,1.08
9699.00,1.08
9698.00,1.08
9697.00,1.08
9696.00,1.08
9695.00,1.08
9694.00,1.09
9693.00,1.09
9692.00,1.09
9691.00,1.09
9690.00,1.09
9689.00,1.10
9688.00,1.10
9687.00,1.10
9686.00,1.10
9685.00,1.10
9684.00,1.11
9683.00,1.11
9682.00,1.11
9681.00,1.11
9680.00,1.11
9679.00,1.11
9678.00,1.11
9677.00,1.11
9676.00,1.11
9675.00,1.11
9674.00,1.11
9673.00,1.11
9672.00,1.11
9671.00,1.11
9670.00,1.10
9669.00,1.10
9668.00,1.10
9667.00,1.10
9666.00,1.10
9665.00,1.10
9664.00,1.10
9663.00,1.10
9662.00,1.10
9661.00,1.10
9660.00,1.10
9659.00,1.10
9658.00,1.10
9657.00,1.10
9656.00,1.10
9655.00,1.10
9654.00,1.10
9653.00,1.10
9652.00,1.10
9651.00,1.10
9650.00,1.10
9649.00,1.10
9648.00,1.10
9647.00,1.10
9646.00,1.10
9645.00,1.10
9644.00,1.10
9643.00,1.10
9642.00,1.10
9641.00,1.10
9640.00,1.09
9639.00,1.09
9638.00,1.09
9637.00,1.09
9636.00,1.09
9635.00,1.09
9634.00,1.09
9633.00,1.09
9632.00,1.09
9631.00,1.09
9630.00,1.09
9629.00,1.09
9628.00,1.09
9627.00,1.09
9626.00,1.09
9625.00,1.09
9624.00,1.09
9623.00,1.09
9622.00,1.09
9621.00,1.09
9620.00,1.09
9619.00,1.08
9618.00,1.08
9617.00,1.08
9616.00,1.08
9615.00,1.08
9614.00,1.08
9613.00,1.08
9612.00,1.08
9611.00,1.08
9610.00,1.08
9609.00,1.08
9608.00,1.09
9607.00,1.09
9606.00,1.09
9605.00,1.09
9604.00,1.09
9603.00,1.08
9602.00,1.08
9601.00,1.08
9600.00,1.08
9599.00,1.08
9598.00,1.08
9597.00,1.08
9596.00,1.08
9595.00,1.07
9594.00,1.07
9593.00,1.07
9592.00,1.07
9591.00,1.07
9590.00,1.06
9589.00,1.06
9588.00,1.06
9587.00,1.06
9586.00,1.06
9585.00,1.06
9584.00,1.06
9583.00,1.06
9582.00,1.07
9581.00,1.07
9580.00,1.07
9579.00,1.07
9578.00,1.07
9577.00,1.08
9576.00,1.08
9575.00,1.08
9574.00,1.08
9573.00,1.08
9572.00,1.09
9571.00,1.09
9570.00,1.09
9569.00,1.09
9568.00,1.09
9567.00,1.10
9566.00,1.10
9565.00,1.10
9564.00,1.10
9563.00,1.10
9562.00,1.10
9561.00,1.10
9560.00,1.11
9559.00,1.11
9558.00,1.11
9557.00,1.11
9556.00,1.11
9555.00,1.11
9554.00,1.11
9553.00,1.11
9552.00,1.11
9551.00,1.11
9550.00,1.11
9549.00,1.11
9548.00,1.11
9547.00,1.11
9546.00,1.11
9545.00,1.11
9544.00,1.11
9543.00,1.11
9542.00,1.11
9541.00,1.10
9540.00,1.10
9539.00,1.10
9538.00,1.10
9537.00,1.09
9536.00,1.09
9535.00,1.09
9534.00,1.08
9533.00,1.08
9532.00,1.08
9531.00,1.08
9530.00,1.07
9529.00,1.07
9528.00,1.07
9527.00,1.07
9526.00,1.07
9525.00,1.06
9524.00,1.06
9523.00,1.06
9522.00,1.06
9521.00,1.06
9520.00,1.06
9519.00,1.06
9518.00,1.06
9517.00,1.06
9516.00,1.06
9515.00,1.06
9514.00,1.06
9513.00,1.06
9512.00,1.07
9511.00,1.07
9510.00,1.07
9509.00,1.07
9508.00,1.07
9507.00,1.07
9506.00,1.07
9505.00,1.07
9504.00,1.07
9503.00,1.07
9502.00,1.07
9501.00,1.07
9500.00,1.07
9499.00,1.07
9498.00,1.07
9497.00,1.07
9496.00,1.07
9495.00,1.07
9494.00,1.07
9493.00,1.07
9492.00,1.07
9491.00,1.07
9490.00,1.07
9489.00,1.08
9488.00,1.08
9487.00,1.08
9486.00,1.08
9485.00,1.08
9484.00,1.08
9483.00,1.08
9482.00,1.08
9481.00,1.08
9480.00,1.08
9479.00,1.08
9478.00,1.08
9477.00,1.08
9476.00,1.08
9475.00,1.08
9474.00,1.08
9473.00,1.08
9472.00,1.08
9471.00,1.07
9470.00,1.07
9469.00,1.07
9468.00,1.07
9467.00,1.07
9466.00,1.07
9465.00,1.07
9464.00,1.07
9463.00,1.07
9462.00,1.07
9461.00,1.07
9460.00,1.07
9459.00,1.07
9458.00,1.08
9457.00,1.08
9456.00,1.08
9455.00,1.08
9454.00,1.08
9453.00,1.08
9452.00,1.09
9451.00,1.09
9450.00,1.09
9449.00,1.09
9448.00,1.09
9447.00,1.09
9446.00,1.09
9445.00,1.09
9444.00,1.09
9443.00,1.09
9442.00,1.09
9441.00,1.08
9440.00,1.08
9439.00,1.08
9438.00,1.08
9437.00,1.08
9436.00,1.08
9435.00,1.08
9434.00,1.08
9433.00,1.08
9432.00,1.08
9431.00,1.08
9430.00,1.08
9429.00,1.08
9428.00,1.08
9427.00,1.08
9426.00,1.08
9425.00,1.08
9424.00,1.08
9423.00,1.08
9422.00,1.08
9421.00,1.08
9420.00,1.08
9419.00,1.08
9418.00,1.08
9417.00,1.08
9416.00,1.08
9415.00,1.08
9414.00,1.08
9413.00,1.09
9412.00,1.09
9411.00,1.09
9410.00,1.09
9409.00,1.09
9408.00,1.09
9407.00,1.09
9406.00,1.09
9405.00,1.09
9404.00,1.10
9403.00,1.10
9402.00,1.10
9401.00,1.10
9400.00,1.10
9399.00,1.10
9398.00,1.11
9397.00,1.11
9396.00,1.11
9395.00,1.11
9394.00,1.11
9393.00,1.11
9392.00,1.11
9391.00,1.11
9390.00,1.11
9389.00,1.11
9388.00,1.11
9387.00,1.11
9386.00,1.11
9385.00,1.10
9384.00,1.10
9383.00,1.10
9382.00,1.10
9381.00,1.09
9380.00,1.09
9379.00,1.09
9378.00,1.09
9377.00,1.09
9376.00,1.08
9375.00,1.08
9374.00,1.08
9373.00,1.08
9372.00,1.08
9371.00,1.08
9370.00,1.08
9369.00,1.08
9368.00,1.07
9367.00,1.07
9366.00,1.07
9365.00,1.07
9364.00,1.07
9363.00,1.07
9362.00,1.07
9361.00,1.07
9360.00,1.07
9359.00,1.07
9358.00,1.07
9357.00,1.07
9356.00,1.07
9355.00,1.07
9354.00,1.07
9353.00,1.07
9352.00,1.07
9351.00,1.07
9350.00,1.07
9349.00,1.07
9348.00,1.07
9347.00,1.07
9346.00,1.07
9345.00,1.07
9344.00,1.07
9343.00,1.07
9342.00,1.07
9341.00,1.08
9340.00,1.08
9339.00,1.08
9338.00,1.08
9337.00,1.08
9336.00,1.08
9335.00,1.08
9334.00,1.08
9333.00,1.08
9332.00,1.08
9331.00,1.09
9330.00,1.09
9329.00,1.09
9328.00,1.09
9327.00,1.09
9326.00,1.09
9325.00,1.09
9324.00,1.09
9323.00,1.09
9322.00,1.09
9321.00,1.09
9320.00,1.09
9319.00,1.09
9318.00,1.09
9317.00,1.09
9316.00,1.09
9315.00,1.09
9314.00,1.09
9313.00,1.09
9312.00,1.09
9311.00,1.09
9310.00,1.09
9309.00,1.09
9308.00,1.08
9307.00,1.08
9306.00,1.08
9305.00,1.08
9304.00,1.08
9303.00,1.09
9302.00,1.09
9301.00,1.09
9300.00,1.09
9299.00,1.09
9298.00,1.09
9297.00,1.09
9296.00,1.09
9295.00,1.09
9294.00,1.10
9293.00,1.10
9292.00,1.10
9291.00,1.10
9290.00,1.10
9289.00,1.10
9288.00,1.10
9287.00,1.10
9286.00,1.10
9285.00,1.10
9284.00,1.11
9283.00,1.11
9282.00,1.11
9281.00,1.11
9280.00,1.11
9279.00,1.11
9278.00,1.10
9277.00,1.10
9276.00,1.10
9275.00,1.10
9274.00,1.10
9273.00,1.10
9272.00,1.10
9271.00,1.09
9270.00,1.09
9269.00,1.09
9268.00,1.09
9267.00,1.09
9266.00,1.08
9265.00,1.08
9264.00,1.08
9263.00,1.08
9262.00,1.08
9261.00,1.08
9260.00,1.08
9259.00,1.08
9258.00,1.08
9257.00,1.08
9256.00,1.08
9255.00,1.08
9254.00,1.09
9253.00,1.09
9252.00,1.09
9251.00,1.09
9250.00,1.09
9249.00,1.09
9248.00,1.09
9247.00,1.09
9246.00,1.09
9245.00,1.09
9244.00,1.09
9243.00,1.09
9242.00,1.10
9241.00,1.10
9240.00,1.10
9239.00,1.10
9238.00,1.10
9237.00,1.10
9236.00,1.10
9235.00,1.10
9234.00,1.11
9233.00,1.11
9232.00,1.11
9231.00,1.11
9230.00,1.11
9229.00,1.11
9228.00,1.11
9227.00,1.11
9226.00,1.11
9225.00,1.11
9224.00,1.11
9223.00,1.11
9222.00,1.11
9221.00,1.11
9220.00,1.11
9219.00,1.11
9218.00,1.11
9217.00,1.11
9216.00,1.11
9215.00,1.11
9214.00,1.11
9213.00,1.11
9212.00,1.10
9211.00,1.10
9210.00,1.10
9209.00,1.10
9208.00,1.10
9207.00,1.10
9206.00,1.10
9205.00,1.10
9204.00,1.09
9203.00,1.09
9202.00,1.09
9201.00,1.09
9200.00,1.09
9199.00,1.09
9198.00,1.09
9197.00,1.09
9196.00,1.09
9195.00,1.09
9194.00,1.09
9193.00,1.09
9192.00,1.09
9191.00,1.09
9190.00,1.09
9189.00,1.08
9188.00,1.08
9187.00,1.08
9186.00,1.08
9185.00,1.08
9184.00,1.08
9183.00,1.08
9182.00,1.08
9181.00,1.08
9180.00,1.08
9179.00,1.08
9178.00,1.08
9177.00,1.08
9176.00,1.08
9175.00,1.08
9174.00,1.08
9173.00,1.08
9172.00,1.08
9171.00,1.08
9170.00,1.08
9169.00,1.08
9168.00,1.08
9167.00,1.08
9166.00,1.08
9165.00,1.08
9164.00,1.08
9163.00,1.09
9162.00,1.09
9161.00,1.09
9160.00,1.09
9159.00,1.09
9158.00,1.09
9157.00,1.10
9156.00,1.10
9155.00,1.10
9154.00,1.10
9153.00,1.10
9152.00,1.10
9151.00,1.10
9150.00,1.10
9149.00,1.10
9148.00,1.10
9147.00,1.10
9146.00,1.10
9145.00,1.09
9144.00,1.09
9143.00,1.09
9142.00,1.09
9141.00,1.09
9140.00,1.09
9139.00,1.09
9138.00,1.09
9137.00,1.09
9136.00,1.09
9135.00,1.08
9134.00,1.08
9133.00,1.08
9132.00,1.08
9131.00,1.08
9130.00,1.08
9129.00,1.08
9128.00,1.08
9127.00,1.08
9126.00,1.08
9125.00,1.08
9124.00,1.08
9123.00,1.08
9122.00,1.08
9121.00,1.08
9120.00,1.08
9119.00,1.09
9118.00,1.09
9117.00,1.09
9116.00,1.09
9115.00,1.09
9114.00,1.09
9113.00,1.09
9112.00,1.09
9111.00,1.09
9110.00,1.09
9109.00,1.09
9108.00,1.09
9107.00,1.09
9106.00,1.09
9105.00,1.09
9104.00,1.09
9103.00,1.09
9102.00,1.09
9101.00,1.09
9100.00,1.09
9099.00,1.09
9098.00,1.09
9097.00,1.09
9096.00,1.09
9095.00,1.09
9094.00,1.09
9093.00,1.09
9092.00,1.09
9091.00,1.09
9090.00,1.09
9089.00,1.09
9088.00,1.09
9087.00,1.09
9086.00,1.09
9085.00,1.09
9084.00,1.09
9083.00,1.09
9082.00,1.09
9081.00,1.09
9080.00,1.09
9079.00,1.09
9078.00,1.09
9077.00,1.09
9076.00,1.09
9075.00,1.09
9074.00,1.09
9073.00,1.09
9072.00,1.09
9071.00,1.09
9070.00,1.09
9069.00,1.09
9068.00,1.09
9067.00,1.09
9066.00,1.09
9065.00,1.09
9064.00,1.09
9063.00,1.09
9062.00,1.09
9061.00,1.09
9060.00,1.10
9059.00,1.10
9058.00,1.10
9057.00,1.10
9056.00,1.10
9055.00,1.10
9054.00,1.10
9053.00,1.10
9052.00,1.10
9051.00,1.10
9050.00,1.09
9049.00,1.09
9048.00,1.09
9047.00,1.09
9046.00,1.09
9045.00,1.09
9044.00,1.09
9043.00,1.09
9042.00,1.08
9041.00,1.08
9040.00,1.08
9039.00,1.08
9038.00,1.08
9037.00,1.08
9036.00,1.08
9035.00,1.07
9034.00,1.07
9033.00,1.07
9032.00,1.07
9031.00,1.07
9030.00,1.07
9029.00,1.07
9028.00,1.07
9027.00,1.07
9026.00,1.07
9025.00,1.07
9024.00,1.07
9023.00,1.07
9022.00,1.07
9021.00,1.07
9020.00,1.07
9019.00,1.07
9018.00,1.07
9017.00,1.07
9016.00,1.08
9015.00,1.08
9014.00,1.08
9013.00,1.08
9012.00,1.08
9011.00,1.09
9010.00,1.09
9009.00,1.09
9008.00,1.09
9007.00,1.09
9006.00,1.09
9005.00,1.09
9004.00,1.10
9003.00,1.10
9002.00,1.10
9001.00,1.10
9000.00,1.10
8999.00,1.10
8998.00,1.10
8997.00,1.10
8996.00,1.10
8995.00,1.10
8994.00,1.10
8993.00,1.10
8992.00,1.10
8991.00,1.10
8990.00,1.10
8989.00,1.10
8988.00,1.10
8987.00,1.10
8986.00,1.10
8985.00,1.10
8984.00,1.10
8983.00,1.10
8982.00,1.10
8981.00,1.10
8980.00,1.10
8979.00,1.10
8978.00,1.10
8977.00,1.10
8976.00,1.10
8975.00,1.10
8974.00,1.10
8973.00,1.10
8972.00,1.10
8971.00,1.10
8970.00,1.10
8969.00,1.10
8968.00,1.10
8967.00,1.10
8966.00,1.10
8965.00,1.10
8964.00,1.10
8963.00,1.10
8962.00,1.10
8961.00,1.09
8960.00,1.09
8959.00,1.09
8958.00,1.09
8957.00,1.09
8956.00,1.09
8955.00,1.09
8954.00,1.09
8953.00,1.09
8952.00,1.09
8951.00,1.09
8950.00,1.09
8949.00,1.09
8948.00,1.09
8947.00,1.09
8946.00,1.09
8945.00,1.09
8944.00,1.09
8943.00,1.09
8942.00,1.09
8941.00,1.09
8940.00,1.09
8939.00,1.09
8938.00,1.09
8937.00,1.10
8936.00,1.10
8935.00,1.10
8934.00,1.10
8933.00,1.10
8932.00,1.10
8931.00,1.10
8930.00,1.10
8929.00,1.10
8928.00,1.10
8927.00,1.09
8926.00,1.09
8925.00,1.09
8924.00,1.09
8923.00,1.09
8922.00,1.09
8921.00,1.09
8920.00,1.09
8919.00,1.09
8918.00,1.09
8917.00,1.09
8916.00,1.09
8915.00,1.09
8914.00,1.09
8913.00,1.09
8912.00,1.09
8911.00,1.08
8910.00,1.08
8909.00,1.08
8908.00,1.09
8907.00,1.09
8906.00,1.09
8905.00,1.09
8904.00,1.09
8903.00,1.09
8902.00,1.09
8901.00,1.09
8900.00,1.09
8899.00,1.10
8898.00,1.10
8897.00,1.10
8896.00,1.10
8895.00,1.10
8894.00,1.11
8893.00,1.11
8892.00,1.11
8891.00,1.11
8890.00,1.11
8889.00,1.11
8888.00,1.11
8887.00,1.11
8886.00,1.11
8885.00,1.11
8884.00,1.11
8883.00,1.11
8882.00,1.11
8881.00,1.11
8880.00,1.11
8879.00,1.10
8878.00,1.10
8877.00,1.10
8876.00,1.10
8875.00,1.10
8874.00,1.09
8873.00,1.09
8872.00,1.09
8871.00,1.09
8870.00,1.09
8869.00,1.09
8868.00,1.08
8867.00,1.08
8866.00,1.08
8865.00,1.08
8864.00,1.08
8863.00,1.08
8862.00,1.08
8861.00,1.08
8860.00,1.08
8859.00,1.08
8858.00,1.08
8857.00,1.08
8856.00,1.08
8855.00,1.08
8854.00,1.08
8853.00,1.08
8852.00,1.08
8851.00,1.08
8850.00,1.08
8849.00,1.08
8848.00,1.08
8847.00,1.07
8846.00,1.07
8845.00,1.07
8844.00,1.07
8843.00,1.07
8842.00,1.07
8841.00,1.07
8840.00,1.07
8839.00,1.07
8838.00,1.07
8837.00,1.07
8836.00,1.07
8835.00,1.07
8834.00,1.07
8833.00,1.07
8832.00,1.07
8831.00,1.08
8830.00,1.08
8829.00,1.08
8828.00,1.08
8827.00,1.08
8826.00,1.07
8825.00,1.07
8824.00,1.07
8823.00,1.07
8822.00,1.07
8821.00,1.07
8820.00,1.07
8819.00,1.07
8818.00,1.07
8817.00,1.06
8816.00,1.06
8815.00,1.06
8814.00,1.06
8813.00,1.06
8812.00,1.06
8811.00,1.06
8810.00,1.06
8809.00,1.06
8808.00,1.06
8807.00,1.06
8806.00,1.06
8805.00,1.06
8804.00,1.06
8803.00,1.06
8802.00,1.06
8801.00,1.06
8800.00,1.06
8799.00,1.06
8798.00,1.06
8797.00,1.06
8796.00,1.06
8795.00,1.06
8794.00,1.06
8793.00,1.06
8792.00,1.06
8791.00,1.06
8790.00,1.06
8789.00,1.06
8788.00,1.06
8787.00,1.06
8786.00,1.06
8785.00,1.06
8784.00,1.06
8783.00,1.06
8782.00,1.06
8781.00,1.06
8780.00,1.06
8779.00,1.06
8778.00,1.06
8777.00,1.06
8776.00,1.06
8775.00,1.06
8774.00,1.06
8773.00,1.06
8772.00,1.06
8771.00,1.06
8770.00,1.06
8769.00,1.06
8768.00,1.05
8767.00,1.05
8766.00,1.05
8765.00,1.05
8764.00,1.05
8763.00,1.04
8762.00,1.04
8761.00,1.04
8760.00,1.04
8759.00,1.04
8758.00,1.03
8757.00,1.03
8756.00,1.03
8755.00,1.03
8754.00,1.03
8753.00,1.03
8752.00,1.03
8751.00,1.03
8750.00,1.03
8749.00,1.03
8748.00,1.03
8747.00,1.03
8746.00,1.03
8745.00,1.03
8744.00,1.04
8743.00,1.04
8742.00,1.04
8741.00,1.04
8740.00,1.04
8739.00,1.04
8738.00,1.04
8737.00,1.04
8736.00,1.04
8735.00,1.04
8734.00,1.04
8733.00,1.04
8732.00,1.03
8731.00,1.03
8730.00,1.03
8729.00,1.03
8728.00,1.03
8727.00,1.03
8726.00,1.02
8725.00,1.02
8724.00,1.02
8723.00,1.02
8722.00,1.02
8721.00,1.02
8720.00,1.02
8719.00,1.02
8718.00,1.02
8717.00,1.01
8716.00,1.01
8715.00,1.01
8714.00,1.02
8713.00,1.02
8712.00,1.02
8711.00,1.02
8710.00,1.02
8709.00,1.02
8708.00,1.02
8707.00,1.02
8706.00,1.02
8705.00,1.02
8704.00,1.03
8703.00,1.03
8702.00,1.03
8701.00,1.03
8700.00,1.03
8699.00,1.03
8698.00,1.03
8697.00,1.03
8696.00,1.03
8695.00,1.03
8694.00,1.03
8693.00,1.03
8692.00,1.03
8691.00,1.03
8690.00,1.03
8689.00,1.03
8688.00,1.03
8687.00,1.03
8686.00,1.03
8685.00,1.03
8684.00,1.03
8683.00,1.03
8682.00,1.03
8681.00,1.03
8680.00,1.03
8679.00,1.03
8678.00,1.03
8677.00,1.03
8676.00,1.03
8675.00,1.03
8674.00,1.03
8673.00,1.03
8672.00,1.03
8671.00,1.03
8670.00,1.03
8669.00,1.03
8668.00,1.03
8667.00,1.02
8666.00,1.02
8665.00,1.02
8664.00,1.02
8663.00,1.02
8662.00,1.02
8661.00,1.02
8660.00,1.02
8659.00,1.02
8658.00,1.02
8657.00,1.02
8656.00,1.02
8655.00,1.02
8654.00,1.02
8653.00,1.02
8652.00,1.02
8651.00,1.03
8650.00,1.03
8649.00,1.03
8648.00,1.03
8647.00,1.03
8646.00,1.03
8645.00,1.03
8644.00,1.03
8643.00,1.03
8642.00,1.03
8641.00,1.03
8640.00,1.03
8639.00,1.03
8638.00,1.03
8637.00,1.03
8636.00,1.02
8635.00,1.02
8634.00,1.02
8633.00,1.02
8632.00,1.02
8631.00,1.02
8630.00,1.01
8629.00,1.01
8628.00,1.01
8627.00,1.01
8626.00,1.01
8625.00,1.01
8624.00,1.01
8623.00,1.01
8622.00,1.01
8621.00,1.00
8620.00,1.00
8619.00,1.00
8618.00,1.00
8617.00,1.00
8616.00,1.00
8615.00,1.00
8614.00,1.00
8613.00,1.00
8612.00,1.00
8611.00,1.00
8610.00,1.00
8609.00,1.00
8608.00,1.00
8607.00,1.00
8606.00,1.00
8605.00,1.00
8604.00,1.00
8603.00,1.00
8602.00,1.00
8601.00,1.00
8600.00,1.00
8599.00,1.00
8598.00,1.00
8597.00,1.00
8596.00,1.00
8595.00,1.00
8594.00,1.00
8593.00,1.00
8592.00,1.00
8591.00,1.00
8590.00,1.00
8589.00,1.00
8588.00,1.00
8587.00,1.00
8586.00,1.00
8585.00,1.00
8584.00,1.00
8583.00,1.00
8582.00,1.00
8581.00,1.00
8580.00,1.00
8579.00,1.00
8578.00,1.00
8577.00,1.00
8576.00,1.00
8575.00,1.00
8574.00,1.00
8573.00,1.00
8572.00,0.99
8571.00,0.99
8570.00,0.99
8569.00,0.99
8568.00,0.99
8567.00,0.99
8566.00,0.98
8565.00,0.98
8564.00,0.98
8563.00,0.98
8562.00,0.98
8561.00,0.98
8560.00,0.98
8559.00,0.97
8558.00,0.97
8557.00,0.97
8556.00,0.97
8555.00,0.97
8554.00,0.97
8553.00,0.97
8552.00,0.97
8551.00,0.97
8550.00,0.97
8549.00,0.97
8548.00,0.97
8547.00,0.97
8546.00,0.97
8545.00,0.97
8544.00,0.97
8543.00,0.97
8542.00,0.97
8541.00,0.97
8540.00,0.97
8539.00,0.97
8538.00,0.97
8537.00,0.97
8536.00,0.97
8535.00,0.97
8534.00,0.97
8533.00,0.97
8532.00,0.97
8531.00,0.97
8530.00,0.97
8529.00,0.97
8528.00,0.97
8527.00,0.97
8526.00,0.97
8525.00,0.97
8524.00,0.97
8523.00,0.97
8522.00,0.97
8521.00,0.97
8520.00,0.97
8519.00,0.97
8518.00,0.97
8517.00,0.97
8516.00,0.97
8515.00,0.97
8514.00,0.96
8513.00,0.96
8512.00,0.96
8511.00,0.96
8510.00,0.96
8509.00,0.96
8508.00,0.96
8507.00,0.95
8506.00,0.95
8505.00,0.95
8504.00,0.95
8503.00,0.95
8502.00,0.95
8501.00,0.95
8500.00,0.95
8499.00,0.95
8498.00,0.95
8497.00,0.95
8496.00,0.95
8495.00,0.95
8494.00,0.95
8493.00,0.95
8492.00,0.95
8491.00,0.95
8490.00,0.95
8489.00,0.95
8488.00,0.95
8487.00,0.95
8486.00,0.95
8485.00,0.95
8484.00,0.95
8483.00,0.95
8482.00,0.95
8481.00,0.95
8480.00,0.95
8479.00,0.95
8478.00,0.95
8477.00,0.94
8476.00,0.94
8475.00,0.94
8474.00,0.94
8473.00,0.94
8472.00,0.94
8471.00,0.93
8470.00,0.93
8469.00,0.93
8468.00,0.93
8467.00,0.93
8466.00,0.93
8465.00,0.93
8464.00,0.93
8463.00,0.93
8462.00,0.93
8461.00,0.93
8460.00,0.93
8459.00,0.93
8458.00,0.93
8457.00,0.93
8456.00,0.92
8455.00,0.92
8454.00,0.92
8453.00,0.92
8452.00,0.92
8451.00,0.92
8450.00,0.92
8449.00,0.92
8448.00,0.92
8447.00,0.92
8446.00,0.92
8445.00,0.92
8444.00,0.92
8443.00,0.92
8442.00,0.92
8441.00,0.92
8440.00,0.92
8439.00,0.92
8438.00,0.92
8437.00,0.92
8436.00,0.92
8435.00,0.92
8434.00,0.92
8433.00,0.92
8432.00,0.92
8431.00,0.92
8430.00,0.92
8429.00,0.92
8428.00,0.92
8427.00,0.92
8426.00,0.93
8425.00,0.93
8424.00,0.93
8423.00,0.93
8422.00,0.93
8421.00,0.93
8420.00,0.93
8419.00,0.93
8418.00,0.93
8417.00,0.93
8416.00,0.93
8415.00,0.93
8414.00,0.93
8413.00,0.93
8412.00,0.93
8411.00,0.93
8410.00,0.93
8409.00,0.93
8408.00,0.94
8407.00,0.94
8406.00,0.94
8405.00,0.94
8404.00,0.94
8403.00,0.94
8402.00,0.94
8401.00,0.94
8400.00,0.94
8399.00,0.95
8398.00,0.95
8397.00,0.95
8396.00,0.95
8395.00,0.95
8394.00,0.95
8393.00,0.95
8392.00,0.95
8391.00,0.95
8390.00,0.95
8389.00,0.95
8388.00,0.95
8387.00,0.95
8386.00,0.96
8385.00,0.96
8384.00,0.96
8383.00,0.96
8382.00,0.96
8381.00,0.96
8380.00,0.96
8379.00,0.96
8378.00,0.97
8377.00,0.97
8376.00,0.97
8375.00,0.97
8374.00,0.97
8373.00,0.97
8372.00,0.97
8371.00,0.97
8370.00,0.97
8369.00,0.97
8368.00,0.97
8367.00,0.97
8366.00,0.97
8365.00,0.97
8364.00,0.97
8363.00,0.97
8362.00,0.96
8361.00,0.96
8360.00,0.96
8359.00,0.96
8358.00,0.96
8357.00,0.96
8356.00,0.96
8355.00,0.96
8354.00,0.96
8353.00,0.95
8352.00,0.95
8351.00,0.95
8350.00,0.95
8349.00,0.96
8348.00,0.96
8347.00,0.96
8346.00,0.96
8345.00,0.96
8344.00,0.96
8343.00,0.96
8342.00,0.96
8341.00,0.96
8340.00,0.96
8339.00,0.96
8338.00,0.96
8337.00,0.96
8336.00,0.97
8335.00,0.97
8334.00,0.97
8333.00,0.97
8332.00,0.97
8331.00,0.97
8330.00,0.97
8329.00,0.97
8328.00,0.97
8327.00,0.97
8326.00,0.96
8325.00,0.96
8324.00,0.96
8323.00,0.96
8322.00,0.96
8321.00,0.96
8320.00,0.96
8319.00,0.96
8318.00,0.96
8317.00,0.96
8316.00,0.96
8315.00,0.96
8314.00,0.96
8313.00,0.96
8312.00,0.96
8311.00,0.96
8310.00,0.96
8309.00,0.96
8308.00,0.96
8307.00,0.96
8306.00,0.96
8305.00,0.96
8304.00,0.96
8303.00,0.96
8302.00,0.96
8301.00,0.96
8300.00,0.96
8299.00,0.96
8298.00,0.96
8297.00,0.96
8296.00,0.96
8295.00,0.96
8294.00,0.97
8293.00,0.97
8292.00,0.97
8291.00,0.97
8290.00,0.97
8289.00,0.97
8288.00,0.97
8287.00,0.97
8286.00,0.97
8285.00,0.97
8284.00,0.97
8283.00,0.97
8282.00,0.97
8281.00,0.97
8280.00,0.97
8279.00,0.97
8278.00,0.97
8277.00,0.97
8276.00,0.97
8275.00,0.97
8274.00,0.97
8273.00,0.97
8272.00,0.97
8271.00,0.97
8270.00,0.97
8269.00,0.97
8268.00,0.97
8267.00,0.97
8266.00,0.97
8265.00,0.97
8264.00,0.97
8263.00,0.97
8262.00,0.97
8261.00,0.97
8260.00,0.97
8259.00,0.97
8258.00,0.97
8257.00,0.97
8256.00,0.97
8255.00,0.97
8254.00,0.97
8253.00,0.97
8252.00,0.97
8251.00,0.97
8250.00,0.97
8249.00,0.97
8248.00,0.97
8247.00,0.97
8246.00,0.97
8245.00,0.98
8244.00,0.98
8243.00,0.98
8242.00,0.98
8241.00,0.98
8240.00,0.98
8239.00,0.98
8238.00,0.99
8237.00,0.99
8236.00,0.99
8235.00,0.99
8234.00,0.99
8233.00,0.99
8232.00,0.99
8231.00,0.99
8230.00,1.00
8229.00,1.00
8228.00,1.00
8227.00,1.00
8226.00,1.00
8225.00,1.00
8224.00,1.00
8223.00,1.00
8222.00,1.00
8221.00,1.00
8220.00,1.00
8219.00,1.01
8218.00,1.01
8217.00,1.01
8216.00,1.01
8215.00,1.01
8214.00,1.01
8213.00,1.00
8212.00,1.00
8211.00,1.00
8210.00,1.00
8209.00,1.00
8208.00,1.00
8207.00,1.00
8206.00,1.00
8205.00,1.00
8204.00,1.00
8203.00,1.00
8202.00,1.00
8201.00,1.00
8200.00,1.00
8199.00,1.00
8198.00,1.00
8197.00,1.00
8196.00,1.00
8195.00,1.00
8194.00,1.00
8193.00,1.00
8192.00,1.00
8191.00,1.00
8190.00,1.00
8189.00,1.00
8188.00,1.00
8187.00,1.01
8186.00,1.01
8185.00,1.01
8184.00,1.01
8183.00,1.01
8182.00,1.01
8181.00,1.01
8180.00,1.01
8179.00,1.01
8178.00,1.01
8177.00,1.01
8176.00,1.01
8175.00,1.01
8174.00,1.02
8173.00,1.02
8172.00,1.02
8171.00,1.02
8170.00,1.02
8169.00,1.02
8168.00,1.02
8167.00,1.02
8166.00,1.02
8165.00,1.02
8164.00,1.02
8163.00,1.02
8162.00,1.02
8161.00,1.02
8160.00,1.02
8159.00,1.02
8158.00,1.02
8157.00,1.02
8156.00,1.02
8155.00,1.02
8154.00,1.02
8153.00,1.02
8152.00,1.02
8151.00,1.02
8150.00,1.02
8149.00,1.02
8148.00,1.02
8147.00,1.02
8146.00,1.02
8145.00,1.02
8144.00,1.02
8143.00,1.02
8142.00,1.02
8141.00,1.02
8140.00,1.02
8139.00,1.02
8138.00,1.02
8137.00,1.02
8136.00,1.02
8135.00,1.02
8134.00,1.02
8133.00,1.02
8132.00,1.02
8131.00,1.02
8130.00,1.02
8129.00,1.02
8128.00,1.02
8127.00,1.02
8126.00,1.02
8125.00,1.02
8124.00,1.02
8123.00,1.02
8122.00,1.02
8121.00,1.03
8120.00,1.03
8119.00,1.03
8118.00,1.03
8117.00,1.03
8116.00,1.03
8115.00,1.03
8114.00,1.03
8113.00,1.04
8112.00,1.04
8111.00,1.04
8110.00,1.04
8109.00,1.04
8108.00,1.04
8107.00,1.04
8106.00,1.04
8105.00,1.04
8104.00,1.04
8103.00,1.04
8102.00,1.04
8101.00,1.04
8100.00,1.04
8099.00,1.04
8098.00,1.04
8097.00,1.04
8096.00,1.04
8095.00,1.03
8094.00,1.03
8093.00,1.03
8092.00,1.03
8091.00,1.03
8090.00,1.03
8089.00,1.03
8088.00,1.03
8087.00,1.03
8086.00,1.03
8085.00,1.03
8084.00,1.03
8083.00,1.03
8082.00,1.03
8081.00,1.03
8080.00,1.03
8079.00,1.03
8078.00,1.03
8077.00,1.03
8076.00,1.03
8075.00,1.03
8074.00,1.03
8073.00,1.03
8072.00,1.03
8071.00,1.03
8070.00,1.03
8069.00,1.04
8068.00,1.04
8067.00,1.04
8066.00,1.04
8065.00,1.04
8064.00,1.04
8063.00,1.04
8062.00,1.05
8061.00,1.05
8060.00,1.05
8059.00,1.05
8058.00,1.05
8057.00,1.05
8056.00,1.05
8055.00,1.05
8054.00,1.05
8053.00,1.05
8052.00,1.06
8051.00,1.06
8050.00,1.06
8049.00,1.06
8048.00,1.06
8047.00,1.06
8046.00,1.06
8045.00,1.06
8044.00,1.06
8043.00,1.06
8042.00,1.06
8041.00,1.06
8040.00,1.06
8039.00,1.06
8038.00,1.06
8037.00,1.06
8036.00,1.06
8035.00,1.06
8034.00,1.06
8033.00,1.06
8032.00,1.06
8031.00,1.05
8030.00,1.05
8029.00,1.05
8028.00,1.05
8027.00,1.05
8026.00,1.05
8025.00,1.05
8024.00,1.05
8023.00,1.05
8022.00,1.04
8021.00,1.04
8020.00,1.04
8019.00,1.04
8018.00,1.04
8017.00,1.04
8016.00,1.04
8015.00,1.04
8014.00,1.04
8013.00,1.05
8012.00,1.05
8011.00,1.05
8010.00,1.05
8009.00,1.05
8008.00,1.05
8007.00,1.05
8006.00,1.05
8005.00,1.05
8004.00,1.05
8003.00,1.05
8002.00,1.05
8001.00,1.05
8000.00,1.06
7999.00,1.06
7998.00,1.06
7997.00,1.06
7996.00,1.06
7995.00,1.06
7994.00,1.06
7993.00,1.06
7992.00,1.06
7991.00,1.06
7990.00,1.06
7989.00,1.06
7988.00,1.06
7987.00,1.06
7986.00,1.06
7985.00,1.06
7984.00,1.07
7983.00,1.07
7982.00,1.07
7981.00,1.07
7980.00,1.07
7979.00,1.07
7978.00,1.07
7977.00,1.07
7976.00,1.07
7975.00,1.07
7974.00,1.07
7973.00,1.07
7972.00,1.07
7971.00,1.07
7970.00,1.07
7969.00,1.07
7968.00,1.07
7967.00,1.07
7966.00,1.07
7965.00,1.07
7964.00,1.07
7963.00,1.07
7962.00,1.07
7961.00,1.07
7960.00,1.07
7959.00,1.07
7958.00,1.07
7957.00,1.07
7956.00,1.07
7955.00,1.07
7954.00,1.07
7953.00,1.07
7952.00,1.07
7951.00,1.07
7950.00,1.07
7949.00,1.07
7948.00,1.07
7947.00,1.07
7946.00,1.07
7945.00,1.07
7944.00,1.07
7943.00,1.07
7942.00,1.07
7941.00,1.07
7940.00,1.07
7939.00,1.07
7938.00,1.07
7937.00,1.07
7936.00,1.07
7935.00,1.07
7934.00,1.07
7933.00,1.07
7932.00,1.07
7931.00,1.07
7930.00,1.07
7929.00,1.07
7928.00,1.07
7927.00,1.07
7926.00,1.07
7925.00,1.07
7924.00,1.07
7923.00,1.08
7922.00,1.08
7921.00,1.08
7920.00,1.08
7919.00,1.08
7918.00,1.08
7917.00,1.08
7916.00,1.08
7915.00,1.08
7914.00,1.08
7913.00,1.08
7912.00,1.08
7911.00,1.08
7910.00,1.08
7909.00,1.08
7908.00,1.08
7907.00,1.08
7906.00,1.08
7905.00,1.08
7904.00,1.08
7903.00,1.08
7902.00,1.09
7901.00,1.09
7900.00,1.09
7899.00,1.09
7898.00,1.09
7897.00,1.09
7896.00,1.09
7895.00,1.08
7894.00,1.08
7893.00,1.08
7892.00,1.08
7891.00,1.08
7890.00,1.08
7889.00,1.08
7888.00,1.08
7887.00,1.08
7886.00,1.08
7885.00,1.08
7884.00,1.08
7883.00,1.08
7882.00,1.08
7881.00,1.08
7880.00,1.08
7879.00,1.08
7878.00,1.08
7877.00,1.08
7876.00,1.08
7875.00,1.09
7874.00,1.09
7873.00,1.09
7872.00,1.09
7871.00,1.09
7870.00,1.09
7869.00,1.09
7868.00,1.09
7867.00,1.09
7866.00,1.09
7865.00,1.09
7864.00,1.09
7863.00,1.09
7862.00,1.09
7861.00,1.09
7860.00,1.09
7859.00,1.09
7858.00,1.09
7857.00,1.09
7856.00,1.09
7855.00,1.09
7854.00,1.09
7853.00,1.09
7852.00,1.09
7851.00,1.09
7850.00,1.09
7849.00,1.09
7848.00,1.09
7847.00,1.09
7846.00,1.09
7845.00,1.09
7844.00,1.09
7843.00,1.09
7842.00,1.09
7841.00,1.08
7840.00,1.08
7839.00,1.08
7838.00,1.08
7837.00,1.08
7836.00,1.08
7835.00,1.08
7834.00,1.08
7833.00,1.09
7832.00,1.09
7831.00,1.09
7830.00,1.09
7829.00,1.09
7828.00,1.09
7827.00,1.09
7826.00,1.09
7825.00,1.09
7824.00,1.10
7823.00,1.10
7822.00,1.10
7821.00,1.10
7820.00,1.10
7819.00,1.10
7818.00,1.10
7817.00,1.10
7816.00,1.10
7815.00,1.10
7814.00,1.10
7813.00,1.10
7812.00,1.10
7811.00,1.10
7810.00,1.10
7809.00,1.10
7808.00,1.10
7807.00,1.10
7806.00,1.10
7805.00,1.10
7804.00,1.10
7803.00,1.10
7802.00,1.10
7801.00,1.10
7800.00,1.10
7799.00,1.10
7798.00,1.10
7797.00,1.10
7796.00,1.10
7795.00,1.10
7794.00,1.10
7793.00,1.10
7792.00,1.10
7791.00,1.10
7790.00,1.10
7789.00,1.10
7788.00,1.10
7787.00,1.10
7786.00,1.10
7785.00,1.10
7784.00,1.10
7783.00,1.10
7782.00,1.10
7781.00,1.10
7780.00,1.10
7779.00,1.10
7778.00,1.10
7777.00,1.10
7776.00,1.10
7775.00,1.10
7774.00,1.10
7773.00,1.10
7772.00,1.10
7771.00,1.10
7770.00,1.10
7769.00,1.10
7768.00,1.10
7767.00,1.10
7766.00,1.10
7765.00,1.10
7764.00,1.10
7763.00,1.10
7762.00,1.10
7761.00,1.10
7760.00,1.10
7759.00,1.10
7758.00,1.10
7757.00,1.10
7756.00,1.10
7755.00,1.10
7754.00,1.10
7753.00,1.10
7752.00,1.10
7751.00,1.10
7750.00,1.10
7749.00,1.10
7748.00,1.10
7747.00,1.10
7746.00,1.10
7745.00,1.11
7744.00,1.11
7743.00,1.11
7742.00,1.11
7741.00,1.11
7740.00,1.11
7739.00,1.11
7738.00,1.11
7737.00,1.11
7736.00,1.11
7735.00,1.11
7734.00,1.11
7733.00,1.11
7732.00,1.11
7731.00,1.11
7730.00,1.11
7729.00,1.11
7728.00,1.11
7727.00,1.11
7726.00,1.11
7725.00,1.11
7724.00,1.11
7723.00,1.11
7722.00,1.11
7721.00,1.11
7720.00,1.11
7719.00,1.11
7718.00,1.11
7717.00,1.11
7716.00,1.11
7715.00,1.11
7714.00,1.11
7713.00,1.11
7712.00,1.11
7711.00,1.11
7710.00,1.10
7709.00,1.10
7708.00,1.10
7707.00,1.10
7706.00,1.10
7705.00,1.10
7704.00,1.10
7703.00,1.10
7702.00,1.10
7701.00,1.10
7700.00,1.10
7699.00,1.10
7698.00,1.10
7697.00,1.10
7696.00,1.10
7695.00,1.10
7694.00,1.10
7693.00,1.10
7692.00,1.10
7691.00,1.10
7690.00,1.10
7689.00,1.11
7688.00,1.11
7687.00,1.11
7686.00,1.11
7685.00,1.11
7684.00,1.11
7683.00,1.11
7682.00,1.11
7681.00,1.11
7680.00,1.11
7679.00,1.11
7678.00,1.11
7677.00,1.11
7676.00,1.11
7675.00,1.11
7674.00,1.11
7673.00,1.11
7672.00,1.11
7671.00,1.11
7670.00,1.11
7669.00,1.11
7668.00,1.11
7667.00,1.11
7666.00,1.11
7665.00,1.11
7664.00,1.11
7663.00,1.11
7662.00,1.10
7661.00,1.10
7660.00,1.10
7659.00,1.10
7658.00,1.10
7657.00,1.10
7656.00,1.10
7655.00,1.10
7654.00,1.10
7653.00,1.10
7652.00,1.10
7651.00,1.10
7650.00,1.10
7649.00,1.10
7648.00,1.10
7647.00,1.10
7646.00,1.11
7645.00,1.11
7644.00,1.11
7643.00,1.11
7642.00,1.11
7641.00,1.11
7640.00,1.11
7639.00,1.11
7638.00,1.11
7637.00,1.11
7636.00,1.11
7635.00,1.11
7634.00,1.11
7633.00,1.11
7632.00,1.11
7631.00,1.11
7630.00,1.11
7629.00,1.11
7628.00,1.11
7627.00,1.11
7626.00,1.11
7625.00,1.11
7624.00,1.11
7623.00,1.11
7622.00,1.11
7621.00,1.11
7620.00,1.11
7619.00,1.11
7618.00,1.11
7617.00,1.11
7616.00,1.11
7615.00,1.11
7614.00,1.11
7613.00,1.11
7612.00,1.11
7611.00,1.11
7610.00,1.11
7609.00,1.11
7608.00,1.11
7607.00,1.11
7606.00,1.11
7605.00,1.11
7604.00,1.11
7603.00,1.11
7602.00,1.11
7601.00,1.11
7600.00,1.11
7599.00,1.10
7598.00,1.10
7597.00,1.10
7596.00,1.10
7595.00,1.10
7594.00,1.10
7593.00,1.10
7592.00,1.10
7591.00,1.10
7590.00,1.10
7589.00,1.10
7588.00,1.10
7587.00,1.10
7586.00,1.10
7585.00,1.10
7584.00,1.10
7583.00,1.10
7582.00,1.10
7581.00,1.10
7580.00,1.10
7579.00,1.11
7578.00,1.11
7577.00,1.11
7576.00,1.11
7575.00,1.11
7574.00,1.11
7573.00,1.11
7572.00,1.11
7571.00,1.11
7570.00,1.11
7569.00,1.11
7568.00,1.11
7567.00,1.11
7566.00,1.11
7565.00,1.11
7564.00,1.11
7563.00,1.11
7562.00,1.10
7561.00,1.10
7560.00,1.10
7559.00,1.10
7558.00,1.10
7557.00,1.10
7556.00,1.10
7555.00,1.10
7554.00,1.10
7553.00,1.09
7552.00,1.09
7551.00,1.09
7550.00,1.09
7549.00,1.09
7548.00,1.09
7547.00,1.09
7546.00,1.09
7545.00,1.09
7544.00,1.09
7543.00,1.09
7542.00,1.09
7541.00,1.09
7540.00,1.09
7539.00,1.09
7538.00,1.09
7537.00,1.09
7536.00,1.09
7535.00,1.09
7534.00,1.09
7533.00,1.09
7532.00,1.09
7531.00,1.09
7530.00,1.09
7529.00,1.09
7528.00,1.09
7527.00,1.09
7526.00,1.09
7525.00,1.09
7524.00,1.09
7523.00,1.08
7522.00,1.08
7521.00,1.08
7520.00,1.08
7519.00,1.08
7518.00,1.08
7517.00,1.08
7516.00,1.08
7515.00,1.08
7514.00,1.08
7513.00,1.08
7512.00,1.08
7511.00,1.08
7510.00,1.08
7509.00,1.08
7508.00,1.08
7507.00,1.08
7506.00,1.08
7505.00,1.08
7504.00,1.08
7503.00,1.08
7502.00,1.08
7501.00,1.08
7500.00,1.08
7499.00,1.08
7498.00,1.08
7497.00,1.08
7496.00,1.08
7495.00,1.07
7494.00,1.07
7493.00,1.07
7492.00,1.07
7491.00,1.07
7490.00,1.07
7489.00,1.07
7488.00,1.07
7487.00,1.07
7486.00,1.07
7485.00,1.07
7484.00,1.07
7483.00,1.07
7482.00,1.07
7481.00,1.07
7480.00,1.07
7479.00,1.07
7478.00,1.07
7477.00,1.07
7476.00,1.07
7475.00,1.07
7474.00,1.07
7473.00,1.07
7472.00,1.07
7471.00,1.07
7470.00,1.07
7469.00,1.07
7468.00,1.07
7467.00,1.07
7466.00,1.06
7465.00,1.06
7464.00,1.06
7463.00,1.06
7462.00,1.06
7461.00,1.06
7460.00,1.06
7459.00,1.06
7458.00,1.06
7457.00,1.06
7456.00,1.06
7455.00,1.05
7454.00,1.05
7453.00,1.05
7452.00,1.05
7451.00,1.05
7450.00,1.05
7449.00,1.05
7448.00,1.05
7447.00,1.05
7446.00,1.05
7445.00,1.05
7444.00,1.05
7443.00,1.05
7442.00,1.05
7441.00,1.05
7440.00,1.05
7439.00,1.05
7438.00,1.05
7437.00,1.05
7436.00,1.05
7435.00,1.05
7434.00,1.05
7433.00,1.05
7432.00,1.05
7431.00,1.04
7430.00,1.04
7429.00,1.04
7428.00,1.04
7427.00,1.04
7426.00,1.04
7425.00,1.04
7424.00,1.04
7423.00,1.04
7422.00,1.04
7421.00,1.04
7420.00,1.04
7419.00,1.04
7418.00,1.04
7417.00,1.03
7416.00,1.03
7415.00,1.03
7414.00,1.03
7413.00,1.03
7412.00,1.03
7411.00,1.03
7410.00,1.03
7409.00,1.03
7408.00,1.03
7407.00,1.03
7406.00,1.03
7405.00,1.03
7404.00,1.03
7403.00,1.02
7402.00,1.02
7401.00,1.02
7400.00,1.02
7399.00,1.02
7398.00,1.02
7397.00,1.02
7396.00,1.02
7395.00,1.01
7394.00,1.01
7393.00,1.01
7392.00,1.01
7391.00,1.01
7390.00,1.01
7389.00,1.00
7388.00,1.00
7387.00,1.00
7386.00,1.00
7385.00,1.00
7384.00,1.00
7383.00,1.00
7382.00,1.00
7381.00,1.00
7380.00,0.99
7379.00,0.99
7378.00,0.99
7377.00,0.99
7376.00,0.99
7375.00,0.99
7374.00,0.99
7373.00,0.99
7372.00,0.99
7371.00,0.99
7370.00,0.99
7369.00,0.99
7368.00,0.99
7367.00,0.99
7366.00,0.99
7365.00,0.99
7364.00,0.99
7363.00,0.99
7362.00,0.99
7361.00,0.99
7360.00,0.99
7359.00,0.99
7358.00,0.99
7357.00,0.99
7356.00,0.99
7355.00,0.98
7354.00,0.98
7353.00,0.98
7352.00,0.98
7351.00,0.98
7350.00,0.98
7349.00,0.98
7348.00,0.98
7347.00,0.98
7346.00,0.98
7345.00,0.98
7344.00,0.98
7343.00,0.98
7342.00,0.98
7341.00,0.98
7340.00,0.98
7339.00,0.98
7338.00,0.98
7337.00,0.98
7336.00,0.98
7335.00,0.98
7334.00,0.98
7333.00,0.98
7332.00,0.98
7331.00,0.98
7330.00,0.98
7329.00,0.98
7328.00,0.98
7327.00,0.98
7326.00,0.98
7325.00,0.98
7324.00,0.98
7323.00,0.98
7322.00,0.97
7321.00,0.97
7320.00,0.97
7319.00,0.97
7318.00,0.97
7317.00,0.97
7316.00,0.97
7315.00,0.97
7314.00,0.97
7313.00,0.97
7312.00,0.97
7311.00,0.97
7310.00,0.97
7309.00,0.97
7308.00,0.97
7307.00,0.97
7306.00,0.97
7305.00,0.97
7304.00,0.96
7303.00,0.96
7302.00,0.96
7301.00,0.96
7300.00,0.96
7299.00,0.96
7298.00,0.96
7297.00,0.96
7296.00,0.95
7295.00,0.95
7294.00,0.95
7293.00,0.95
7292.00,0.95
7291.00,0.95
7290.00,0.95
7289.00,0.94
7288.00,0.94
7287.00,0.94
7286.00,0.94
7285.00,0.94
7284.00,0.94
7283.00,0.94
7282.00,0.93
7281.00,0.93
7280.00,0.93
7279.00,0.93
7278.00,0.93
7277.00,0.93
7276.00,0.93
7275.00,0.93
7274.00,0.92
7273.00,0.92
7272.00,0.92
7271.00,0.92
7270.00,0.92
7269.00,0.92
7268.00,0.92
7267.00,0.92
7266.00,0.92
7265.00,0.91
7264.00,0.91
7263.00,0.91
7262.00,0.91
7261.00,0.91
7260.00,0.91
7259.00,0.91
7258.00,0.91
7257.00,0.91
7256.00,0.91
7255.00,0.91
7254.00,0.90
7253.00,0.90
7252.00,0.90
7251.00,0.90
7250.00,0.90
7249.00,0.90
7248.00,0.89
7247.00,0.89
7246.00,0.89
7245.00,0.89
7244.00,0.88
7243.00,0.88
7242.00,0.88
7241.00,0.88
7240.00,0.87
7239.00,0.87
7238.00,0.87
7237.00,0.86
7236.00,0.86
7235.00,0.86
7234.00,0.85
7233.00,0.85
7232.00,0.85
7231.00,0.84
7230.00,0.84
7229.00,0.84
7228.00,0.84
7227.00,0.83
7226.00,0.83
7225.00,0.83
7224.00,0.83
7223.00,0.83
7222.00,0.82
7221.00,0.82
7220.00,0.82
7219.00,0.82
7218.00,0.81
7217.00,0.81
7216.00,0.81
7215.00,0.81
7214.00,0.80
7213.00,0.80
7212.00,0.80
7211.00,0.79
7210.00,0.79
7209.00,0.79
7208.00,0.78
7207.00,0.78
7206.00,0.78
7205.00,0.77
7204.00,0.77
7203.00,0.77
7202.00,0.76
7201.00,0.76
7200.00,0.76
7199.00,0.75
7198.00,0.75
7197.00,0.74
7196.00,0.74
7195.00,0.74
7194.00,0.74
7193.00,0.73
7192.00,0.73
7191.00,0.73
7190.00,0.72
7189.00,0.72
7188.00,0.72
7187.00,0.72
7186.00,0.72
7185.00,0.71
7184.00,0.71
7183.00,0.71
7182.00,0.71
7181.00,0.71
7180.00,0.70
7179.00,0.70
7178.00,0.70
7177.00,0.70
7176.00,0.70
7175.00,0.69
7174.00,0.69
7173.00,0.69
7172.00,0.69
7171.00,0.68
7170.00,0.68
7169.00,0.68
7168.00,0.68
7167.00,0.67
7166.00,0.67
7165.00,0.67
7164.00,0.67
7163.00,0.66
7162.00,0.66
7161.00,0.66
7160.00,0.66
7159.00,0.65
7158.00,0.65
7157.00,0.65
7156.00,0.65
7155.00,0.65
7154.00,0.65
7153.00,0.64
7152.00,0.64
7151.00,0.64
7150.00,0.64
7149.00,0.64
7148.00,0.63
7147.00,0.63
7146.00,0.63
7145.00,0.63
7144.00,0.63
7143.00,0.62
7142.00,0.62
7141.00,0.62
7140.00,0.62
7139.00,0.61
7138.00,0.61
7137.00,0.61
7136.00,0.61
7135.00,0.60
7134.00,0.60
7133.00,0.60
7132.00,0.60
7131.00,0.59
7130.00,0.59
7129.00,0.59
7128.00,0.59
7127.00,0.59
7126.00,0.58
7125.00,0.58
7124.00,0.58
7123.00,0.58
7122.00,0.57
7121.00,0.57
7120.00,0.57
7119.00,0.57
7118.00,0.57
7117.00,0.57
7116.00,0.56
7115.00,0.56
7114.00,0.56
7113.00,0.56
7112.00,0.56
7111.00,0.56
7110.00,0.56
7109.00,0.56
7108.00,0.55
7107.00,0.55
7106.00,0.55
7105.00,0.55
7104.00,0.55
7103.00,0.55
7102.00,0.54
7101.00,0.54
7100.00,0.54
7099.00,0.54
7098.00,0.54
7097.00,0.54
7096.00,0.53
7095.00,0.53
7094.00,0.53
7093.00,0.53
7092.00,0.53
7091.00,0.53
7090.00,0.53
7089.00,0.52
7088.00,0.52
7087.00,0.52
7086.00,0.52
7085.00,0.52
7084.00,0.52
7083.00,0.52
7082.00,0.52
7081.00,0.51
7080.00,0.51
7079.00,0.51
7078.00,0.51
7077.00,0.51
7076.00,0.51
7075.00,0.50
7074.00,0.50
7073.00,0.50
7072.00,0.50
7071.00,0.50
7070.00,0.50
7069.00,0.50
7068.00,0.50
7067.00,0.50
7066.00,0.50
7065.00,0.50
7064.00,0.49
7063.00,0.49
7062.00,0.49
7061.00,0.49
7060.00,0.49
7059.00,0.49
7058.00,0.49
7057.00,0.49
7056.00,0.49
7055.00,0.48
7054.00,0.48
7053.00,0.48
7052.00,0.48
7051.00,0.48
7050.00,0.48
7049.00,0.47
7048.00,0.47
7047.00,0.47
7046.00,0.47
7045.00,0.47
7044.00,0.47
7043.00,0.47
7042.00,0.47
7041.00,0.47
7040.00,0.46
7039.00,0.46
7038.00,0.46
7037.00,0.46
7036.00,0.46
7035.00,0.46
7034.00,0.46
7033.00,0.46
7032.00,0.46
7031.00,0.46
7030.00,0.46
7029.00,0.46
7028.00,0.46
7027.00,0.46
7026.00,0.46
7025.00,0.46
7024.00,0.46
7023.00,0.46
7022.00,0.45
7021.00,0.45
7020.00,0.45
7019.00,0.45
7018.00,0.45
7017.00,0.45
7016.00,0.45
7015.00,0.45
7014.00,0.45
7013.00,0.45
7012.00,0.45
7011.00,0.45
7010.00,0.45
7009.00,0.45
7008.00,0.45
7007.00,0.45
7006.00,0.45
7005.00,0.45
7004.00,0.45
7003.00,0.45
7002.00,0.45
7001.00,0.45
7000.00,0.45
6999.00,0.45
6998.00,0.45
6997.00,0.45
6996.00,0.45
6995.00,0.44
6994.00,0.44
6993.00,0.44
6992.00,0.44
6991.00,0.44
6990.00,0.44
6989.00,0.44
6988.00,0.44
6987.00,0.44
6986.00,0.44
6985.00,0.44
6984.00,0.44
6983.00,0.44
6982.00,0.44
6981.00,0.44
6980.00,0.44
6979.00,0.44
6978.00,0.44
6977.00,0.44
6976.00,0.44
6975.00,0.44
6974.00,0.44
6973.00,0.44
6972.00,0.44
6971.00,0.44
6970.00,0.44
6969.00,0.44
6968.00,0.44
6967.00,0.43
6966.00,0.43
6965.00,0.43
6964.00,0.43
6963.00,0.43
6962.00,0.43
6961.00,0.43
6960.00,0.43
6959.00,0.43
6958.00,0.42
6957.00,0.42
6956.00,0.42
6955.00,0.42
6954.00,0.42
6953.00,0.42
6952.00,0.42
6951.00,0.42
6950.00,0.42
6949.00,0.42
6948.00,0.42
6947.00,0.43
6946.00,0.43
6945.00,0.43
6944.00,0.43
6943.00,0.43
6942.00,0.43
6941.00,0.43
6940.00,0.43
6939.00,0.43
6938.00,0.43
6937.00,0.43
6936.00,0.43
6935.00,0.43
6934.00,0.43
6933.00,0.43
6932.00,0.43
6931.00,0.43
6930.00,0.43
6929.00,0.43
6928.00,0.43
6927.00,0.43
6926.00,0.43
6925.00,0.43
6924.00,0.43
6923.00,0.43
6922.00,0.43
6921.00,0.43
6920.00,0.43
6919.00,0.43
6918.00,0.43
6917.00,0.43
6916.00,0.43
6915.00,0.43
6914.00,0.43
6913.00,0.43
6912.00,0.43
6911.00,0.43
6910.00,0.43
6909.00,0.43
6908.00,0.43
6907.00,0.43
6906.00,0.43
6905.00,0.43
6904.00,0.43
6903.00,0.43
6902.00,0.43
6901.00,0.43
6900.00,0.43
6899.00,0.43
6898.00,0.43
6897.00,0.43
6896.00,0.43
6895.00,0.43
6894.00,0.43
6893.00,0.43
6892.00,0.43
6891.00,0.43
6890.00,0.43
6889.00,0.43
6888.00,0.43
6887.00,0.42
6886.00,0.42
6885.00,0.42
6884.00,0.42
6883.00,0.42
6882.00,0.42
6881.00,0.42
6880.00,0.42
6879.00,0.42
6878.00,0.42
6877.00,0.42
6876.00,0.42
6875.00,0.42
6874.00,0.42
6873.00,0.42
6872.00,0.42
6871.00,0.42
6870.00,0.42
6869.00,0.42
6868.00,0.42
6867.00,0.42
6866.00,0.42
6865.00,0.42
6864.00,0.42
6863.00,0.42
6862.00,0.42
6861.00,0.42
6860.00,0.42
6859.00,0.42
6858.00,0.42
6857.00,0.42
6856.00,0.42
6855.00,0.43
6854.00,0.43
6853.00,0.43
6852.00,0.43
6851.00,0.43
6850.00,0.43
6849.00,0.43
6848.00,0.43
6847.00,0.43
6846.00,0.43
6845.00,0.43
6844.00,0.43
6843.00,0.43
6842.00,0.43
6841.00,0.43
6840.00,0.43
6839.00,0.43
6838.00,0.43
6837.00,0.43
6836.00,0.42
6835.00,0.42
6834.00,0.42
6833.00,0.42
6832.00,0.42
6831.00,0.42
6830.00,0.42
6829.00,0.42
6828.00,0.42
6827.00,0.42
6826.00,0.42
6825.00,0.42
6824.00,0.42
6823.00,0.42
6822.00,0.42
6821.00,0.42
6820.00,0.42
6819.00,0.42
6818.00,0.42
6817.00,0.42
6816.00,0.42
6815.00,0.42
6814.00,0.42
6813.00,0.42
6812.00,0.42
6811.00,0.43
6810.00,0.43
6809.00,0.43
6808.00,0.43
6807.00,0.43
6806.00,0.43
6805.00,0.43
6804.00,0.43
6803.00,0.43
6802.00,0.43
6801.00,0.43
6800.00,0.43
6799.00,0.43
6798.00,0.43
6797.00,0.44
6796.00,0.44
6795.00,0.44
6794.00,0.44
6793.00,0.44
6792.00,0.44
6791.00,0.44
6790.00,0.44
6789.00,0.44
6788.00,0.44
6787.00,0.44
6786.00,0.44
6785.00,0.44
6784.00,0.44
6783.00,0.44
6782.00,0.44
6781.00,0.44
6780.00,0.44
6779.00,0.44
6778.00,0.44
6777.00,0.44
6776.00,0.44
6775.00,0.44
6774.00,0.44
6773.00,0.44
6772.00,0.44
6771.00,0.44
6770.00,0.44
6769.00,0.44
6768.00,0.44
6767.00,0.44
6766.00,0.44
6765.00,0.44
6764.00,0.44
6763.00,0.45
6762.00,0.45
6761.00,0.45
6760.00,0.45
6759.00,0.45
6758.00,0.45
6757.00,0.45
6756.00,0.45
6755.00,0.45
6754.00,0.45
6753.00,0.45
6752.00,0.45
6751.00,0.45
6750.00,0.45
6749.00,0.45
6748.00,0.45
6747.00,0.45
6746.00,0.45
6745.00,0.45
6744.00,0.45
6743.00,0.45
6742.00,0.45
6741.00,0.45
6740.00,0.46
6739.00,0.46
6738.00,0.46
6737.00,0.46
6736.00,0.46
6735.00,0.46
6734.00,0.46
6733.00,0.46
6732.00,0.46
6731.00,0.46
6730.00,0.46
6729.00,0.46
6728.00,0.46
6727.00,0.46
6726.00,0.46
6725.00,0.46
6724.00,0.46
6723.00,0.47
6722.00,0.47
6721.00,0.47
6720.00,0.47
6719.00,0.47
6718.00,0.47
6717.00,0.47
6716.00,0.47
6715.00,0.47
6714.00,0.47
6713.00,0.47
6712.00,0.47
6711.00,0.47
6710.00,0.47
6709.00,0.47
6708.00,0.47
6707.00,0.48
6706.00,0.48
6705.00,0.48
6704.00,0.48
6703.00,0.48
6702.00,0.48
6701.00,0.48
6700.00,0.48
6699.00,0.48
6698.00,0.48
6697.00,0.48
6696.00,0.48
6695.00,0.48
6694.00,0.48
6693.00,0.48
6692.00,0.48
6691.00,0.48
6690.00,0.48
6689.00,0.48
6688.00,0.48
6687.00,0.48
6686.00,0.48
6685.00,0.48
6684.00,0.49
6683.00,0.49
6682.00,0.49
6681.00,0.49
6680.00,0.49
6679.00,0.49
6678.00,0.49
6677.00,0.49
6676.00,0.49
6675.00,0.49
6674.00,0.49
6673.00,0.49
6672.00,0.50
6671.00,0.50
6670.00,0.50
6669.00,0.50
6668.00,0.50
6667.00,0.50
6666.00,0.50
6665.00,0.50
6664.00,0.50
6663.00,0.50
6662.00,0.50
6661.00,0.50
6660.00,0.50
6659.00,0.51
6658.00,0.51
6657.00,0.51
6656.00,0.51
6655.00,0.51
6654.00,0.51
6653.00,0.51
6652.00,0.51
6651.00,0.51
6650.00,0.51
6649.00,0.51
6648.00,0.51
6647.00,0.52
6646.00,0.52
6645.00,0.52
6644.00,0.52
6643.00,0.52
6642.00,0.52
6641.00,0.52
6640.00,0.52
6639.00,0.52
6638.00,0.52
6637.00,0.52
6636.00,0.52
6635.00,0.53
6634.00,0.53
6633.00,0.53
6632.00,0.53
6631.00,0.53
6630.00,0.53
6629.00,0.53
6628.00,0.53
6627.00,0.53
6626.00,0.53
6625.00,0.53
6624.00,0.53
6623.00,0.53
6622.00,0.53
6621.00,0.54
6620.00,0.54
6619.00,0.54
6618.00,0.54
6617.00,0.54
6616.00,0.54
6615.00,0.54
6614.00,0.54
6613.00,0.54
6612.00,0.54
6611.00,0.54
6610.00,0.54
6609.00,0.54
6608.00,0.54
6607.00,0.54
6606.00,0.54
6605.00,0.54
6604.00,0.54
6603.00,0.54
6602.00,0.54
6601.00,0.54
6600.00,0.54
6599.00,0.54
6598.00,0.54
6597.00,0.54
6596.00,0.55
6595.00,0.55
6594.00,0.55
6593.00,0.55
6592.00,0.55
6591.00,0.55
6590.00,0.55
6589.00,0.55
6588.00,0.56
6587.00,0.56
6586.00,0.56
6585.00,0.56
6584.00,0.56
6583.00,0.56
6582.00,0.56
6581.00,0.56
6580.00,0.56
6579.00,0.56
6578.00,0.56
6577.00,0.56
6576.00,0.56
6575.00,0.56
6574.00,0.56
6573.00,0.56
6572.00,0.56
6571.00,0.56
6570.00,0.56
6569.00,0.56
6568.00,0.56
6567.00,0.56
6566.00,0.56
6565.00,0.57
6564.00,0.57
6563.00,0.57
6562.00,0.57
6561.00,0.57
6560.00,0.57
6559.00,0.57
6558.00,0.57
6557.00,0.57
6556.00,0.57
6555.00,0.57
6554.00,0.57
6553.00,0.57
6552.00,0.57
6551.00,0.58
6550.00,0.58
6549.00,0.58
6548.00,0.58
6547.00,0.58
6546.00,0.58
6545.00,0.58
6544.00,0.58
6543.00,0.58
6542.00,0.58
6541.00,0.58
6540.00,0.58
6539.00,0.58
6538.00,0.58
6537.00,0.58
6536.00,0.58
6535.00,0.58
6534.00,0.58
6533.00,0.59
6532.00,0.59
6531.00,0.59
6530.00,0.59
6529.00,0.59
6528.00,0.59
6527.00,0.59
6526.00,0.59
6525.00,0.59
6524.00,0.60
6523.00,0.60
6522.00,0.60
6521.00,0.60
6520.00,0.60
6519.00,0.60
6518.00,0.60
6517.00,0.60
6516.00,0.60
6515.00,0.61
6514.00,0.61
6513.00,0.61
6512.00,0.61
6511.00,0.61
6510.00,0.61
6509.00,0.61
6508.00,0.61
6507.00,0.61
6506.00,0.61
6505.00,0.61
6504.00,0.61
6503.00,0.62
6502.00,0.62
6501.00,0.62
6500.00,0.62
6499.00,0.62
6498.00,0.62
6497.00,0.62
6496.00,0.62
6495.00,0.62
6494.00,0.62
6493.00,0.62
6492.00,0.62
6491.00,0.62
6490.00,0.62
6489.00,0.62
6488.00,0.62
6487.00,0.62
6486.00,0.62
6485.00,0.62
6484.00,0.62
6483.00,0.62
6482.00,0.62
6481.00,0.62
6480.00,0.62
6479.00,0.62
6478.00,0.62
6477.00,0.62
6476.00,0.62
6475.00,0.62
6474.00,0.62
6473.00,0.62
6472.00,0.62
6471.00,0.63
6470.00,0.63
6469.00,0.63
6468.00,0.63
6467.00,0.63
6466.00,0.63
6465.00,0.63
6464.00,0.63
6463.00,0.63
6462.00,0.63
6461.00,0.63
6460.00,0.64
6459.00,0.64
6458.00,0.64
6457.00,0.64
6456.00,0.64
6455.00,0.64
6454.00,0.64
6453.00,0.64
6452.00,0.64
6451.00,0.64
6450.00,0.64
6449.00,0.64
6448.00,0.64
6447.00,0.64
6446.00,0.64
6445.00,0.64
6444.00,0.64
6443.00,0.64
6442.00,0.64
6441.00,0.64
6440.00,0.64
6439.00,0.65
6438.00,0.65
6437.00,0.65
6436.00,0.65
6435.00,0.65
6434.00,0.65
6433.00,0.65
6432.00,0.65
6431.00,0.65
6430.00,0.65
6429.00,0.65
6428.00,0.65
6427.00,0.65
6426.00,0.65
6425.00,0.65
6424.00,0.65
6423.00,0.65
6422.00,0.65
6421.00,0.65
6420.00,0.65
6419.00,0.65
6418.00,0.65
6417.00,0.65
6416.00,0.65
6415.00,0.65
6414.00,0.65
6413.00,0.65
6412.00,0.65
6411.00,0.65
6410.00,0.65
6409.00,0.65
6408.00,0.65
6407.00,0.65
6406.00,0.65
6405.00,0.65
6404.00,0.65
6403.00,0.65
6402.00,0.65
6401.00,0.65
6400.00,0.65
6399.00,0.65
6398.00,0.66
6397.00,0.66
6396.00,0.66
6395.00,0.66
6394.00,0.66
6393.00,0.66
6392.00,0.66
6391.00,0.66
6390.00,0.66
6389.00,0.66
6388.00,0.66
6387.00,0.66
6386.00,0.66
6385.00,0.66
6384.00,0.66
6383.00,0.66
6382.00,0.67
6381.00,0.67
6380.00,0.67
6379.00,0.67
6378.00,0.67
6377.00,0.67
6376.00,0.67
6375.00,0.67
6374.00,0.67
6373.00,0.67
6372.00,0.67
6371.00,0.67
6370.00,0.67
6369.00,0.68
6368.00,0.68
6367.00,0.68
6366.00,0.68
6365.00,0.68
6364.00,0.68
6363.00,0.68
6362.00,0.68
6361.00,0.68
6360.00,0.68
6359.00,0.68
6358.00,0.69
6357.00,0.69
6356.00,0.69
6355.00,0.69
6354.00,0.69
6353.00,0.69
6352.00,0.69
6351.00,0.69
6350.00,0.69
6349.00,0.69
6348.00,0.69
6347.00,0.69
6346.00,0.69
6345.00,0.69
6344.00,0.69
6343.00,0.69
6342.00,0.69
6341.00,0.69
6340.00,0.69
6339.00,0.69
6338.00,0.69
6337.00,0.69
6336.00,0.69
6335.00,0.69
6334.00,0.70
6333.00,0.70
6332.00,0.70
6331.00,0.70
6330.00,0.70
6329.00,0.70
6328.00,0.70
6327.00,0.70
6326.00,0.70
6325.00,0.70
6324.00,0.70
6323.00,0.71
6322.00,0.71
6321.00,0.71
6320.00,0.71
6319.00,0.71
6318.00,0.71
6317.00,0.71
6316.00,0.71
6315.00,0.71
6314.00,0.71
6313.00,0.71
6312.00,0.71
6311.00,0.71
6310.00,0.71
6309.00,0.71
6308.00,0.71
6307.00,0.71
6306.00,0.72
6305.00,0.72
6304.00,0.72
6303.00,0.72
6302.00,0.72
6301.00,0.72
6300.00,0.72
6299.00,0.72
6298.00,0.72
6297.00,0.72
6296.00,0.72
6295.00,0.72
6294.00,0.72
6293.00,0.72
6292.00,0.72
6291.00,0.72
6290.00,0.73
6289.00,0.73
6288.00,0.73
6287.00,0.73
6286.00,0.73
6285.00,0.73
6284.00,0.73
6283.00,0.73
6282.00,0.73
6281.00,0.74
6280.00,0.74
6279.00,0.74
6278.00,0.74
6277.00,0.74
6276.00,0.74
6275.00,0.75
6274.00,0.75
6273.00,0.75
6272.00,0.75
6271.00,0.75
6270.00,0.75
6269.00,0.75
6268.00,0.76
6267.00,0.76
6266.00,0.76
6265.00,0.76
6264.00,0.76
6263.00,0.76
6262.00,0.76
6261.00,0.76
6260.00,0.76
6259.00,0.77
6258.00,0.77
6257.00,0.77
6256.00,0.77
6255.00,0.77
6254.00,0.77
6253.00,0.77
6252.00,0.77
6251.00,0.77
6250.00,0.77
6249.00,0.78
6248.00,0.78
6247.00,0.78
6246.00,0.78
6245.00,0.78
6244.00,0.78
6243.00,0.78
6242.00,0.78
6241.00,0.78
6240.00,0.78
6239.00,0.78
6238.00,0.78
6237.00,0.79
6236.00,0.79
6235.00,0.79
6234.00,0.79
6233.00,0.79
6232.00,0.79
6231.00,0.79
6230.00,0.79
6229.00,0.80
6228.00,0.80
6227.00,0.80
6226.00,0.80
6225.00,0.80
6224.00,0.80
6223.00,0.80
6222.00,0.80
6221.00,0.81
6220.00,0.81
6219.00,0.81
6218.00,0.81
6217.00,0.81
6216.00,0.81
6215.00,0.81
6214.00,0.81
6213.00,0.81
6212.00,0.81
6211.00,0.81
6210.00,0.81
6209.00,0.81
6208.00,0.81
6207.00,0.82
6206.00,0.82
6205.00,0.82
6204.00,0.82
6203.00,0.82
6202.00,0.82
6201.00,0.82
6200.00,0.82
6199.00,0.83
6198.00,0.83
6197.00,0.83
6196.00,0.83
6195.00,0.83
6194.00,0.83
6193.00,0.83
6192.00,0.84
6191.00,0.84
6190.00,0.84
6189.00,0.84
6188.00,0.84
6187.00,0.84
6186.00,0.84
6185.00,0.84
6184.00,0.85
6183.00,0.85
6182.00,0.85
6181.00,0.85
6180.00,0.85
6179.00,0.85
6178.00,0.85
6177.00,0.85
6176.00,0.86
6175.00,0.86
6174.00,0.86
6173.00,0.86
6172.00,0.86
6171.00,0.86
6170.00,0.86
6169.00,0.86
6168.00,0.87
6167.00,0.87
6166.00,0.87
6165.00,0.87
6164.00,0.87
6163.00,0.87
6162.00,0.87
6161.00,0.88
6160.00,0.88
6159.00,0.88
6158.00,0.88
6157.00,0.88
6156.00,0.88
6155.00,0.88
6154.00,0.88
6153.00,0.89
6152.00,0.89
6151.00,0.89
6150.00,0.89
6149.00,0.89
6148.00,0.89
6147.00,0.89
6146.00,0.89
6145.00,0.89
6144.00,0.89
6143.00,0.90
6142.00,0.90
6141.00,0.90
6140.00,0.90
6139.00,0.90
6138.00,0.90
6137.00,0.90
6136.00,0.91
6135.00,0.91
6134.00,0.91
6133.00,0.91
6132.00,0.91
6131.00,0.91
6130.00,0.92
6129.00,0.92
6128.00,0.92
6127.00,0.92
6126.00,0.92
6125.00,0.92
6124.00,0.92
6123.00,0.93
6122.00,0.93
6121.00,0.93
6120.00,0.93
6119.00,0.93
6118.00,0.93
6117.00,0.93
6116.00,0.93
6115.00,0.94
6114.00,0.94
6113.00,0.94
6112.00,0.94
6111.00,0.94
6110.00,0.94
6109.00,0.94
6108.00,0.94
6107.00,0.94
6106.00,0.94
6105.00,0.94
6104.00,0.95
6103.00,0.95
6102.00,0.95
6101.00,0.95
6100.00,0.95
6099.00,0.95
6098.00,0.95
6097.00,0.96
6096.00,0.96
6095.00,0.96
6094.00,0.96
6093.00,0.96
6092.00,0.96
6091.00,0.96
6090.00,0.97
6089.00,0.97
6088.00,0.97
6087.00,0.97
6086.00,0.97
6085.00,0.97
6084.00,0.97
6083.00,0.98
6082.00,0.98
6081.00,0.98
6080.00,0.98
6079.00,0.98
6078.00,0.98
6077.00,0.98
6076.00,0.98
6075.00,0.98
6074.00,0.98
6073.00,0.98
6072.00,0.99
6071.00,0.99
6070.00,0.99
6069.00,0.99
6068.00,0.99
6067.00,0.99
6066.00,0.99
6065.00,0.99
6064.00,0.99
6063.00,0.99
6062.00,0.99
6061.00,0.99
6060.00,0.99
6059.00,1.00
6058.00,1.00
6057.00,1.00
6056.00,1.00
6055.00,1.00
6054.00,1.00
6053.00,1.00
6052.00,1.00
6051.00,1.00
6050.00,1.00
6049.00,1.01
6048.00,1.01
6047.00,1.01
6046.00,1.01
6045.00,1.01
6044.00,1.01
6043.00,1.01
6042.00,1.01
6041.00,1.01
6040.00,1.01
6039.00,1.01
6038.00,1.01
6037.00,1.01
6036.00,1.01
6035.00,1.01
6034.00,1.01
6033.00,1.01
6032.00,1.01
6031.00,1.01
6030.00,1.01
6029.00,1.02
6028.00,1.02
6027.00,1.02
6026.00,1.02
6025.00,1.02
6024.00,1.02
6023.00,1.02
6022.00,1.02
6021.00,1.02
6020.00,1.02
6019.00,1.02
6018.00,1.02
6017.00,1.02
6016.00,1.02
6015.00,1.02
6014.00,1.02
6013.00,1.02
6012.00,1.02
6011.00,1.02
6010.00,1.02
6009.00,1.02
6008.00,1.02
6007.00,1.02
6006.00,1.02
6005.00,1.02
6004.00,1.02
6003.00,1.02
6002.00,1.02
6001.00,1.02
6000.00,1.02
5999.00,1.01
5998.00,1.01
5997.00,1.01
5996.00,1.01
5995.00,1.01
5994.00,1.01
5993.00,1.01
5992.00,1.01
5991.00,1.01
5990.00,1.00
5989.00,1.00
5988.00,1.00
5987.00,1.00
5986.00,0.99
5985.00,0.99
5984.00,0.99
5983.00,0.99
5982.00,0.98
5981.00,0.98
5980.00,0.98
5979.00,0.97
5978.00,0.97
5977.00,0.96
5976.00,0.96
5975.00,0.96
5974.00,0.95
5973.00,0.95
5972.00,0.94
5971.00,0.94
5970.00,0.93
5969.00,0.93
5968.00,0.92
5967.00,0.91
5966.00,0.91
5965.00,0.90
5964.00,0.89
5963.00,0.89
5962.00,0.88
5961.00,0.87
5960.00,0.87
5959.00,0.86
5958.00,0.85
5957.00,0.85
5956.00,0.84
5955.00,0.83
5954.00,0.83
5953.00,0.82
5952.00,0.82
5951.00,0.81
5950.00,0.81
5949.00,0.80
5948.00,0.80
5947.00,0.80
5946.00,0.79
5945.00,0.79
5944.00,0.79
5943.00,0.78
5942.00,0.78
5941.00,0.78
5940.00,0.78
5939.00,0.78
5938.00,0.77
5937.00,0.77
5936.00,0.77
5935.00,0.77
5934.00,0.77
5933.00,0.77
5932.00,0.77
5931.00,0.77
5930.00,0.77
5929.00,0.77
5928.00,0.77
5927.00,0.76
5926.00,0.76
5925.00,0.76
5924.00,0.76
5923.00,0.76
5922.00,0.76
5921.00,0.76
5920.00,0.75
5919.00,0.75
5918.00,0.75
5917.00,0.75
5916.00,0.74
5915.00,0.74
5914.00,0.74
5913.00,0.74
5912.00,0.73
5911.00,0.73
5910.00,0.73
5909.00,0.73
5908.00,0.73
5907.00,0.72
5906.00,0.72
5905.00,0.72
5904.00,0.72
5903.00,0.72
5902.00,0.72
5901.00,0.72
5900.00,0.72
5899.00,0.72
5898.00,0.72
5897.00,0.72
5896.00,0.72
5895.00,0.72
5894.00,0.72
5893.00,0.73
5892.00,0.73
5891.00,0.73
5890.00,0.73
5889.00,0.73
5888.00,0.74
5887.00,0.74
5886.00,0.74
5885.00,0.75
5884.00,0.75
5883.00,0.75
5882.00,0.75
5881.00,0.76
5880.00,0.76
5879.00,0.76
5878.00,0.77
5877.00,0.77
5876.00,0.77
5875.00,0.77
5874.00,0.78
5873.00,0.78
5872.00,0.78
5871.00,0.78
5870.00,0.78
5869.00,0.78
5868.00,0.79
5867.00,0.79
5866.00,0.79
5865.00,0.79
5864.00,0.79
5863.00,0.79
5862.00,0.79
5861.00,0.79
5860.00,0.79
5859.00,0.79
5858.00,0.79
5857.00,0.79
5856.00,0.79
5855.00,0.80
5854.00,0.80
5853.00,0.80
5852.00,0.80
5851.00,0.80
5850.00,0.80
5849.00,0.80
5848.00,0.80
5847.00,0.80
5846.00,0.80
5845.00,0.80
5844.00,0.80
5843.00,0.80
5842.00,0.80
5841.00,0.80
5840.00,0.80
5839.00,0.80
5838.00,0.80
5837.00,0.80
5836.00,0.80
5835.00,0.80
5834.00,0.80
5833.00,0.80
5832.00,0.80
5831.00,0.80
5830.00,0.80
5829.00,0.80
5828.00,0.80
5827.00,0.80
5826.00,0.80
5825.00,0.80
5824.00,0.80
5823.00,0.80
5822.00,0.80
5821.00,0.80
5820.00,0.80
5819.00,0.80
5818.00,0.80
5817.00,0.80
5816.00,0.81
5815.00,0.81
5814.00,0.81
5813.00,0.81
5812.00,0.81
5811.00,0.81
5810.00,0.81
5809.00,0.81
5808.00,0.81
5807.00,0.81
5806.00,0.81
5805.00,0.81
5804.00,0.81
5803.00,0.81
5802.00,0.81
5801.00,0.80
5800.00,0.80
5799.00,0.80
5798.00,0.80
5797.00,0.80
5796.00,0.80
5795.00,0.80
5794.00,0.80
5793.00,0.80
5792.00,0.79
5791.00,0.79
5790.00,0.79
5789.00,0.79
5788.00,0.79
5787.00,0.78
5786.00,0.78
5785.00,0.78
5784.00,0.78
5783.00,0.78
5782.00,0.77
5781.00,0.77
5780.00,0.77
5779.00,0.77
5778.00,0.77
5777.00,0.77
5776.00,0.77
5775.00,0.77
5774.00,0.77
5773.00,0.76
5772.00,0.76
5771.00,0.76
5770.00,0.76
5769.00,0.76
5768.00,0.76
5767.00,0.77
5766.00,0.77
5765.00,0.77
5764.00,0.77
5763.00,0.77
5762.00,0.77
5761.00,0.77
5760.00,0.78
5759.00,0.78
5758.00,0.78
5757.00,0.78
5756.00,0.79
5755.00,0.79
5754.00,0.79
5753.00,0.80
5752.00,0.80
5751.00,0.80
5750.00,0.81
5749.00,0.81
5748.00,0.81
5747.00,0.82
5746.00,0.82
5745.00,0.82
5744.00,0.83
5743.00,0.83
5742.00,0.83
5741.00,0.84
5740.00,0.84
5739.00,0.84
5738.00,0.84
5737.00,0.85
5736.00,0.85
5735.00,0.85
5734.00,0.85
5733.00,0.86
5732.00,0.86
5731.00,0.86
5730.00,0.86
5729.00,0.86
5728.00,0.86
5727.00,0.86
5726.00,0.86
5725.00,0.86
5724.00,0.87
5723.00,0.87
5722.00,0.87
5721.00,0.87
5720.00,0.87
5719.00,0.87
5718.00,0.87
5717.00,0.87
5716.00,0.87
5715.00,0.87
5714.00,0.87
5713.00,0.87
5712.00,0.87
5711.00,0.87
5710.00,0.87
5709.00,0.87
5708.00,0.87
5707.00,0.86
5706.00,0.86
5705.00,0.86
5704.00,0.86
5703.00,0.86
5702.00,0.86
5701.00,0.86
5700.00,0.86
5699.00,0.86
5698.00,0.86
5697.00,0.86
5696.00,0.85
5695.00,0.85
5694.00,0.85
5693.00,0.85
5692.00,0.85
5691.00,0.85
5690.00,0.85
5689.00,0.85
5688.00,0.85
5687.00,0.85
5686.00,0.85
5685.00,0.84
5684.00,0.84
5683.00,0.84
5682.00,0.84
5681.00,0.84
5680.00,0.84
5679.00,0.84
5678.00,0.84
5677.00,0.84
5676.00,0.84
5675.00,0.84
5674.00,0.84
5673.00,0.84
5672.00,0.84
5671.00,0.84
5670.00,0.84
5669.00,0.84
5668.00,0.84
5667.00,0.84
5666.00,0.84
5665.00,0.84
5664.00,0.84
5663.00,0.85
5662.00,0.85
5661.00,0.85
5660.00,0.85
5659.00,0.85
5658.00,0.85
5657.00,0.85
5656.00,0.86
5655.00,0.86
5654.00,0.86
5653.00,0.86
5652.00,0.86
5651.00,0.87
5650.00,0.87
5649.00,0.87
5648.00,0.87
5647.00,0.87
5646.00,0.88
5645.00,0.88
5644.00,0.88
5643.00,0.88
5642.00,0.88
5641.00,0.89
5640.00,0.89
5639.00,0.89
5638.00,0.89
5637.00,0.89
5636.00,0.89
5635.00,0.90
5634.00,0.90
5633.00,0.90
5632.00,0.90
5631.00,0.90
5630.00,0.90
5629.00,0.90
5628.00,0.90
5627.00,0.91
5626.00,0.91
5625.00,0.91
5624.00,0.91
5623.00,0.91
5622.00,0.91
5621.00,0.91
5620.00,0.91
5619.00,0.92
5618.00,0.92
5617.00,0.92
5616.00,0.92
5615.00,0.92
5614.00,0.92
5613.00,0.92
5612.00,0.92
5611.00,0.93
5610.00,0.93
5609.00,0.93
5608.00,0.93
5607.00,0.93
5606.00,0.93
5605.00,0.93
5604.00,0.93
5603.00,0.94
5602.00,0.94
5601.00,0.94
5600.00,0.94
5599.00,0.94
5598.00,0.94
5597.00,0.94
5596.00,0.95
5595.00,0.95
5594.00,0.95
5593.00,0.95
5592.00,0.95
5591.00,0.96
5590.00,0.96
5589.00,0.96
5588.00,0.96
5587.00,0.96
5586.00,0.97
5585.00,0.97
5584.00,0.97
5583.00,0.97
5582.00,0.97
5581.00,0.98
5580.00,0.98
5579.00,0.98
5578.00,0.98
5577.00,0.98
5576.00,0.98
5575.00,0.99
5574.00,0.99
5573.00,0.99
5572.00,0.99
5571.00,0.99
5570.00,0.99
5569.00,0.99
5568.00,0.99
5567.00,1.00
5566.00,1.00
5565.00,1.00
5564.00,1.00
5563.00,1.00
5562.00,1.00
5561.00,1.00
5560.00,1.00
5559.00,1.00
5558.00,1.00
5557.00,1.00
5556.00,1.00
5555.00,1.01
5554.00,1.01
5553.00,1.01
5552.00,1.01
5551.00,1.01
5550.00,1.01
5549.00,1.01
5548.00,1.01
5547.00,1.01
5546.00,1.01
5545.00,1.02
5544.00,1.02
5543.00,1.02
5542.00,1.02
5541.00,1.02
5540.00,1.02
5539.00,1.03
5538.00,1.03
5537.00,1.03
5536.00,1.03
5535.00,1.03
5534.00,1.03
5533.00,1.04
5532.00,1.04
5531.00,1.04
5530.00,1.04
5529.00,1.04
5528.00,1.04
5527.00,1.04
5526.00,1.04
5525.00,1.04
5524.00,1.05
5523.00,1.05
5522.00,1.05
5521.00,1.05
5520.00,1.05
5519.00,1.05
5518.00,1.05
5517.00,1.05
5516.00,1.05
5515.00,1.05
5514.00,1.05
5513.00,1.05
5512.00,1.05
5511.00,1.05
5510.00,1.05
5509.00,1.05
5508.00,1.05
5507.00,1.05
5506.00,1.05
5505.00,1.05
5504.00,1.05
5503.00,1.06
5502.00,1.06
5501.00,1.06
5500.00,1.06
5499.00,1.06
5498.00,1.06
5497.00,1.06
5496.00,1.06
5495.00,1.06
5494.00,1.06
5493.00,1.06
5492.00,1.06
5491.00,1.06
5490.00,1.07
5489.00,1.07
5488.00,1.07
5487.00,1.07
5486.00,1.07
5485.00,1.07
5484.00,1.07
5483.00,1.07
5482.00,1.07
5481.00,1.07
5480.00,1.08
5479.00,1.08
5478.00,1.08
5477.00,1.08
5476.00,1.08
5475.00,1.08
5474.00,1.08
5473.00,1.08
5472.00,1.08
5471.00,1.08
5470.00,1.09
5469.00,1.09
5468.00,1.09
5467.00,1.09
5466.00,1.09
5465.00,1.09
5464.00,1.09
5463.00,1.09
5462.00,1.10
5461.00,1.10
5460.00,1.10
5459.00,1.10
5458.00,1.10
5457.00,1.10
5456.00,1.10
5455.00,1.10
5454.00,1.11
5453.00,1.11
5452.00,1.11
5451.00,1.11
5450.00,1.11
5449.00,1.11
5448.00,1.11
5447.00,1.11
5446.00,1.11
5445.00,1.11
5444.00,1.11
5443.00,1.11
5442.00,1.11
5441.00,1.11
5440.00,1.11
5439.00,1.11
5438.00,1.11
5437.00,1.11
5436.00,1.11
5435.00,1.11
5434.00,1.11
5433.00,1.11
5432.00,1.11
5431.00,1.11
5430.00,1.11
5429.00,1.11
5428.00,1.11
5427.00,1.11
5426.00,1.11
5425.00,1.11
5424.00,1.11
5423.00,1.11
5422.00,1.11
5421.00,1.11
5420.00,1.11
5419.00,1.11
5418.00,1.11
5417.00,1.11
5416.00,1.11
5415.00,1.11
5414.00,1.11
5413.00,1.11
5412.00,1.11
5411.00,1.11
5410.00,1.11
5409.00,1.11
5408.00,1.11
5407.00,1.11
5406.00,1.11
5405.00,1.11
5404.00,1.11
5403.00,1.11
5402.00,1.11
5401.00,1.11
5400.00,1.11
5399.00,1.11
5398.00,1.11
5397.00,1.11
5396.00,1.11
5395.00,1.11
5394.00,1.11
5393.00,1.11
5392.00,1.11
5391.00,1.11
5390.00,1.10
5389.00,1.10
5388.00,1.10
5387.00,1.10
5386.00,1.10
5385.00,1.10
5384.00,1.09
5383.00,1.09
5382.00,1.09
5381.00,1.09
5380.00,1.08
5379.00,1.08
5378.00,1.08
5377.00,1.07
5376.00,1.07
5375.00,1.07
5374.00,1.06
5373.00,1.06
5372.00,1.06
5371.00,1.05
5370.00,1.05
5369.00,1.04
5368.00,1.04
5367.00,1.03
5366.00,1.03
5365.00,1.02
5364.00,1.02
5363.00,1.01
5362.00,1.01
5361.00,1.00
5360.00,1.00
5359.00,0.99
5358.00,0.98
5357.00,0.98
5356.00,0.97
5355.00,0.97
5354.00,0.96
5353.00,0.95
5352.00,0.95
5351.00,0.94
5350.00,0.93
5349.00,0.92
5348.00,0.92
5347.00,0.91
5346.00,0.90
5345.00,0.89
5344.00,0.89
5343.00,0.88
5342.00,0.87
5341.00,0.86
5340.00,0.85
5339.00,0.84
5338.00,0.84
5337.00,0.83
5336.00,0.82
5335.00,0.81
5334.00,0.80
5333.00,0.79
5332.00,0.79
5331.00,0.78
5330.00,0.77
5329.00,0.76
5328.00,0.75
5327.00,0.74
5326.00,0.74
5325.00,0.73
5324.00,0.72
5323.00,0.71
5322.00,0.70
5321.00,0.69
5320.00,0.69
5319.00,0.68
5318.00,0.67
5317.00,0.66
5316.00,0.66
5315.00,0.65
5314.00,0.64
5313.00,0.64
5312.00,0.63
5311.00,0.62
5310.00,0.62
5309.00,0.61
5308.00,0.60
5307.00,0.60
5306.00,0.59
5305.00,0.59
5304.00,0.59
5303.00,0.58
5302.00,0.58
5301.00,0.57
5300.00,0.57
5299.00,0.57
5298.00,0.57
5297.00,0.56
5296.00,0.56
5295.00,0.56
5294.00,0.56
5293.00,0.56
5292.00,0.55
5291.00,0.55
5290.00,0.55
5289.00,0.55
5288.00,0.55
5287.00,0.55
5286.00,0.55
5285.00,0.55
5284.00,0.54
5283.00,0.54
5282.00,0.54
5281.00,0.54
5280.00,0.54
5279.00,0.54
5278.00,0.54
5277.00,0.54
5276.00,0.54
5275.00,0.54
5274.00,0.54
5273.00,0.54
5272.00,0.54
5271.00,0.54
5270.00,0.54
5269.00,0.54
5268.00,0.54
5267.00,0.53
5266.00,0.53
5265.00,0.53
5264.00,0.53
5263.00,0.53
5262.00,0.53
5261.00,0.53
5260.00,0.53
5259.00,0.53
5258.00,0.53
5257.00,0.53
5256.00,0.53
5255.00,0.53
5254.00,0.53
5253.00,0.53
5252.00,0.53
5251.00,0.53
5250.00,0.53
5249.00,0.53
5248.00,0.53
5247.00,0.53
5246.00,0.53
5245.00,0.53
5244.00,0.53
5243.00,0.53
5242.00,0.53
5241.00,0.53
5240.00,0.53
5239.00,0.53
5238.00,0.53
5237.00,0.53
5236.00,0.53
5235.00,0.53
5234.00,0.54
5233.00,0.54
5232.00,0.54
5231.00,0.54
5230.00,0.54
5229.00,0.54
5228.00,0.54
5227.00,0.54
5226.00,0.54
5225.00,0.54
5224.00,0.54
5223.00,0.54
5222.00,0.54
5221.00,0.54
5220.00,0.54
5219.00,0.54
5218.00,0.54
5217.00,0.54
5216.00,0.54
5215.00,0.54
5214.00,0.54
5213.00,0.54
5212.00,0.54
5211.00,0.54
5210.00,0.54
5209.00,0.54
5208.00,0.54
5207.00,0.54
5206.00,0.54
5205.00,0.54
5204.00,0.54
5203.00,0.54
5202.00,0.54
5201.00,0.54
5200.00,0.54
5199.00,0.54
5198.00,0.54
5197.00,0.54
5196.00,0.54
5195.00,0.54
5194.00,0.54
5193.00,0.54
5192.00,0.54
5191.00,0.54
5190.00,0.54
5189.00,0.54
5188.00,0.54
5187.00,0.54
5186.00,0.54
5185.00,0.54
5184.00,0.55
5183.00,0.55
5182.00,0.55
5181.00,0.55
5180.00,0.55
5179.00,0.55
5178.00,0.55
5177.00,0.55
5176.00,0.55
5175.00,0.55
5174.00,0.55
5173.00,0.55
5172.00,0.55
5171.00,0.55
5170.00,0.55
5169.00,0.55
5168.00,0.55
5167.00,0.55
5166.00,0.55
5165.00,0.55
5164.00,0.55
5163.00,0.55
5162.00,0.55
5161.00,0.55
5160.00,0.55
5159.00,0.55
5158.00,0.55
5157.00,0.55
5156.00,0.55
5155.00,0.55
5154.00,0.56
5153.00,0.56
5152.00,0.56
5151.00,0.56
5150.00,0.56
5149.00,0.56
5148.00,0.56
5147.00,0.56
5146.00,0.56
5145.00,0.56
5144.00,0.56
5143.00,0.56
5142.00,0.56
5141.00,0.56
5140.00,0.56
5139.00,0.56
5138.00,0.56
5137.00,0.56
5136.00,0.56
5135.00,0.56
5134.00,0.56
5133.00,0.56
5132.00,0.56
5131.00,0.56
5130.00,0.56
5129.00,0.56
5128.00,0.56
5127.00,0.56
5126.00,0.57
5125.00,0.57
5124.00,0.57
5123.00,0.57
5122.00,0.57
5121.00,0.57
5120.00,0.57
5119.00,0.57
5118.00,0.57
5117.00,0.57
5116.00,0.57
5115.00,0.57
5114.00,0.57
5113.00,0.57
5112.00,0.57
5111.00,0.58
5110.00,0.58
5109.00,0.58
5108.00,0.58
5107.00,0.58
5106.00,0.58
5105.00,0.58
5104.00,0.58
5103.00,0.58
5102.00,0.58
5101.00,0.58
5100.00,0.58
5099.00,0.58
5098.00,0.58
5097.00,0.58
5096.00,0.58
5095.00,0.58
5094.00,0.58
5093.00,0.58
5092.00,0.58
5091.00,0.59
5090.00,0.59
5089.00,0.59
5088.00,0.59
5087.00,0.59
5086.00,0.59
5085.00,0.59
5084.00,0.59
5083.00,0.59
5082.00,0.59
5081.00,0.59
5080.00,0.59
5079.00,0.59
5078.00,0.59
5077.00,0.59
5076.00,0.59
5075.00,0.59
5074.00,0.59
5073.00,0.59
5072.00,0.59
5071.00,0.59
5070.00,0.59
5069.00,0.59
5068.00,0.59
5067.00,0.59
5066.00,0.60
5065.00,0.60
5064.00,0.60
5063.00,0.60
5062.00,0.60
5061.00,0.60
5060.00,0.60
5059.00,0.60
5058.00,0.60
5057.00,0.60
5056.00,0.60
5055.00,0.60
5054.00,0.60
5053.00,0.60
5052.00,0.60
5051.00,0.61
5050.00,0.61
5049.00,0.61
5048.00,0.61
5047.00,0.61
5046.00,0.61
5045.00,0.61
5044.00,0.61
5043.00,0.61
5042.00,0.61
5041.00,0.61
5040.00,0.61
5039.00,0.61
5038.00,0.61
5037.00,0.61
5036.00,0.61
5035.00,0.61
5034.00,0.61
5033.00,0.61
5032.00,0.61
5031.00,0.61
5030.00,0.61
5029.00,0.61
5028.00,0.61
5027.00,0.61
5026.00,0.61
5025.00,0.61
5024.00,0.61
5023.00,0.62
5022.00,0.62
5021.00,0.62
5020.00,0.62
5019.00,0.62
5018.00,0.62
5017.00,0.62
5016.00,0.62
5015.00,0.62
5014.00,0.62
5013.00,0.62
5012.00,0.62
5011.00,0.62
5010.00,0.62
5009.00,0.62
5008.00,0.63
5007.00,0.63
5006.00,0.63
5005.00,0.63
5004.00,0.63
5003.00,0.63
5002.00,0.63
5001.00,0.63
5000.00,0.63
4999.00,0.63
4998.00,0.63
4997.00,0.63
4996.00,0.63
4995.00,0.63
4994.00,0.63
4993.00,0.63
4992.00,0.63
4991.00,0.64
4990.00,0.64
4989.00,0.64
4988.00,0.64
4987.00,0.64
4986.00,0.64
4985.00,0.64
4984.00,0.64
4983.00,0.64
4982.00,0.64
4981.00,0.64
4980.00,0.64
4979.00,0.64
4978.00,0.64
4977.00,0.64
4976.00,0.64
4975.00,0.64
4974.00,0.64
4973.00,0.64
4972.00,0.64
4971.00,0.64
4970.00,0.65
4969.00,0.65
4968.00,0.65
4967.00,0.65
4966.00,0.65
4965.00,0.65
4964.00,0.65
4963.00,0.65
4962.00,0.65
4961.00,0.65
4960.00,0.65
4959.00,0.65
4958.00,0.65
4957.00,0.66
4956.00,0.66
4955.00,0.66
4954.00,0.66
4953.00,0.66
4952.00,0.66
4951.00,0.66
4950.00,0.66
4949.00,0.66
4948.00,0.66
4947.00,0.66
4946.00,0.67
4945.00,0.67
4944.00,0.67
4943.00,0.67
4942.00,0.67
4941.00,0.67
4940.00,0.67
4939.00,0.67
4938.00,0.67
4937.00,0.67
4936.00,0.67
4935.00,0.67
4934.00,0.67
4933.00,0.67
4932.00,0.67
4931.00,0.67
4930.00,0.67
4929.00,0.68
4928.00,0.68
4927.00,0.68
4926.00,0.68
4925.00,0.68
4924.00,0.68
4923.00,0.68
4922.00,0.68
4921.00,0.68
4920.00,0.68
4919.00,0.68
4918.00,0.68
4917.00,0.68
4916.00,0.68
4915.00,0.68
4914.00,0.68
4913.00,0.68
4912.00,0.68
4911.00,0.68
4910.00,0.68
4909.00,0.68
4908.00,0.69
4907.00,0.69
4906.00,0.69
4905.00,0.69
4904.00,0.69
4903.00,0.69
4902.00,0.69
4901.00,0.69
4900.00,0.69
4899.00,0.69
4898.00,0.69
4897.00,0.69
4896.00,0.69
4895.00,0.69
4894.00,0.69
4893.00,0.69
4892.00,0.69
4891.00,0.69
4890.00,0.69
4889.00,0.69
4888.00,0.69
4887.00,0.69
4886.00,0.69
4885.00,0.69
4884.00,0.70
4883.00,0.70
4882.00,0.70
4881.00,0.70
4880.00,0.70
4879.00,0.70
4878.00,0.70
4877.00,0.70
4876.00,0.70
4875.00,0.70
4874.00,0.70
4873.00,0.70
4872.00,0.70
4871.00,0.70
4870.00,0.70
4869.00,0.70
4868.00,0.70
4867.00,0.70
4866.00,0.70
4865.00,0.70
4864.00,0.70
4863.00,0.70
4862.00,0.70
4861.00,0.70
4860.00,0.70
4859.00,0.70
4858.00,0.70
4857.00,0.70
4856.00,0.70
4855.00,0.70
4854.00,0.70
4853.00,0.70
4852.00,0.71
4851.00,0.71
4850.00,0.71
4849.00,0.71
4848.00,0.71
4847.00,0.71
4846.00,0.71
4845.00,0.71
4844.00,0.71
4843.00,0.71
4842.00,0.71
4841.00,0.71
4840.00,0.71
4839.00,0.72
4838.00,0.72
4837.00,0.72
4836.00,0.72
4835.00,0.72
4834.00,0.72
4833.00,0.72
4832.00,0.72
4831.00,0.72
4830.00,0.72
4829.00,0.72
4828.00,0.72
4827.00,0.72
4826.00,0.73
4825.00,0.73
4824.00,0.73
4823.00,0.73
4822.00,0.73
4821.00,0.73
4820.00,0.73
4819.00,0.73
4818.00,0.73
4817.00,0.73
4816.00,0.73
4815.00,0.73
4814.00,0.73
4813.00,0.73
4812.00,0.73
4811.00,0.73
4810.00,0.73
4809.00,0.73
4808.00,0.73
4807.00,0.73
4806.00,0.73
4805.00,0.74
4804.00,0.74
4803.00,0.74
4802.00,0.74
4801.00,0.74
4800.00,0.74
4799.00,0.74
4798.00,0.74
4797.00,0.74
4796.00,0.74
4795.00,0.75
4794.00,0.75
4793.00,0.75
4792.00,0.75
4791.00,0.75
4790.00,0.75
4789.00,0.75
4788.00,0.75
4787.00,0.75
4786.00,0.75
4785.00,0.75
4784.00,0.75
4783.00,0.75
4782.00,0.76
4781.00,0.76
4780.00,0.76
4779.00,0.76
4778.00,0.76
4777.00,0.76
4776.00,0.76
4775.00,0.76
4774.00,0.76
4773.00,0.77
4772.00,0.77
4771.00,0.77
4770.00,0.77
4769.00,0.77
4768.00,0.77
4767.00,0.77
4766.00,0.77
4765.00,0.77
4764.00,0.77
4763.00,0.77
4762.00,0.77
4761.00,0.77
4760.00,0.77
4759.00,0.77
4758.00,0.77
4757.00,0.77
4756.00,0.77
4755.00,0.78
4754.00,0.78
4753.00,0.78
4752.00,0.78
4751.00,0.78
4750.00,0.78
4749.00,0.78
4748.00,0.78
4747.00,0.78
4746.00,0.79
4745.00,0.79
4744.00,0.79
4743.00,0.79
4742.00,0.79
4741.00,0.79
4740.00,0.79
4739.00,0.79
4738.00,0.80
4737.00,0.80
4736.00,0.80
4735.00,0.80
4734.00,0.80
4733.00,0.80
4732.00,0.80
4731.00,0.80
4730.00,0.80
4729.00,0.80
4728.00,0.80
4727.00,0.80
4726.00,0.80
4725.00,0.81
4724.00,0.81
4723.00,0.81
4722.00,0.81
4721.00,0.81
4720.00,0.81
4719.00,0.81
4718.00,0.81
4717.00,0.81
4716.00,0.82
4715.00,0.82
4714.00,0.82
4713.00,0.82
4712.00,0.82
4711.00,0.82
4710.00,0.82
4709.00,0.82
4708.00,0.83
4707.00,0.83
4706.00,0.83
4705.00,0.83
4704.00,0.83
4703.00,0.83
4702.00,0.83
4701.00,0.84
4700.00,0.84
4699.00,0.84
4698.00,0.84
4697.00,0.84
4696.00,0.84
4695.00,0.84
4694.00,0.85
4693.00,0.85
4692.00,0.85
4691.00,0.85
4690.00,0.85
4689.00,0.85
4688.00,0.85
4687.00,0.86
4686.00,0.86
4685.00,0.86
4684.00,0.86
4683.00,0.86
4682.00,0.86
4681.00,0.86
4680.00,0.86
4679.00,0.86
4678.00,0.86
4677.00,0.87
4676.00,0.87
4675.00,0.87
4674.00,0.87
4673.00,0.87
4672.00,0.87
4671.00,0.87
4670.00,0.87
4669.00,0.87
4668.00,0.87
4667.00,0.87
4666.00,0.87
4665.00,0.88
4664.00,0.88
4663.00,0.88
4662.00,0.88
4661.00,0.88
4660.00,0.88
4659.00,0.88
4658.00,0.88
4657.00,0.89
4656.00,0.89
4655.00,0.89
4654.00,0.89
4653.00,0.89
4652.00,0.89
4651.00,0.89
4650.00,0.90
4649.00,0.90
4648.00,0.90
4647.00,0.90
4646.00,0.90
4645.00,0.90
4644.00,0.90
4643.00,0.90
4642.00,0.90
4641.00,0.90
4640.00,0.90
4639.00,0.90
4638.00,0.90
4637.00,0.90
4636.00,0.90
4635.00,0.90
4634.00,0.90
4633.00,0.90
4632.00,0.90
4631.00,0.90
4630.00,0.90
4629.00,0.90
4628.00,0.90
4627.00,0.90
4626.00,0.90
4625.00,0.90
4624.00,0.90
4623.00,0.90
4622.00,0.90
4621.00,0.90
4620.00,0.90
4619.00,0.90
4618.00,0.90
4617.00,0.91
4616.00,0.91
4615.00,0.91
4614.00,0.91
4613.00,0.91
4612.00,0.91
4611.00,0.91
4610.00,0.91
4609.00,0.91
4608.00,0.92
4607.00,0.92
4606.00,0.92
4605.00,0.92
4604.00,0.92
4603.00,0.92
4602.00,0.93
4601.00,0.93
4600.00,0.93
4599.00,0.93
4598.00,0.93
4597.00,0.93
4596.00,0.93
4595.00,0.93
4594.00,0.93
4593.00,0.93
4592.00,0.93
4591.00,0.94
4590.00,0.94
4589.00,0.94
4588.00,0.94
4587.00,0.94
4586.00,0.94
4585.00,0.94
4584.00,0.94
4583.00,0.94
4582.00,0.94
4581.00,0.94
4580.00,0.94
4579.00,0.94
4578.00,0.94
4577.00,0.94
4576.00,0.94
4575.00,0.94
4574.00,0.94
4573.00,0.94
4572.00,0.94
4571.00,0.94
4570.00,0.94
4569.00,0.94
4568.00,0.95
4567.00,0.95
4566.00,0.95
4565.00,0.95
4564.00,0.95
4563.00,0.95
4562.00,0.95
4561.00,0.96
4560.00,0.96
4559.00,0.96
4558.00,0.96
4557.00,0.96
4556.00,0.96
4555.00,0.96
4554.00,0.96
4553.00,0.97
4552.00,0.97
4551.00,0.97
4550.00,0.97
4549.00,0.97
4548.00,0.97
4547.00,0.97
4546.00,0.97
4545.00,0.97
4544.00,0.97
4543.00,0.97
4542.00,0.97
4541.00,0.97
4540.00,0.97
4539.00,0.97
4538.00,0.97
4537.00,0.97
4536.00,0.97
4535.00,0.97
4534.00,0.97
4533.00,0.97
4532.00,0.97
4531.00,0.97
4530.00,0.97
4529.00,0.97
4528.00,0.97
4527.00,0.97
4526.00,0.97
4525.00,0.97
4524.00,0.97
4523.00,0.97
4522.00,0.97
4521.00,0.97
4520.00,0.97
4519.00,0.97
4518.00,0.97
4517.00,0.97
4516.00,0.97
4515.00,0.97
4514.00,0.97
4513.00,0.97
4512.00,0.97
4511.00,0.97
4510.00,0.97
4509.00,0.97
4508.00,0.97
4507.00,0.97
4506.00,0.97
4505.00,0.97
4504.00,0.97
4503.00,0.97
4502.00,0.97
4501.00,0.97
4500.00,0.97
4499.00,0.97
4498.00,0.97
4497.00,0.97
4496.00,0.97
4495.00,0.97
4494.00,0.97
4493.00,0.97
4492.00,0.97
4491.00,0.97
4490.00,0.97
4489.00,0.97
4488.00,0.97
4487.00,0.97
4486.00,0.97
4485.00,0.97
4484.00,0.97
4483.00,0.97
4482.00,0.97
4481.00,0.97
4480.00,0.97
4479.00,0.97
4478.00,0.97
4477.00,0.96
4476.00,0.96
4475.00,0.96
4474.00,0.96
4473.00,0.96
4472.00,0.96
4471.00,0.96
4470.00,0.95
4469.00,0.95
4468.00,0.95
4467.00,0.95
4466.00,0.95
4465.00,0.94
4464.00,0.94
4463.00,0.94
4462.00,0.94
4461.00,0.93
4460.00,0.93
4459.00,0.93
4458.00,0.92
4457.00,0.92
4456.00,0.92
4455.00,0.92
4454.00,0.91
4453.00,0.91
4452.00,0.91
4451.00,0.91
4450.00,0.90
4449.00,0.90
4448.00,0.90
4447.00,0.90
4446.00,0.90
4445.00,0.89
4444.00,0.89
4443.00,0.89
4442.00,0.89
4441.00,0.89
4440.00,0.88
4439.00,0.88
4438.00,0.88
4437.00,0.88
4436.00,0.88
4435.00,0.88
4434.00,0.87
4433.00,0.87
4432.00,0.87
4431.00,0.87
4430.00,0.87
4429.00,0.87
4428.00,0.87
4427.00,0.87
4426.00,0.86
4425.00,0.86
4424.00,0.86
4423.00,0.86
4422.00,0.86
4421.00,0.87
4420.00,0.87
4419.00,0.87
4418.00,0.87
4417.00,0.87
4416.00,0.87
4415.00,0.87
4414.00,0.87
4413.00,0.87
4412.00,0.87
4411.00,0.87
4410.00,0.87
4409.00,0.87
4408.00,0.87
4407.00,0.87
4406.00,0.87
4405.00,0.88
4404.00,0.88
4403.00,0.88
4402.00,0.88
4401.00,0.88
4400.00,0.88
4399.00,0.88
4398.00,0.88
4397.00,0.88
4396.00,0.88
4395.00,0.88
4394.00,0.88
4393.00,0.88
4392.00,0.88
4391.00,0.88
4390.00,0.88
4389.00,0.88
4388.00,0.89
4387.00,0.89
4386.00,0.89
4385.00,0.89
4384.00,0.89
4383.00,0.89
4382.00,0.89
4381.00,0.89
4380.00,0.89
4379.00,0.90
4378.00,0.90
4377.00,0.90
4376.00,0.90
4375.00,0.90
4374.00,0.90
4373.00,0.90
4372.00,0.90
4371.00,0.90
4370.00,0.90
4369.00,0.90
4368.00,0.90
4367.00,0.90
4366.00,0.90
4365.00,0.90
4364.00,0.90
4363.00,0.90
4362.00,0.90
4361.00,0.90
4360.00,0.90
4359.00,0.90
4358.00,0.90
4357.00,0.90
4356.00,0.90
4355.00,0.90
4354.00,0.90
4353.00,0.90
4352.00,0.90
4351.00,0.90
4350.00,0.90
4349.00,0.90
4348.00,0.90
4347.00,0.90
4346.00,0.90
4345.00,0.90
4344.00,0.90
4343.00,0.90
4342.00,0.90
4341.00,0.90
4340.00,0.90
4339.00,0.90
4338.00,0.90
4337.00,0.91
4336.00,0.91
4335.00,0.91
4334.00,0.91
4333.00,0.91
4332.00,0.91
4331.00,0.91
4330.00,0.91
4329.00,0.91
4328.00,0.91
4327.00,0.91
4326.00,0.91
4325.00,0.91
4324.00,0.92
4323.00,0.92
4322.00,0.92
4321.00,0.92
4320.00,0.92
4319.00,0.92
4318.00,0.92
4317.00,0.92
4316.00,0.92
4315.00,0.92
4314.00,0.92
4313.00,0.92
4312.00,0.92
4311.00,0.92
4310.00,0.92
4309.00,0.93
4308.00,0.93
4307.00,0.93
4306.00,0.93
4305.00,0.93
4304.00,0.93
4303.00,0.93
4302.00,0.93
4301.00,0.94
4300.00,0.94
4299.00,0.94
4298.00,0.94
4297.00,0.94
4296.00,0.94
4295.00,0.94
4294.00,0.94
4293.00,0.94
4292.00,0.94
4291.00,0.94
4290.00,0.94
4289.00,0.94
4288.00,0.94
4287.00,0.95
4286.00,0.95
4285.00,0.95
4284.00,0.95
4283.00,0.95
4282.00,0.95
4281.00,0.95
4280.00,0.96
4279.00,0.96
4278.00,0.96
4277.00,0.96
4276.00,0.96
4275.00,0.96
4274.00,0.96
4273.00,0.96
4272.00,0.96
4271.00,0.96
4270.00,0.97
4269.00,0.97
4268.00,0.97
4267.00,0.97
4266.00,0.97
4265.00,0.97
4264.00,0.97
4263.00,0.97
4262.00,0.97
4261.00,0.97
4260.00,0.97
4259.00,0.97
4258.00,0.97
4257.00,0.97
4256.00,0.97
4255.00,0.97
4254.00,0.97
4253.00,0.97
4252.00,0.97
4251.00,0.97
4250.00,0.97
4249.00,0.97
4248.00,0.97
4247.00,0.97
4246.00,0.97
4245.00,0.97
4244.00,0.97
4243.00,0.97
4242.00,0.97
4241.00,0.97
4240.00,0.97
4239.00,0.98
4238.00,0.98
4237.00,0.98
4236.00,0.98
4235.00,0.98
4234.00,0.98
4233.00,0.98
4232.00,0.98
4231.00,0.98
4230.00,0.98
4229.00,0.98
4228.00,0.98
4227.00,0.98
4226.00,0.98
4225.00,0.98
4224.00,0.98
4223.00,0.98
4222.00,0.98
4221.00,0.99
4220.00,0.99
4219.00,0.99
4218.00,0.99
4217.00,0.99
4216.00,0.99
4215.00,0.99
4214.00,0.99
4213.00,0.99
4212.00,0.99
4211.00,0.99
4210.00,1.00
4209.00,1.00
4208.00,1.00
4207.00,1.00
4206.00,1.00
4205.00,1.00
4204.00,1.00
4203.00,1.00
4202.00,1.00
4201.00,1.00
4200.00,1.00
4199.00,1.00
4198.00,1.01
4197.00,1.01
4196.00,1.01
4195.00,1.01
4194.00,1.01
4193.00,1.01
4192.00,1.01
4191.00,1.01
4190.00,1.01
4189.00,1.01
4188.00,1.01
4187.00,1.01
4186.00,1.01
4185.00,1.01
4184.00,1.01
4183.00,1.01
4182.00,1.01
4181.00,1.01
4180.00,1.01
4179.00,1.01
4178.00,1.01
4177.00,1.01
4176.00,1.01
4175.00,1.01
4174.00,1.01
4173.00,1.01
4172.00,1.01
4171.00,1.01
4170.00,1.01
4169.00,1.01
4168.00,1.01
4167.00,1.01
4166.00,1.01
4165.00,1.01
4164.00,1.01
4163.00,1.01
4162.00,1.01
4161.00,1.02
4160.00,1.02
4159.00,1.02
4158.00,1.02
4157.00,1.02
4156.00,1.02
4155.00,1.02
4154.00,1.02
4153.00,1.02
4152.00,1.02
4151.00,1.02
4150.00,1.02
4149.00,1.02
4148.00,1.02
4147.00,1.02
4146.00,1.02
4145.00,1.03
4144.00,1.03
4143.00,1.03
4142.00,1.03
4141.00,1.03
4140.00,1.03
4139.00,1.03
4138.00,1.03
4137.00,1.03
4136.00,1.04
4135.00,1.04
4134.00,1.04
4133.00,1.04
4132.00,1.04
4131.00,1.04
4130.00,1.05
4129.00,1.05
4128.00,1.05
4127.00,1.05
4126.00,1.05
4125.00,1.05
4124.00,1.05
4123.00,1.05
4122.00,1.06
4121.00,1.06
4120.00,1.06
4119.00,1.06
4118.00,1.06
4117.00,1.06
4116.00,1.06
4115.00,1.06
4114.00,1.06
4113.00,1.05
4112.00,1.05
4111.00,1.05
4110.00,1.05
4109.00,1.05
4108.00,1.05
4107.00,1.05
4106.00,1.05
4105.00,1.05
4104.00,1.05
4103.00,1.05
4102.00,1.04
4101.00,1.04
4100.00,1.04
4099.00,1.04
4098.00,1.04
4097.00,1.04
4096.00,1.05
4095.00,1.05
4094.00,1.05
4093.00,1.05
4092.00,1.05
4091.00,1.05
4090.00,1.05
4089.00,1.05
4088.00,1.05
4087.00,1.05
4086.00,1.05
4085.00,1.05
4084.00,1.05
4083.00,1.05
4082.00,1.05
4081.00,1.05
4080.00,1.05
4079.00,1.05
4078.00,1.05
4077.00,1.05
4076.00,1.05
4075.00,1.05
4074.00,1.05
4073.00,1.05
4072.00,1.05
4071.00,1.05
4070.00,1.05
4069.00,1.05
4068.00,1.05
4067.00,1.05
4066.00,1.05
4065.00,1.05
4064.00,1.05
4063.00,1.05
4062.00,1.05
4061.00,1.05
4060.00,1.05
4059.00,1.06
4058.00,1.06
4057.00,1.06
4056.00,1.06
4055.00,1.06
4054.00,1.06
4053.00,1.07
4052.00,1.07
4051.00,1.07
4050.00,1.07
4049.00,1.08
4048.00,1.08
4047.00,1.08
4046.00,1.08
4045.00,1.09
4044.00,1.09
4043.00,1.09
4042.00,1.09
4041.00,1.09
4040.00,1.09
4039.00,1.09
4038.00,1.09
4037.00,1.09
4036.00,1.09
4035.00,1.09
4034.00,1.09
4033.00,1.09
4032.00,1.09
4031.00,1.09
4030.00,1.09
4029.00,1.09
4028.00,1.10
4027.00,1.10
4026.00,1.10
4025.00,1.10
4024.00,1.10
4023.00,1.10
4022.00,1.10
4021.00,1.10
4020.00,1.10
4019.00,1.10
4018.00,1.10
4017.00,1.10
4016.00,1.11
4015.00,1.11
4014.00,1.11
4013.00,1.11
4012.00,1.11
4011.00,1.11
4010.00,1.11
4009.00,1.11
4008.00,1.11
4007.00,1.11
4006.00,1.11
4005.00,1.11
4004.00,1.11
4003.00,1.11
4002.00,1.11
4001.00,1.12
4000.00,1.12
