创建为新数据集,样品 032 用户 Administrator 日期 星期三, 十一月 01 2017
cm-1,%T
10000.00,1.42
9999.00,1.42
9998.00,1.42
9997.00,1.42
9996.00,1.42
9995.00,1.42
9994.00,1.42
9993.00,1.41
9992.00,1.41
9991.00,1.41
9990.00,1.41
9989.00,1.41
9988.00,1.41
9987.00,1.41
9986.00,1.41
9985.00,1.41
9984.00,1.41
9983.00,1.42
9982.00,1.42
9981.00,1.42
9980.00,1.42
9979.00,1.42
9978.00,1.42
9977.00,1.42
9976.00,1.42
9975.00,1.42
9974.00,1.42
9973.00,1.42
9972.00,1.42
9971.00,1.42
9970.00,1.42
9969.00,1.42
9968.00,1.42
9967.00,1.42
9966.00,1.42
9965.00,1.41
9964.00,1.41
9963.00,1.41
9962.00,1.41
9961.00,1.41
9960.00,1.41
9959.00,1.41
9958.00,1.41
9957.00,1.41
9956.00,1.41
9955.00,1.41
9954.00,1.41
9953.00,1.41
9952.00,1.41
9951.00,1.41
9950.00,1.42
9949.00,1.42
9948.00,1.42
9947.00,1.42
9946.00,1.42
9945.00,1.42
9944.00,1.42
9943.00,1.42
9942.00,1.42
9941.00,1.42
9940.00,1.42
9939.00,1.42
9938.00,1.42
9937.00,1.41
9936.00,1.41
9935.00,1.41
9934.00,1.41
9933.00,1.40
9932.00,1.40
9931.00,1.40
9930.00,1.40
9929.00,1.39
9928.00,1.39
9927.00,1.39
9926.00,1.39
9925.00,1.39
9924.00,1.39
9923.00,1.39
9922.00,1.39
9921.00,1.39
9920.00,1.39
9919.00,1.39
9918.00,1.39
9917.00,1.39
9916.00,1.39
9915.00,1.39
9914.00,1.39
9913.00,1.39
9912.00,1.39
9911.00,1.39
9910.00,1.39
9909.00,1.39
9908.00,1.39
9907.00,1.38
9906.00,1.38
9905.00,1.38
9904.00,1.38
9903.00,1.38
9902.00,1.38
9901.00,1.38
9900.00,1.38
9899.00,1.38
9898.00,1.38
9897.00,1.38
9896.00,1.38
9895.00,1.38
9894.00,1.38
9893.00,1.38
9892.00,1.38
9891.00,1.38
9890.00,1.38
9889.00,1.38
9888.00,1.38
9887.00,1.38
9886.00,1.38
9885.00,1.38
9884.00,1.38
9883.00,1.38
9882.00,1.39
9881.00,1.39
9880.00,1.39
9879.00,1.39
9878.00,1.39
9877.00,1.39
9876.00,1.40
9875.00,1.40
9874.00,1.40
9873.00,1.40
9872.00,1.40
9871.00,1.40
9870.00,1.40
9869.00,1.40
9868.00,1.40
9867.00,1.40
9866.00,1.40
9865.00,1.40
9864.00,1.40
9863.00,1.40
9862.00,1.40
9861.00,1.40
9860.00,1.40
9859.00,1.40
9858.00,1.40
9857.00,1.39
9856.00,1.39
9855.00,1.39
9854.00,1.39
9853.00,1.39
9852.00,1.39
9851.00,1.39
9850.00,1.39
9849.00,1.39
9848.00,1.39
9847.00,1.39
9846.00,1.39
9845.00,1.39
9844.00,1.40
9843.00,1.40
9842.00,1.40
9841.00,1.40
9840.00,1.40
9839.00,1.40
9838.00,1.40
9837.00,1.40
9836.00,1.39
9835.00,1.39
9834.00,1.39
9833.00,1.39
9832.00,1.39
9831.00,1.39
9830.00,1.39
9829.00,1.39
9828.00,1.39
9827.00,1.39
9826.00,1.39
9825.00,1.39
9824.00,1.39
9823.00,1.39
9822.00,1.39
9821.00,1.39
9820.00,1.39
9819.00,1.39
9818.00,1.39
9817.00,1.39
9816.00,1.39
9815.00,1.39
9814.00,1.40
9813.00,1.40
9812.00,1.40
9811.00,1.40
9810.00,1.40
9809.00,1.40
9808.00,1.40
9807.00,1.40
9806.00,1.40
9805.00,1.41
9804.00,1.41
9803.00,1.41
9802.00,1.41
9801.00,1.41
9800.00,1.41
9799.00,1.41
9798.00,1.41
9797.00,1.41
9796.00,1.41
9795.00,1.41
9794.00,1.41
9793.00,1.40
9792.00,1.40
9791.00,1.40
9790.00,1.40
9789.00,1.40
9788.00,1.40
9787.00,1.40
9786.00,1.39
9785.00,1.39
9784.00,1.39
9783.00,1.39
9782.00,1.39
9781.00,1.39
9780.00,1.39
9779.00,1.39
9778.00,1.39
9777.00,1.39
9776.00,1.39
9775.00,1.39
9774.00,1.39
9773.00,1.39
9772.00,1.39
9771.00,1.39
9770.00,1.39
9769.00,1.39
9768.00,1.39
9767.00,1.39
9766.00,1.39
9765.00,1.39
9764.00,1.40
9763.00,1.40
9762.00,1.40
9761.00,1.40
9760.00,1.40
9759.00,1.40
9758.00,1.40
9757.00,1.41
9756.00,1.41
9755.00,1.41
9754.00,1.41
9753.00,1.41
9752.00,1.41
9751.00,1.41
9750.00,1.41
9749.00,1.41
9748.00,1.41
9747.00,1.42
9746.00,1.42
9745.00,1.42
9744.00,1.42
9743.00,1.42
9742.00,1.42
9741.00,1.42
9740.00,1.42
9739.00,1.42
9738.00,1.42
9737.00,1.42
9736.00,1.42
9735.00,1.42
9734.00,1.42
9733.00,1.42
9732.00,1.42
9731.00,1.42
9730.00,1.42
9729.00,1.42
9728.00,1.42
9727.00,1.42
9726.00,1.42
9725.00,1.42
9724.00,1.42
9723.00,1.42
9722.00,1.42
9721.00,1.42
9720.00,1.42
9719.00,1.42
9718.00,1.42
9717.00,1.41
9716.00,1.41
9715.00,1.41
9714.00,1.41
9713.00,1.41
9712.00,1.40
9711.00,1.40
9710.00,1.40
9709.00,1.40
9708.00,1.39
9707.00,1.39
9706.00,1.39
9705.00,1.39
9704.00,1.39
9703.00,1.39
9702.00,1.39
9701.00,1.39
9700.00,1.38
9699.00,1.38
9698.00,1.38
9697.00,1.38
9696.00,1.38
9695.00,1.38
9694.00,1.39
9693.00,1.39
9692.00,1.39
9691.00,1.39
9690.00,1.39
9689.00,1.39
9688.00,1.39
9687.00,1.39
9686.00,1.39
9685.00,1.40
9684.00,1.40
9683.00,1.40
9682.00,1.40
9681.00,1.40
9680.00,1.41
9679.00,1.41
9678.00,1.41
9677.00,1.41
9676.00,1.41
9675.00,1.41
9674.00,1.42
9673.00,1.42
9672.00,1.42
9671.00,1.42
9670.00,1.42
9669.00,1.42
9668.00,1.42
9667.00,1.42
9666.00,1.41
9665.00,1.41
9664.00,1.41
9663.00,1.41
9662.00,1.41
9661.00,1.41
9660.00,1.41
9659.00,1.40
9658.00,1.40
9657.00,1.40
9656.00,1.40
9655.00,1.40
9654.00,1.40
9653.00,1.40
9652.00,1.40
9651.00,1.40
9650.00,1.40
9649.00,1.39
9648.00,1.39
9647.00,1.39
9646.00,1.39
9645.00,1.39
9644.00,1.39
9643.00,1.39
9642.00,1.39
9641.00,1.39
9640.00,1.39
9639.00,1.39
9638.00,1.39
9637.00,1.40
9636.00,1.40
9635.00,1.40
9634.00,1.40
9633.00,1.40
9632.00,1.40
9631.00,1.40
9630.00,1.40
9629.00,1.40
9628.00,1.40
9627.00,1.40
9626.00,1.40
9625.00,1.40
9624.00,1.40
9623.00,1.40
9622.00,1.41
9621.00,1.40
9620.00,1.40
9619.00,1.40
9618.00,1.40
9617.00,1.40
9616.00,1.40
9615.00,1.40
9614.00,1.40
9613.00,1.39
9612.00,1.39
9611.00,1.39
9610.00,1.39
9609.00,1.39
9608.00,1.38
9607.00,1.38
9606.00,1.38
9605.00,1.38
9604.00,1.38
9603.00,1.38
9602.00,1.38
9601.00,1.38
9600.00,1.38
9599.00,1.38
9598.00,1.38
9597.00,1.38
9596.00,1.38
9595.00,1.38
9594.00,1.38
9593.00,1.38
9592.00,1.39
9591.00,1.39
9590.00,1.39
9589.00,1.39
9588.00,1.39
9587.00,1.40
9586.00,1.40
9585.00,1.40
9584.00,1.40
9583.00,1.40
9582.00,1.41
9581.00,1.41
9580.00,1.41
9579.00,1.41
9578.00,1.41
9577.00,1.41
9576.00,1.41
9575.00,1.41
9574.00,1.41
9573.00,1.41
9572.00,1.41
9571.00,1.41
9570.00,1.41
9569.00,1.41
9568.00,1.41
9567.00,1.41
9566.00,1.41
9565.00,1.41
9564.00,1.41
9563.00,1.41
9562.00,1.41
9561.00,1.41
9560.00,1.42
9559.00,1.42
9558.00,1.42
9557.00,1.42
9556.00,1.42
9555.00,1.41
9554.00,1.41
9553.00,1.41
9552.00,1.41
9551.00,1.41
9550.00,1.41
9549.00,1.41
9548.00,1.41
9547.00,1.40
9546.00,1.40
9545.00,1.40
9544.00,1.40
9543.00,1.40
9542.00,1.40
9541.00,1.39
9540.00,1.39
9539.00,1.39
9538.00,1.39
9537.00,1.39
9536.00,1.39
9535.00,1.39
9534.00,1.39
9533.00,1.39
9532.00,1.39
9531.00,1.39
9530.00,1.39
9529.00,1.40
9528.00,1.40
9527.00,1.40
9526.00,1.40
9525.00,1.40
9524.00,1.41
9523.00,1.41
9522.00,1.41
9521.00,1.41
9520.00,1.41
9519.00,1.41
9518.00,1.41
9517.00,1.42
9516.00,1.42
9515.00,1.41
9514.00,1.41
9513.00,1.41
9512.00,1.41
9511.00,1.41
9510.00,1.41
9509.00,1.41
9508.00,1.41
9507.00,1.41
9506.00,1.40
9505.00,1.40
9504.00,1.40
9503.00,1.40
9502.00,1.40
9501.00,1.40
9500.00,1.40
9499.00,1.40
9498.00,1.40
9497.00,1.40
9496.00,1.40
9495.00,1.40
9494.00,1.40
9493.00,1.40
9492.00,1.40
9491.00,1.40
9490.00,1.40
9489.00,1.40
9488.00,1.40
9487.00,1.40
9486.00,1.40
9485.00,1.40
9484.00,1.40
9483.00,1.40
9482.00,1.40
9481.00,1.40
9480.00,1.40
9479.00,1.40
9478.00,1.40
9477.00,1.40
9476.00,1.40
9475.00,1.41
9474.00,1.41
9473.00,1.41
9472.00,1.41
9471.00,1.41
9470.00,1.41
9469.00,1.41
9468.00,1.41
9467.00,1.41
9466.00,1.41
9465.00,1.41
9464.00,1.41
9463.00,1.41
9462.00,1.41
9461.00,1.41
9460.00,1.41
9459.00,1.41
9458.00,1.41
9457.00,1.41
9456.00,1.41
9455.00,1.41
9454.00,1.41
9453.00,1.41
9452.00,1.41
9451.00,1.41
9450.00,1.41
9449.00,1.41
9448.00,1.40
9447.00,1.40
9446.00,1.40
9445.00,1.40
9444.00,1.40
9443.00,1.40
9442.00,1.40
9441.00,1.40
9440.00,1.40
9439.00,1.40
9438.00,1.40
9437.00,1.40
9436.00,1.40
9435.00,1.40
9434.00,1.40
9433.00,1.40
9432.00,1.40
9431.00,1.40
9430.00,1.40
9429.00,1.40
9428.00,1.40
9427.00,1.40
9426.00,1.40
9425.00,1.40
9424.00,1.40
9423.00,1.41
9422.00,1.41
9421.00,1.41
9420.00,1.41
9419.00,1.41
9418.00,1.41
9417.00,1.41
9416.00,1.41
9415.00,1.41
9414.00,1.41
9413.00,1.41
9412.00,1.41
9411.00,1.41
9410.00,1.41
9409.00,1.41
9408.00,1.41
9407.00,1.41
9406.00,1.41
9405.00,1.41
9404.00,1.41
9403.00,1.41
9402.00,1.41
9401.00,1.41
9400.00,1.41
9399.00,1.41
9398.00,1.40
9397.00,1.40
9396.00,1.40
9395.00,1.40
9394.00,1.40
9393.00,1.40
9392.00,1.40
9391.00,1.40
9390.00,1.40
9389.00,1.40
9388.00,1.40
9387.00,1.40
9386.00,1.40
9385.00,1.40
9384.00,1.40
9383.00,1.40
9382.00,1.40
9381.00,1.40
9380.00,1.40
9379.00,1.40
9378.00,1.40
9377.00,1.40
9376.00,1.40
9375.00,1.40
9374.00,1.40
9373.00,1.40
9372.00,1.40
9371.00,1.40
9370.00,1.40
9369.00,1.40
9368.00,1.40
9367.00,1.40
9366.00,1.40
9365.00,1.40
9364.00,1.40
9363.00,1.40
9362.00,1.40
9361.00,1.41
9360.00,1.41
9359.00,1.41
9358.00,1.41
9357.00,1.41
9356.00,1.41
9355.00,1.41
9354.00,1.41
9353.00,1.41
9352.00,1.41
9351.00,1.41
9350.00,1.41
9349.00,1.41
9348.00,1.41
9347.00,1.40
9346.00,1.40
9345.00,1.40
9344.00,1.40
9343.00,1.40
9342.00,1.40
9341.00,1.40
9340.00,1.39
9339.00,1.39
9338.00,1.39
9337.00,1.39
9336.00,1.39
9335.00,1.39
9334.00,1.39
9333.00,1.40
9332.00,1.40
9331.00,1.40
9330.00,1.40
9329.00,1.40
9328.00,1.40
9327.00,1.40
9326.00,1.40
9325.00,1.40
9324.00,1.40
9323.00,1.40
9322.00,1.40
9321.00,1.40
9320.00,1.40
9319.00,1.40
9318.00,1.40
9317.00,1.40
9316.00,1.40
9315.00,1.40
9314.00,1.40
9313.00,1.40
9312.00,1.40
9311.00,1.41
9310.00,1.41
9309.00,1.41
9308.00,1.41
9307.00,1.41
9306.00,1.41
9305.00,1.41
9304.00,1.41
9303.00,1.41
9302.00,1.41
9301.00,1.40
9300.00,1.40
9299.00,1.40
9298.00,1.40
9297.00,1.40
9296.00,1.40
9295.00,1.40
9294.00,1.40
9293.00,1.40
9292.00,1.40
9291.00,1.40
9290.00,1.40
9289.00,1.40
9288.00,1.40
9287.00,1.40
9286.00,1.40
9285.00,1.40
9284.00,1.40
9283.00,1.40
9282.00,1.40
9281.00,1.40
9280.00,1.40
9279.00,1.40
9278.00,1.40
9277.00,1.40
9276.00,1.40
9275.00,1.40
9274.00,1.40
9273.00,1.40
9272.00,1.40
9271.00,1.40
9270.00,1.40
9269.00,1.40
9268.00,1.40
9267.00,1.40
9266.00,1.40
9265.00,1.40
9264.00,1.40
9263.00,1.40
9262.00,1.40
9261.00,1.40
9260.00,1.40
9259.00,1.40
9258.00,1.40
9257.00,1.40
9256.00,1.40
9255.00,1.40
9254.00,1.40
9253.00,1.40
9252.00,1.40
9251.00,1.40
9250.00,1.40
9249.00,1.40
9248.00,1.40
9247.00,1.40
9246.00,1.40
9245.00,1.40
9244.00,1.39
9243.00,1.39
9242.00,1.39
9241.00,1.39
9240.00,1.39
9239.00,1.39
9238.00,1.39
9237.00,1.39
9236.00,1.40
9235.00,1.40
9234.00,1.40
9233.00,1.40
9232.00,1.40
9231.00,1.40
9230.00,1.40
9229.00,1.40
9228.00,1.40
9227.00,1.41
9226.00,1.41
9225.00,1.41
9224.00,1.41
9223.00,1.41
9222.00,1.41
9221.00,1.41
9220.00,1.42
9219.00,1.42
9218.00,1.42
9217.00,1.42
9216.00,1.42
9215.00,1.42
9214.00,1.42
9213.00,1.42
9212.00,1.42
9211.00,1.42
9210.00,1.42
9209.00,1.42
9208.00,1.42
9207.00,1.42
9206.00,1.42
9205.00,1.42
9204.00,1.41
9203.00,1.41
9202.00,1.41
9201.00,1.41
9200.00,1.41
9199.00,1.40
9198.00,1.40
9197.00,1.40
9196.00,1.40
9195.00,1.40
9194.00,1.40
9193.00,1.39
9192.00,1.39
9191.00,1.39
9190.00,1.39
9189.00,1.39
9188.00,1.39
9187.00,1.39
9186.00,1.39
9185.00,1.39
9184.00,1.39
9183.00,1.39
9182.00,1.39
9181.00,1.39
9180.00,1.39
9179.00,1.39
9178.00,1.39
9177.00,1.39
9176.00,1.39
9175.00,1.39
9174.00,1.39
9173.00,1.40
9172.00,1.40
9171.00,1.40
9170.00,1.40
9169.00,1.40
9168.00,1.40
9167.00,1.40
9166.00,1.40
9165.00,1.40
9164.00,1.40
9163.00,1.40
9162.00,1.39
9161.00,1.39
9160.00,1.39
9159.00,1.39
9158.00,1.39
9157.00,1.39
9156.00,1.39
9155.00,1.39
9154.00,1.39
9153.00,1.39
9152.00,1.39
9151.00,1.39
9150.00,1.39
9149.00,1.39
9148.00,1.39
9147.00,1.40
9146.00,1.40
9145.00,1.40
9144.00,1.40
9143.00,1.40
9142.00,1.40
9141.00,1.40
9140.00,1.40
9139.00,1.40
9138.00,1.40
9137.00,1.40
9136.00,1.40
9135.00,1.40
9134.00,1.40
9133.00,1.41
9132.00,1.41
9131.00,1.41
9130.00,1.41
9129.00,1.41
9128.00,1.41
9127.00,1.41
9126.00,1.41
9125.00,1.41
9124.00,1.41
9123.00,1.41
9122.00,1.41
9121.00,1.41
9120.00,1.40
9119.00,1.40
9118.00,1.40
9117.00,1.40
9116.00,1.40
9115.00,1.40
9114.00,1.40
9113.00,1.40
9112.00,1.40
9111.00,1.40
9110.00,1.40
9109.00,1.40
9108.00,1.41
9107.00,1.41
9106.00,1.41
9105.00,1.41
9104.00,1.41
9103.00,1.41
9102.00,1.41
9101.00,1.41
9100.00,1.41
9099.00,1.41
9098.00,1.41
9097.00,1.41
9096.00,1.41
9095.00,1.41
9094.00,1.41
9093.00,1.41
9092.00,1.41
9091.00,1.41
9090.00,1.41
9089.00,1.41
9088.00,1.41
9087.00,1.41
9086.00,1.41
9085.00,1.41
9084.00,1.41
9083.00,1.40
9082.00,1.40
9081.00,1.40
9080.00,1.40
9079.00,1.40
9078.00,1.40
9077.00,1.40
9076.00,1.40
9075.00,1.41
9074.00,1.41
9073.00,1.41
9072.00,1.41
9071.00,1.41
9070.00,1.41
9069.00,1.41
9068.00,1.41
9067.00,1.41
9066.00,1.41
9065.00,1.42
9064.00,1.42
9063.00,1.42
9062.00,1.42
9061.00,1.42
9060.00,1.42
9059.00,1.42
9058.00,1.42
9057.00,1.41
9056.00,1.41
9055.00,1.41
9054.00,1.41
9053.00,1.41
9052.00,1.41
9051.00,1.40
9050.00,1.40
9049.00,1.40
9048.00,1.40
9047.00,1.40
9046.00,1.40
9045.00,1.40
9044.00,1.40
9043.00,1.40
9042.00,1.40
9041.00,1.40
9040.00,1.40
9039.00,1.40
9038.00,1.40
9037.00,1.40
9036.00,1.40
9035.00,1.40
9034.00,1.40
9033.00,1.40
9032.00,1.40
9031.00,1.40
9030.00,1.40
9029.00,1.40
9028.00,1.40
9027.00,1.40
9026.00,1.40
9025.00,1.40
9024.00,1.40
9023.00,1.40
9022.00,1.40
9021.00,1.40
9020.00,1.40
9019.00,1.41
9018.00,1.41
9017.00,1.41
9016.00,1.41
9015.00,1.41
9014.00,1.41
9013.00,1.41
9012.00,1.41
9011.00,1.41
9010.00,1.41
9009.00,1.41
9008.00,1.41
9007.00,1.41
9006.00,1.41
9005.00,1.41
9004.00,1.41
9003.00,1.41
9002.00,1.41
9001.00,1.41
9000.00,1.41
8999.00,1.41
8998.00,1.41
8997.00,1.41
8996.00,1.41
8995.00,1.41
8994.00,1.41
8993.00,1.41
8992.00,1.41
8991.00,1.41
8990.00,1.41
8989.00,1.41
8988.00,1.41
8987.00,1.41
8986.00,1.41
8985.00,1.41
8984.00,1.41
8983.00,1.41
8982.00,1.41
8981.00,1.41
8980.00,1.41
8979.00,1.41
8978.00,1.41
8977.00,1.41
8976.00,1.42
8975.00,1.42
8974.00,1.42
8973.00,1.42
8972.00,1.42
8971.00,1.42
8970.00,1.42
8969.00,1.42
8968.00,1.42
8967.00,1.42
8966.00,1.42
8965.00,1.42
8964.00,1.41
8963.00,1.41
8962.00,1.41
8961.00,1.41
8960.00,1.41
8959.00,1.41
8958.00,1.41
8957.00,1.41
8956.00,1.41
8955.00,1.41
8954.00,1.41
8953.00,1.40
8952.00,1.40
8951.00,1.40
8950.00,1.40
8949.00,1.40
8948.00,1.40
8947.00,1.40
8946.00,1.40
8945.00,1.40
8944.00,1.40
8943.00,1.40
8942.00,1.40
8941.00,1.40
8940.00,1.40
8939.00,1.40
8938.00,1.40
8937.00,1.40
8936.00,1.40
8935.00,1.39
8934.00,1.39
8933.00,1.39
8932.00,1.40
8931.00,1.40
8930.00,1.40
8929.00,1.40
8928.00,1.40
8927.00,1.40
8926.00,1.40
8925.00,1.40
8924.00,1.40
8923.00,1.40
8922.00,1.40
8921.00,1.40
8920.00,1.40
8919.00,1.40
8918.00,1.40
8917.00,1.40
8916.00,1.40
8915.00,1.40
8914.00,1.40
8913.00,1.40
8912.00,1.40
8911.00,1.40
8910.00,1.40
8909.00,1.40
8908.00,1.40
8907.00,1.40
8906.00,1.40
8905.00,1.40
8904.00,1.40
8903.00,1.40
8902.00,1.40
8901.00,1.40
8900.00,1.40
8899.00,1.41
8898.00,1.41
8897.00,1.41
8896.00,1.41
8895.00,1.41
8894.00,1.41
8893.00,1.41
8892.00,1.41
8891.00,1.41
8890.00,1.41
8889.00,1.41
8888.00,1.41
8887.00,1.40
8886.00,1.40
8885.00,1.40
8884.00,1.40
8883.00,1.40
8882.00,1.40
8881.00,1.40
8880.00,1.40
8879.00,1.40
8878.00,1.40
8877.00,1.40
8876.00,1.40
8875.00,1.40
8874.00,1.40
8873.00,1.40
8872.00,1.40
8871.00,1.40
8870.00,1.40
8869.00,1.40
8868.00,1.40
8867.00,1.40
8866.00,1.40
8865.00,1.40
8864.00,1.40
8863.00,1.40
8862.00,1.40
8861.00,1.40
8860.00,1.41
8859.00,1.41
8858.00,1.41
8857.00,1.41
8856.00,1.41
8855.00,1.41
8854.00,1.41
8853.00,1.41
8852.00,1.41
8851.00,1.41
8850.00,1.41
8849.00,1.41
8848.00,1.41
8847.00,1.41
8846.00,1.41
8845.00,1.41
8844.00,1.41
8843.00,1.41
8842.00,1.41
8841.00,1.41
8840.00,1.41
8839.00,1.40
8838.00,1.40
8837.00,1.40
8836.00,1.40
8835.00,1.40
8834.00,1.40
8833.00,1.40
8832.00,1.40
8831.00,1.40
8830.00,1.40
8829.00,1.40
8828.00,1.39
8827.00,1.39
8826.00,1.39
8825.00,1.39
8824.00,1.39
8823.00,1.39
8822.00,1.39
8821.00,1.39
8820.00,1.39
8819.00,1.39
8818.00,1.39
8817.00,1.39
8816.00,1.38
8815.00,1.38
8814.00,1.38
8813.00,1.38
8812.00,1.38
8811.00,1.38
8810.00,1.38
8809.00,1.38
8808.00,1.38
8807.00,1.38
8806.00,1.38
8805.00,1.38
8804.00,1.38
8803.00,1.38
8802.00,1.38
8801.00,1.38
8800.00,1.38
8799.00,1.38
8798.00,1.38
8797.00,1.38
8796.00,1.38
8795.00,1.38
8794.00,1.38
8793.00,1.38
8792.00,1.38
8791.00,1.37
8790.00,1.37
8789.00,1.37
8788.00,1.37
8787.00,1.37
8786.00,1.37
8785.00,1.37
8784.00,1.37
8783.00,1.37
8782.00,1.37
8781.00,1.37
8780.00,1.37
8779.00,1.37
8778.00,1.37
8777.00,1.37
8776.00,1.37
8775.00,1.37
8774.00,1.37
8773.00,1.36
8772.00,1.36
8771.00,1.36
8770.00,1.36
8769.00,1.37
8768.00,1.37
8767.00,1.37
8766.00,1.37
8765.00,1.37
8764.00,1.37
8763.00,1.37
8762.00,1.37
8761.00,1.37
8760.00,1.37
8759.00,1.37
8758.00,1.37
8757.00,1.37
8756.00,1.37
8755.00,1.37
8754.00,1.37
8753.00,1.37
8752.00,1.37
8751.00,1.37
8750.00,1.36
8749.00,1.36
8748.00,1.36
8747.00,1.36
8746.00,1.36
8745.00,1.36
8744.00,1.36
8743.00,1.36
8742.00,1.36
8741.00,1.36
8740.00,1.36
8739.00,1.37
8738.00,1.37
8737.00,1.37
8736.00,1.37
8735.00,1.37
8734.00,1.37
8733.00,1.37
8732.00,1.37
8731.00,1.37
8730.00,1.37
8729.00,1.37
8728.00,1.37
8727.00,1.37
8726.00,1.37
8725.00,1.37
8724.00,1.37
8723.00,1.37
8722.00,1.37
8721.00,1.37
8720.00,1.37
8719.00,1.37
8718.00,1.37
8717.00,1.37
8716.00,1.37
8715.00,1.37
8714.00,1.37
8713.00,1.37
8712.00,1.37
8711.00,1.36
8710.00,1.36
8709.00,1.36
8708.00,1.36
8707.00,1.36
8706.00,1.36
8705.00,1.36
8704.00,1.36
8703.00,1.37
8702.00,1.37
8701.00,1.37
8700.00,1.37
8699.00,1.37
8698.00,1.37
8697.00,1.37
8696.00,1.37
8695.00,1.37
8694.00,1.37
8693.00,1.37
8692.00,1.37
8691.00,1.37
8690.00,1.36
8689.00,1.36
8688.00,1.36
8687.00,1.36
8686.00,1.36
8685.00,1.36
8684.00,1.35
8683.00,1.35
8682.00,1.35
8681.00,1.35
8680.00,1.35
8679.00,1.35
8678.00,1.35
8677.00,1.35
8676.00,1.35
8675.00,1.35
8674.00,1.35
8673.00,1.35
8672.00,1.35
8671.00,1.35
8670.00,1.35
8669.00,1.35
8668.00,1.35
8667.00,1.35
8666.00,1.35
8665.00,1.36
8664.00,1.36
8663.00,1.36
8662.00,1.36
8661.00,1.36
8660.00,1.36
8659.00,1.36
8658.00,1.36
8657.00,1.36
8656.00,1.36
8655.00,1.36
8654.00,1.36
8653.00,1.36
8652.00,1.36
8651.00,1.36
8650.00,1.36
8649.00,1.36
8648.00,1.36
8647.00,1.36
8646.00,1.36
8645.00,1.36
8644.00,1.36
8643.00,1.35
8642.00,1.35
8641.00,1.35
8640.00,1.35
8639.00,1.35
8638.00,1.35
8637.00,1.35
8636.00,1.35
8635.00,1.34
8634.00,1.34
8633.00,1.34
8632.00,1.34
8631.00,1.34
8630.00,1.34
8629.00,1.34
8628.00,1.34
8627.00,1.34
8626.00,1.34
8625.00,1.34
8624.00,1.34
8623.00,1.34
8622.00,1.34
8621.00,1.34
8620.00,1.34
8619.00,1.34
8618.00,1.34
8617.00,1.34
8616.00,1.34
8615.00,1.34
8614.00,1.34
8613.00,1.34
8612.00,1.34
8611.00,1.34
8610.00,1.34
8609.00,1.34
8608.00,1.34
8607.00,1.34
8606.00,1.34
8605.00,1.34
8604.00,1.34
8603.00,1.34
8602.00,1.34
8601.00,1.34
8600.00,1.34
8599.00,1.34
8598.00,1.34
8597.00,1.33
8596.00,1.33
8595.00,1.33
8594.00,1.33
8593.00,1.33
8592.00,1.33
8591.00,1.33
8590.00,1.33
8589.00,1.33
8588.00,1.33
8587.00,1.33
8586.00,1.32
8585.00,1.32
8584.00,1.32
8583.00,1.32
8582.00,1.32
8581.00,1.32
8580.00,1.32
8579.00,1.32
8578.00,1.32
8577.00,1.32
8576.00,1.32
8575.00,1.32
8574.00,1.32
8573.00,1.32
8572.00,1.32
8571.00,1.32
8570.00,1.32
8569.00,1.32
8568.00,1.32
8567.00,1.32
8566.00,1.32
8565.00,1.32
8564.00,1.32
8563.00,1.32
8562.00,1.32
8561.00,1.32
8560.00,1.32
8559.00,1.32
8558.00,1.32
8557.00,1.32
8556.00,1.32
8555.00,1.32
8554.00,1.32
8553.00,1.32
8552.00,1.32
8551.00,1.32
8550.00,1.32
8549.00,1.32
8548.00,1.32
8547.00,1.32
8546.00,1.32
8545.00,1.31
8544.00,1.31
8543.00,1.31
8542.00,1.31
8541.00,1.31
8540.00,1.31
8539.00,1.31
8538.00,1.31
8537.00,1.31
8536.00,1.31
8535.00,1.30
8534.00,1.30
8533.00,1.30
8532.00,1.30
8531.00,1.30
8530.00,1.30
8529.00,1.30
8528.00,1.30
8527.00,1.30
8526.00,1.30
8525.00,1.30
8524.00,1.30
8523.00,1.30
8522.00,1.30
8521.00,1.29
8520.00,1.29
8519.00,1.29
8518.00,1.30
8517.00,1.30
8516.00,1.30
8515.00,1.30
8514.00,1.30
8513.00,1.30
8512.00,1.30
8511.00,1.30
8510.00,1.30
8509.00,1.30
8508.00,1.30
8507.00,1.30
8506.00,1.30
8505.00,1.30
8504.00,1.30
8503.00,1.30
8502.00,1.30
8501.00,1.30
8500.00,1.30
8499.00,1.30
8498.00,1.30
8497.00,1.30
8496.00,1.30
8495.00,1.30
8494.00,1.30
8493.00,1.30
8492.00,1.30
8491.00,1.30
8490.00,1.30
8489.00,1.30
8488.00,1.29
8487.00,1.29
8486.00,1.29
8485.00,1.29
8484.00,1.29
8483.00,1.29
8482.00,1.29
8481.00,1.29
8480.00,1.29
8479.00,1.29
8478.00,1.29
8477.00,1.29
8476.00,1.29
8475.00,1.29
8474.00,1.29
8473.00,1.29
8472.00,1.29
8471.00,1.29
8470.00,1.29
8469.00,1.28
8468.00,1.28
8467.00,1.28
8466.00,1.28
8465.00,1.28
8464.00,1.28
8463.00,1.27
8462.00,1.27
8461.00,1.27
8460.00,1.27
8459.00,1.27
8458.00,1.27
8457.00,1.27
8456.00,1.27
8455.00,1.27
8454.00,1.26
8453.00,1.26
8452.00,1.26
8451.00,1.26
8450.00,1.26
8449.00,1.26
8448.00,1.26
8447.00,1.26
8446.00,1.26
8445.00,1.26
8444.00,1.26
8443.00,1.26
8442.00,1.26
8441.00,1.26
8440.00,1.26
8439.00,1.26
8438.00,1.26
8437.00,1.26
8436.00,1.26
8435.00,1.26
8434.00,1.27
8433.00,1.27
8432.00,1.27
8431.00,1.27
8430.00,1.27
8429.00,1.27
8428.00,1.27
8427.00,1.27
8426.00,1.27
8425.00,1.27
8424.00,1.27
8423.00,1.27
8422.00,1.27
8421.00,1.27
8420.00,1.27
8419.00,1.27
8418.00,1.28
8417.00,1.28
8416.00,1.28
8415.00,1.28
8414.00,1.28
8413.00,1.28
8412.00,1.28
8411.00,1.28
8410.00,1.28
8409.00,1.28
8408.00,1.28
8407.00,1.28
8406.00,1.28
8405.00,1.28
8404.00,1.28
8403.00,1.28
8402.00,1.28
8401.00,1.28
8400.00,1.28
8399.00,1.28
8398.00,1.28
8397.00,1.29
8396.00,1.29
8395.00,1.29
8394.00,1.29
8393.00,1.29
8392.00,1.29
8391.00,1.29
8390.00,1.29
8389.00,1.29
8388.00,1.29
8387.00,1.29
8386.00,1.29
8385.00,1.29
8384.00,1.29
8383.00,1.29
8382.00,1.29
8381.00,1.29
8380.00,1.29
8379.00,1.29
8378.00,1.29
8377.00,1.29
8376.00,1.29
8375.00,1.29
8374.00,1.29
8373.00,1.29
8372.00,1.29
8371.00,1.29
8370.00,1.29
8369.00,1.29
8368.00,1.29
8367.00,1.29
8366.00,1.29
8365.00,1.29
8364.00,1.29
8363.00,1.29
8362.00,1.29
8361.00,1.29
8360.00,1.29
8359.00,1.29
8358.00,1.29
8357.00,1.29
8356.00,1.30
8355.00,1.30
8354.00,1.30
8353.00,1.30
8352.00,1.30
8351.00,1.30
8350.00,1.30
8349.00,1.30
8348.00,1.30
8347.00,1.31
8346.00,1.31
8345.00,1.31
8344.00,1.31
8343.00,1.31
8342.00,1.31
8341.00,1.31
8340.00,1.31
8339.00,1.31
8338.00,1.31
8337.00,1.31
8336.00,1.31
8335.00,1.32
8334.00,1.32
8333.00,1.32
8332.00,1.32
8331.00,1.32
8330.00,1.32
8329.00,1.32
8328.00,1.32
8327.00,1.32
8326.00,1.32
8325.00,1.32
8324.00,1.32
8323.00,1.32
8322.00,1.32
8321.00,1.31
8320.00,1.31
8319.00,1.31
8318.00,1.31
8317.00,1.31
8316.00,1.31
8315.00,1.31
8314.00,1.31
8313.00,1.31
8312.00,1.31
8311.00,1.31
8310.00,1.31
8309.00,1.31
8308.00,1.31
8307.00,1.31
8306.00,1.31
8305.00,1.31
8304.00,1.31
8303.00,1.31
8302.00,1.31
8301.00,1.31
8300.00,1.31
8299.00,1.31
8298.00,1.31
8297.00,1.31
8296.00,1.31
8295.00,1.31
8294.00,1.31
8293.00,1.31
8292.00,1.31
8291.00,1.31
8290.00,1.31
8289.00,1.31
8288.00,1.31
8287.00,1.31
8286.00,1.31
8285.00,1.31
8284.00,1.32
8283.00,1.32
8282.00,1.32
8281.00,1.32
8280.00,1.32
8279.00,1.32
8278.00,1.32
8277.00,1.32
8276.00,1.32
8275.00,1.32
8274.00,1.32
8273.00,1.32
8272.00,1.32
8271.00,1.32
8270.00,1.32
8269.00,1.32
8268.00,1.32
8267.00,1.32
8266.00,1.32
8265.00,1.32
8264.00,1.32
8263.00,1.32
8262.00,1.32
8261.00,1.32
8260.00,1.32
8259.00,1.32
8258.00,1.32
8257.00,1.32
8256.00,1.32
8255.00,1.33
8254.00,1.33
8253.00,1.33
8252.00,1.33
8251.00,1.33
8250.00,1.33
8249.00,1.33
8248.00,1.33
8247.00,1.33
8246.00,1.33
8245.00,1.33
8244.00,1.33
8243.00,1.33
8242.00,1.33
8241.00,1.33
8240.00,1.33
8239.00,1.33
8238.00,1.33
8237.00,1.33
8236.00,1.33
8235.00,1.33
8234.00,1.33
8233.00,1.33
8232.00,1.33
8231.00,1.33
8230.00,1.33
8229.00,1.33
8228.00,1.33
8227.00,1.33
8226.00,1.33
8225.00,1.33
8224.00,1.33
8223.00,1.33
8222.00,1.33
8221.00,1.33
8220.00,1.33
8219.00,1.33
8218.00,1.33
8217.00,1.33
8216.00,1.33
8215.00,1.33
8214.00,1.34
8213.00,1.34
8212.00,1.34
8211.00,1.34
8210.00,1.34
8209.00,1.34
8208.00,1.34
8207.00,1.34
8206.00,1.34
8205.00,1.34
8204.00,1.34
8203.00,1.34
8202.00,1.34
8201.00,1.34
8200.00,1.34
8199.00,1.34
8198.00,1.35
8197.00,1.35
8196.00,1.35
8195.00,1.35
8194.00,1.35
8193.00,1.35
8192.00,1.35
8191.00,1.35
8190.00,1.35
8189.00,1.35
8188.00,1.34
8187.00,1.34
8186.00,1.34
8185.00,1.34
8184.00,1.34
8183.00,1.34
8182.00,1.34
8181.00,1.34
8180.00,1.34
8179.00,1.34
8178.00,1.34
8177.00,1.34
8176.00,1.34
8175.00,1.34
8174.00,1.34
8173.00,1.34
8172.00,1.34
8171.00,1.35
8170.00,1.35
8169.00,1.35
8168.00,1.35
8167.00,1.35
8166.00,1.35
8165.00,1.35
8164.00,1.35
8163.00,1.35
8162.00,1.35
8161.00,1.35
8160.00,1.35
8159.00,1.35
8158.00,1.35
8157.00,1.35
8156.00,1.35
8155.00,1.35
8154.00,1.35
8153.00,1.35
8152.00,1.35
8151.00,1.35
8150.00,1.35
8149.00,1.35
8148.00,1.35
8147.00,1.35
8146.00,1.35
8145.00,1.35
8144.00,1.35
8143.00,1.35
8142.00,1.35
8141.00,1.36
8140.00,1.36
8139.00,1.36
8138.00,1.36
8137.00,1.36
8136.00,1.36
8135.00,1.36
8134.00,1.36
8133.00,1.36
8132.00,1.36
8131.00,1.36
8130.00,1.36
8129.00,1.36
8128.00,1.36
8127.00,1.36
8126.00,1.36
8125.00,1.36
8124.00,1.36
8123.00,1.36
8122.00,1.36
8121.00,1.36
8120.00,1.36
8119.00,1.36
8118.00,1.36
8117.00,1.36
8116.00,1.36
8115.00,1.36
8114.00,1.36
8113.00,1.36
8112.00,1.36
8111.00,1.36
8110.00,1.36
8109.00,1.37
8108.00,1.37
8107.00,1.37
8106.00,1.37
8105.00,1.37
8104.00,1.37
8103.00,1.37
8102.00,1.38
8101.00,1.38
8100.00,1.38
8099.00,1.38
8098.00,1.38
8097.00,1.38
8096.00,1.38
8095.00,1.38
8094.00,1.38
8093.00,1.38
8092.00,1.38
8091.00,1.38
8090.00,1.38
8089.00,1.38
8088.00,1.38
8087.00,1.38
8086.00,1.38
8085.00,1.38
8084.00,1.38
8083.00,1.38
8082.00,1.38
8081.00,1.38
8080.00,1.38
8079.00,1.38
8078.00,1.38
8077.00,1.38
8076.00,1.38
8075.00,1.38
8074.00,1.38
8073.00,1.38
8072.00,1.38
8071.00,1.38
8070.00,1.38
8069.00,1.38
8068.00,1.38
8067.00,1.38
8066.00,1.38
8065.00,1.38
8064.00,1.37
8063.00,1.37
8062.00,1.37
8061.00,1.37
8060.00,1.37
8059.00,1.37
8058.00,1.37
8057.00,1.37
8056.00,1.37
8055.00,1.37
8054.00,1.37
8053.00,1.37
8052.00,1.37
8051.00,1.37
8050.00,1.37
8049.00,1.37
8048.00,1.37
8047.00,1.38
8046.00,1.38
8045.00,1.38
8044.00,1.38
8043.00,1.38
8042.00,1.38
8041.00,1.38
8040.00,1.38
8039.00,1.38
8038.00,1.38
8037.00,1.38
8036.00,1.38
8035.00,1.38
8034.00,1.38
8033.00,1.38
8032.00,1.38
8031.00,1.38
8030.00,1.38
8029.00,1.38
8028.00,1.38
8027.00,1.39
8026.00,1.39
8025.00,1.39
8024.00,1.39
8023.00,1.39
8022.00,1.39
8021.00,1.39
8020.00,1.39
8019.00,1.39
8018.00,1.39
8017.00,1.39
8016.00,1.39
8015.00,1.39
8014.00,1.39
8013.00,1.39
8012.00,1.39
8011.00,1.39
8010.00,1.39
8009.00,1.39
8008.00,1.39
8007.00,1.39
8006.00,1.39
8005.00,1.39
8004.00,1.39
8003.00,1.39
8002.00,1.39
8001.00,1.39
8000.00,1.39
7999.00,1.39
7998.00,1.39
7997.00,1.39
7996.00,1.39
7995.00,1.39
7994.00,1.38
7993.00,1.38
7992.00,1.38
7991.00,1.38
7990.00,1.38
7989.00,1.38
7988.00,1.38
7987.00,1.38
7986.00,1.38
7985.00,1.38
7984.00,1.38
7983.00,1.38
7982.00,1.38
7981.00,1.38
7980.00,1.39
7979.00,1.39
7978.00,1.39
7977.00,1.39
7976.00,1.39
7975.00,1.39
7974.00,1.39
7973.00,1.39
7972.00,1.39
7971.00,1.39
7970.00,1.39
7969.00,1.39
7968.00,1.39
7967.00,1.39
7966.00,1.39
7965.00,1.39
7964.00,1.39
7963.00,1.39
7962.00,1.39
7961.00,1.39
7960.00,1.39
7959.00,1.39
7958.00,1.39
7957.00,1.39
7956.00,1.39
7955.00,1.39
7954.00,1.39
7953.00,1.39
7952.00,1.39
7951.00,1.39
7950.00,1.39
7949.00,1.39
7948.00,1.39
7947.00,1.39
7946.00,1.39
7945.00,1.39
7944.00,1.39
7943.00,1.39
7942.00,1.40
7941.00,1.40
7940.00,1.40
7939.00,1.40
7938.00,1.40
7937.00,1.40
7936.00,1.40
7935.00,1.40
7934.00,1.40
7933.00,1.40
7932.00,1.40
7931.00,1.40
7930.00,1.40
7929.00,1.40
7928.00,1.40
7927.00,1.40
7926.00,1.40
7925.00,1.40
7924.00,1.40
7923.00,1.40
7922.00,1.40
7921.00,1.40
7920.00,1.40
7919.00,1.40
7918.00,1.40
7917.00,1.40
7916.00,1.40
7915.00,1.40
7914.00,1.40
7913.00,1.40
7912.00,1.40
7911.00,1.40
7910.00,1.40
7909.00,1.40
7908.00,1.40
7907.00,1.40
7906.00,1.40
7905.00,1.40
7904.00,1.40
7903.00,1.40
7902.00,1.40
7901.00,1.40
7900.00,1.40
7899.00,1.40
7898.00,1.40
7897.00,1.40
7896.00,1.40
7895.00,1.40
7894.00,1.40
7893.00,1.40
7892.00,1.41
7891.00,1.41
7890.00,1.41
7889.00,1.41
7888.00,1.41
7887.00,1.40
7886.00,1.40
7885.00,1.40
7884.00,1.40
7883.00,1.40
7882.00,1.40
7881.00,1.40
7880.00,1.40
7879.00,1.40
7878.00,1.40
7877.00,1.40
7876.00,1.40
7875.00,1.40
7874.00,1.40
7873.00,1.40
7872.00,1.40
7871.00,1.40
7870.00,1.40
7869.00,1.40
7868.00,1.40
7867.00,1.40
7866.00,1.40
7865.00,1.41
7864.00,1.41
7863.00,1.41
7862.00,1.41
7861.00,1.41
7860.00,1.41
7859.00,1.41
7858.00,1.41
7857.00,1.41
7856.00,1.41
7855.00,1.41
7854.00,1.41
7853.00,1.41
7852.00,1.41
7851.00,1.41
7850.00,1.41
7849.00,1.41
7848.00,1.41
7847.00,1.41
7846.00,1.41
7845.00,1.41
7844.00,1.41
7843.00,1.41
7842.00,1.41
7841.00,1.41
7840.00,1.41
7839.00,1.41
7838.00,1.41
7837.00,1.41
7836.00,1.41
7835.00,1.41
7834.00,1.41
7833.00,1.41
7832.00,1.41
7831.00,1.41
7830.00,1.41
7829.00,1.41
7828.00,1.42
7827.00,1.42
7826.00,1.42
7825.00,1.42
7824.00,1.42
7823.00,1.42
7822.00,1.42
7821.00,1.42
7820.00,1.42
7819.00,1.42
7818.00,1.42
7817.00,1.42
7816.00,1.42
7815.00,1.42
7814.00,1.42
7813.00,1.42
7812.00,1.42
7811.00,1.42
7810.00,1.42
7809.00,1.42
7808.00,1.41
7807.00,1.41
7806.00,1.41
7805.00,1.41
7804.00,1.41
7803.00,1.41
7802.00,1.41
7801.00,1.41
7800.00,1.41
7799.00,1.42
7798.00,1.42
7797.00,1.42
7796.00,1.42
7795.00,1.42
7794.00,1.42
7793.00,1.42
7792.00,1.42
7791.00,1.42
7790.00,1.42
7789.00,1.42
7788.00,1.42
7787.00,1.42
7786.00,1.42
7785.00,1.42
7784.00,1.42
7783.00,1.42
7782.00,1.42
7781.00,1.42
7780.00,1.42
7779.00,1.42
7778.00,1.42
7777.00,1.42
7776.00,1.42
7775.00,1.42
7774.00,1.42
7773.00,1.42
7772.00,1.42
7771.00,1.42
7770.00,1.42
7769.00,1.42
7768.00,1.42
7767.00,1.42
7766.00,1.42
7765.00,1.42
7764.00,1.42
7763.00,1.42
7762.00,1.42
7761.00,1.42
7760.00,1.42
7759.00,1.42
7758.00,1.42
7757.00,1.42
7756.00,1.42
7755.00,1.42
7754.00,1.42
7753.00,1.42
7752.00,1.42
7751.00,1.42
7750.00,1.42
7749.00,1.42
7748.00,1.42
7747.00,1.42
7746.00,1.42
7745.00,1.42
7744.00,1.42
7743.00,1.42
7742.00,1.42
7741.00,1.42
7740.00,1.42
7739.00,1.42
7738.00,1.42
7737.00,1.42
7736.00,1.42
7735.00,1.42
7734.00,1.42
7733.00,1.42
7732.00,1.42
7731.00,1.42
7730.00,1.42
7729.00,1.42
7728.00,1.42
7727.00,1.42
7726.00,1.42
7725.00,1.42
7724.00,1.42
7723.00,1.42
7722.00,1.42
7721.00,1.42
7720.00,1.42
7719.00,1.42
7718.00,1.42
7717.00,1.42
7716.00,1.42
7715.00,1.42
7714.00,1.42
7713.00,1.42
7712.00,1.42
7711.00,1.42
7710.00,1.42
7709.00,1.42
7708.00,1.42
7707.00,1.42
7706.00,1.42
7705.00,1.42
7704.00,1.42
7703.00,1.42
7702.00,1.42
7701.00,1.42
7700.00,1.42
7699.00,1.42
7698.00,1.42
7697.00,1.42
7696.00,1.42
7695.00,1.42
7694.00,1.42
7693.00,1.42
7692.00,1.41
7691.00,1.41
7690.00,1.41
7689.00,1.41
7688.00,1.41
7687.00,1.41
7686.00,1.41
7685.00,1.41
7684.00,1.41
7683.00,1.41
7682.00,1.41
7681.00,1.41
7680.00,1.41
7679.00,1.41
7678.00,1.41
7677.00,1.41
7676.00,1.42
7675.00,1.42
7674.00,1.42
7673.00,1.42
7672.00,1.42
7671.00,1.42
7670.00,1.42
7669.00,1.42
7668.00,1.42
7667.00,1.42
7666.00,1.42
7665.00,1.42
7664.00,1.42
7663.00,1.42
7662.00,1.42
7661.00,1.42
7660.00,1.42
7659.00,1.42
7658.00,1.42
7657.00,1.42
7656.00,1.42
7655.00,1.42
7654.00,1.42
7653.00,1.42
7652.00,1.42
7651.00,1.42
7650.00,1.42
7649.00,1.42
7648.00,1.42
7647.00,1.42
7646.00,1.42
7645.00,1.42
7644.00,1.42
7643.00,1.42
7642.00,1.42
7641.00,1.42
7640.00,1.42
7639.00,1.42
7638.00,1.42
7637.00,1.42
7636.00,1.42
7635.00,1.41
7634.00,1.41
7633.00,1.41
7632.00,1.41
7631.00,1.41
7630.00,1.41
7629.00,1.41
7628.00,1.41
7627.00,1.41
7626.00,1.41
7625.00,1.41
7624.00,1.42
7623.00,1.42
7622.00,1.42
7621.00,1.42
7620.00,1.42
7619.00,1.42
7618.00,1.42
7617.00,1.42
7616.00,1.42
7615.00,1.42
7614.00,1.42
7613.00,1.42
7612.00,1.42
7611.00,1.42
7610.00,1.42
7609.00,1.42
7608.00,1.42
7607.00,1.42
7606.00,1.42
7605.00,1.42
7604.00,1.42
7603.00,1.42
7602.00,1.41
7601.00,1.41
7600.00,1.41
7599.00,1.41
7598.00,1.41
7597.00,1.41
7596.00,1.41
7595.00,1.41
7594.00,1.42
7593.00,1.42
7592.00,1.42
7591.00,1.42
7590.00,1.42
7589.00,1.42
7588.00,1.42
7587.00,1.42
7586.00,1.42
7585.00,1.41
7584.00,1.41
7583.00,1.41
7582.00,1.41
7581.00,1.41
7580.00,1.41
7579.00,1.41
7578.00,1.41
7577.00,1.41
7576.00,1.41
7575.00,1.41
7574.00,1.41
7573.00,1.41
7572.00,1.41
7571.00,1.41
7570.00,1.41
7569.00,1.41
7568.00,1.41
7567.00,1.41
7566.00,1.41
7565.00,1.41
7564.00,1.41
7563.00,1.41
7562.00,1.41
7561.00,1.41
7560.00,1.41
7559.00,1.41
7558.00,1.41
7557.00,1.41
7556.00,1.41
7555.00,1.41
7554.00,1.41
7553.00,1.41
7552.00,1.41
7551.00,1.41
7550.00,1.41
7549.00,1.41
7548.00,1.41
7547.00,1.41
7546.00,1.41
7545.00,1.41
7544.00,1.41
7543.00,1.41
7542.00,1.41
7541.00,1.41
7540.00,1.41
7539.00,1.41
7538.00,1.41
7537.00,1.41
7536.00,1.41
7535.00,1.41
7534.00,1.41
7533.00,1.41
7532.00,1.41
7531.00,1.41
7530.00,1.41
7529.00,1.41
7528.00,1.40
7527.00,1.40
7526.00,1.40
7525.00,1.40
7524.00,1.40
7523.00,1.40
7522.00,1.40
7521.00,1.40
7520.00,1.40
7519.00,1.40
7518.00,1.40
7517.00,1.40
7516.00,1.40
7515.00,1.40
7514.00,1.40
7513.00,1.40
7512.00,1.40
7511.00,1.40
7510.00,1.40
7509.00,1.40
7508.00,1.40
7507.00,1.40
7506.00,1.40
7505.00,1.40
7504.00,1.40
7503.00,1.40
7502.00,1.40
7501.00,1.40
7500.00,1.40
7499.00,1.40
7498.00,1.40
7497.00,1.40
7496.00,1.40
7495.00,1.40
7494.00,1.40
7493.00,1.40
7492.00,1.40
7491.00,1.40
7490.00,1.40
7489.00,1.40
7488.00,1.40
7487.00,1.40
7486.00,1.40
7485.00,1.40
7484.00,1.40
7483.00,1.40
7482.00,1.40
7481.00,1.39
7480.00,1.39
7479.00,1.39
7478.00,1.39
7477.00,1.39
7476.00,1.39
7475.00,1.39
7474.00,1.39
7473.00,1.39
7472.00,1.39
7471.00,1.39
7470.00,1.39
7469.00,1.39
7468.00,1.39
7467.00,1.39
7466.00,1.39
7465.00,1.39
7464.00,1.39
7463.00,1.39
7462.00,1.38
7461.00,1.38
7460.00,1.38
7459.00,1.38
7458.00,1.38
7457.00,1.38
7456.00,1.38
7455.00,1.38
7454.00,1.38
7453.00,1.38
7452.00,1.38
7451.00,1.38
7450.00,1.37
7449.00,1.37
7448.00,1.37
7447.00,1.37
7446.00,1.37
7445.00,1.37
7444.00,1.37
7443.00,1.37
7442.00,1.37
7441.00,1.37
7440.00,1.37
7439.00,1.37
7438.00,1.37
7437.00,1.37
7436.00,1.37
7435.00,1.37
7434.00,1.37
7433.00,1.37
7432.00,1.37
7431.00,1.37
7430.00,1.37
7429.00,1.37
7428.00,1.37
7427.00,1.37
7426.00,1.37
7425.00,1.37
7424.00,1.37
7423.00,1.37
7422.00,1.37
7421.00,1.37
7420.00,1.37
7419.00,1.37
7418.00,1.37
7417.00,1.37
7416.00,1.37
7415.00,1.36
7414.00,1.36
7413.00,1.36
7412.00,1.36
7411.00,1.36
7410.00,1.36
7409.00,1.36
7408.00,1.35
7407.00,1.35
7406.00,1.35
7405.00,1.35
7404.00,1.35
7403.00,1.35
7402.00,1.35
7401.00,1.35
7400.00,1.34
7399.00,1.34
7398.00,1.34
7397.00,1.34
7396.00,1.34
7395.00,1.34
7394.00,1.34
7393.00,1.34
7392.00,1.34
7391.00,1.34
7390.00,1.34
7389.00,1.34
7388.00,1.34
7387.00,1.34
7386.00,1.34
7385.00,1.34
7384.00,1.34
7383.00,1.34
7382.00,1.34
7381.00,1.34
7380.00,1.34
7379.00,1.34
7378.00,1.34
7377.00,1.34
7376.00,1.34
7375.00,1.34
7374.00,1.34
7373.00,1.34
7372.00,1.34
7371.00,1.33
7370.00,1.33
7369.00,1.33
7368.00,1.33
7367.00,1.33
7366.00,1.33
7365.00,1.33
7364.00,1.33
7363.00,1.33
7362.00,1.33
7361.00,1.33
7360.00,1.33
7359.00,1.33
7358.00,1.33
7357.00,1.33
7356.00,1.33
7355.00,1.32
7354.00,1.32
7353.00,1.32
7352.00,1.32
7351.00,1.32
7350.00,1.32
7349.00,1.32
7348.00,1.32
7347.00,1.32
7346.00,1.32
7345.00,1.32
7344.00,1.31
7343.00,1.31
7342.00,1.31
7341.00,1.31
7340.00,1.31
7339.00,1.31
7338.00,1.31
7337.00,1.32
7336.00,1.32
7335.00,1.32
7334.00,1.32
7333.00,1.32
7332.00,1.32
7331.00,1.32
7330.00,1.32
7329.00,1.32
7328.00,1.32
7327.00,1.32
7326.00,1.32
7325.00,1.32
7324.00,1.32
7323.00,1.32
7322.00,1.32
7321.00,1.32
7320.00,1.32
7319.00,1.32
7318.00,1.31
7317.00,1.31
7316.00,1.31
7315.00,1.31
7314.00,1.31
7313.00,1.31
7312.00,1.31
7311.00,1.31
7310.00,1.31
7309.00,1.31
7308.00,1.31
7307.00,1.31
7306.00,1.30
7305.00,1.30
7304.00,1.30
7303.00,1.30
7302.00,1.30
7301.00,1.30
7300.00,1.30
7299.00,1.30
7298.00,1.30
7297.00,1.30
7296.00,1.29
7295.00,1.29
7294.00,1.29
7293.00,1.29
7292.00,1.29
7291.00,1.29
7290.00,1.29
7289.00,1.29
7288.00,1.29
7287.00,1.28
7286.00,1.28
7285.00,1.28
7284.00,1.28
7283.00,1.28
7282.00,1.28
7281.00,1.28
7280.00,1.28
7279.00,1.28
7278.00,1.28
7277.00,1.28
7276.00,1.28
7275.00,1.28
7274.00,1.28
7273.00,1.28
7272.00,1.28
7271.00,1.28
7270.00,1.28
7269.00,1.28
7268.00,1.28
7267.00,1.27
7266.00,1.27
7265.00,1.27
7264.00,1.27
7263.00,1.27
7262.00,1.27
7261.00,1.27
7260.00,1.26
7259.00,1.26
7258.00,1.26
7257.00,1.26
7256.00,1.26
7255.00,1.25
7254.00,1.25
7253.00,1.25
7252.00,1.25
7251.00,1.25
7250.00,1.24
7249.00,1.24
7248.00,1.24
7247.00,1.24
7246.00,1.23
7245.00,1.23
7244.00,1.23
7243.00,1.22
7242.00,1.22
7241.00,1.22
7240.00,1.22
7239.00,1.21
7238.00,1.21
7237.00,1.21
7236.00,1.21
7235.00,1.21
7234.00,1.20
7233.00,1.20
7232.00,1.20
7231.00,1.20
7230.00,1.19
7229.00,1.19
7228.00,1.19
7227.00,1.19
7226.00,1.19
7225.00,1.18
7224.00,1.18
7223.00,1.18
7222.00,1.18
7221.00,1.18
7220.00,1.17
7219.00,1.17
7218.00,1.17
7217.00,1.17
7216.00,1.16
7215.00,1.16
7214.00,1.16
7213.00,1.15
7212.00,1.15
7211.00,1.15
7210.00,1.15
7209.00,1.14
7208.00,1.14
7207.00,1.14
7206.00,1.13
7205.00,1.13
7204.00,1.13
7203.00,1.12
7202.00,1.12
7201.00,1.12
7200.00,1.12
7199.00,1.11
7198.00,1.11
7197.00,1.11
7196.00,1.11
7195.00,1.11
7194.00,1.10
7193.00,1.10
7192.00,1.10
7191.00,1.10
7190.00,1.09
7189.00,1.09
7188.00,1.09
7187.00,1.09
7186.00,1.09
7185.00,1.08
7184.00,1.08
7183.00,1.08
7182.00,1.08
7181.00,1.07
7180.00,1.07
7179.00,1.07
7178.00,1.07
7177.00,1.07
7176.00,1.06
7175.00,1.06
7174.00,1.06
7173.00,1.06
7172.00,1.05
7171.00,1.05
7170.00,1.05
7169.00,1.04
7168.00,1.04
7167.00,1.04
7166.00,1.04
7165.00,1.03
7164.00,1.03
7163.00,1.03
7162.00,1.03
7161.00,1.02
7160.00,1.02
7159.00,1.02
7158.00,1.02
7157.00,1.01
7156.00,1.01
7155.00,1.01
7154.00,1.01
7153.00,1.00
7152.00,1.00
7151.00,1.00
7150.00,1.00
7149.00,0.99
7148.00,0.99
7147.00,0.99
7146.00,0.99
7145.00,0.98
7144.00,0.98
7143.00,0.98
7142.00,0.98
7141.00,0.97
7140.00,0.97
7139.00,0.97
7138.00,0.97
7137.00,0.97
7136.00,0.96
7135.00,0.96
7134.00,0.96
7133.00,0.96
7132.00,0.95
7131.00,0.95
7130.00,0.95
7129.00,0.95
7128.00,0.94
7127.00,0.94
7126.00,0.94
7125.00,0.93
7124.00,0.93
7123.00,0.93
7122.00,0.93
7121.00,0.92
7120.00,0.92
7119.00,0.92
7118.00,0.91
7117.00,0.91
7116.00,0.91
7115.00,0.91
7114.00,0.90
7113.00,0.90
7112.00,0.90
7111.00,0.90
7110.00,0.90
7109.00,0.89
7108.00,0.89
7107.00,0.89
7106.00,0.89
7105.00,0.89
7104.00,0.89
7103.00,0.88
7102.00,0.88
7101.00,0.88
7100.00,0.88
7099.00,0.88
7098.00,0.88
7097.00,0.87
7096.00,0.87
7095.00,0.87
7094.00,0.87
7093.00,0.87
7092.00,0.86
7091.00,0.86
7090.00,0.86
7089.00,0.86
7088.00,0.86
7087.00,0.85
7086.00,0.85
7085.00,0.85
7084.00,0.85
7083.00,0.85
7082.00,0.85
7081.00,0.85
7080.00,0.84
7079.00,0.84
7078.00,0.84
7077.00,0.84
7076.00,0.84
7075.00,0.84
7074.00,0.84
7073.00,0.83
7072.00,0.83
7071.00,0.83
7070.00,0.83
7069.00,0.83
7068.00,0.83
7067.00,0.83
7066.00,0.82
7065.00,0.82
7064.00,0.82
7063.00,0.82
7062.00,0.82
7061.00,0.82
7060.00,0.82
7059.00,0.81
7058.00,0.81
7057.00,0.81
7056.00,0.81
7055.00,0.81
7054.00,0.81
7053.00,0.80
7052.00,0.80
7051.00,0.80
7050.00,0.80
7049.00,0.80
7048.00,0.79
7047.00,0.79
7046.00,0.79
7045.00,0.79
7044.00,0.79
7043.00,0.79
7042.00,0.79
7041.00,0.79
7040.00,0.78
7039.00,0.78
7038.00,0.78
7037.00,0.78
7036.00,0.78
7035.00,0.78
7034.00,0.78
7033.00,0.78
7032.00,0.78
7031.00,0.78
7030.00,0.78
7029.00,0.77
7028.00,0.77
7027.00,0.77
7026.00,0.77
7025.00,0.77
7024.00,0.77
7023.00,0.77
7022.00,0.77
7021.00,0.77
7020.00,0.76
7019.00,0.76
7018.00,0.76
7017.00,0.76
7016.00,0.76
7015.00,0.76
7014.00,0.76
7013.00,0.76
7012.00,0.76
7011.00,0.76
7010.00,0.75
7009.00,0.75
7008.00,0.75
7007.00,0.75
7006.00,0.75
7005.00,0.75
7004.00,0.75
7003.00,0.75
7002.00,0.75
7001.00,0.75
7000.00,0.75
6999.00,0.74
6998.00,0.74
6997.00,0.74
6996.00,0.74
6995.00,0.74
6994.00,0.74
6993.00,0.74
6992.00,0.74
6991.00,0.74
6990.00,0.74
6989.00,0.74
6988.00,0.74
6987.00,0.74
6986.00,0.74
6985.00,0.74
6984.00,0.73
6983.00,0.73
6982.00,0.73
6981.00,0.73
6980.00,0.73
6979.00,0.73
6978.00,0.73
6977.00,0.73
6976.00,0.73
6975.00,0.73
6974.00,0.73
6973.00,0.73
6972.00,0.73
6971.00,0.73
6970.00,0.73
6969.00,0.73
6968.00,0.73
6967.00,0.73
6966.00,0.73
6965.00,0.73
6964.00,0.73
6963.00,0.73
6962.00,0.73
6961.00,0.72
6960.00,0.72
6959.00,0.72
6958.00,0.72
6957.00,0.72
6956.00,0.72
6955.00,0.72
6954.00,0.72
6953.00,0.72
6952.00,0.72
6951.00,0.72
6950.00,0.72
6949.00,0.71
6948.00,0.71
6947.00,0.71
6946.00,0.71
6945.00,0.71
6944.00,0.71
6943.00,0.71
6942.00,0.71
6941.00,0.71
6940.00,0.71
6939.00,0.71
6938.00,0.71
6937.00,0.71
6936.00,0.71
6935.00,0.71
6934.00,0.71
6933.00,0.71
6932.00,0.71
6931.00,0.71
6930.00,0.71
6929.00,0.71
6928.00,0.71
6927.00,0.71
6926.00,0.70
6925.00,0.70
6924.00,0.70
6923.00,0.70
6922.00,0.70
6921.00,0.70
6920.00,0.70
6919.00,0.70
6918.00,0.70
6917.00,0.70
6916.00,0.70
6915.00,0.70
6914.00,0.70
6913.00,0.70
6912.00,0.70
6911.00,0.70
6910.00,0.70
6909.00,0.70
6908.00,0.70
6907.00,0.70
6906.00,0.70
6905.00,0.70
6904.00,0.70
6903.00,0.70
6902.00,0.70
6901.00,0.70
6900.00,0.70
6899.00,0.70
6898.00,0.70
6897.00,0.70
6896.00,0.70
6895.00,0.70
6894.00,0.70
6893.00,0.70
6892.00,0.70
6891.00,0.70
6890.00,0.70
6889.00,0.70
6888.00,0.70
6887.00,0.70
6886.00,0.70
6885.00,0.70
6884.00,0.70
6883.00,0.70
6882.00,0.70
6881.00,0.70
6880.00,0.69
6879.00,0.69
6878.00,0.69
6877.00,0.69
6876.00,0.69
6875.00,0.69
6874.00,0.70
6873.00,0.70
6872.00,0.70
6871.00,0.70
6870.00,0.70
6869.00,0.70
6868.00,0.70
6867.00,0.70
6866.00,0.70
6865.00,0.70
6864.00,0.70
6863.00,0.70
6862.00,0.70
6861.00,0.70
6860.00,0.70
6859.00,0.70
6858.00,0.70
6857.00,0.70
6856.00,0.70
6855.00,0.70
6854.00,0.70
6853.00,0.70
6852.00,0.70
6851.00,0.70
6850.00,0.70
6849.00,0.70
6848.00,0.70
6847.00,0.70
6846.00,0.70
6845.00,0.70
6844.00,0.70
6843.00,0.70
6842.00,0.70
6841.00,0.70
6840.00,0.71
6839.00,0.71
6838.00,0.71
6837.00,0.71
6836.00,0.71
6835.00,0.71
6834.00,0.71
6833.00,0.71
6832.00,0.71
6831.00,0.71
6830.00,0.71
6829.00,0.71
6828.00,0.71
6827.00,0.71
6826.00,0.71
6825.00,0.71
6824.00,0.71
6823.00,0.71
6822.00,0.71
6821.00,0.71
6820.00,0.71
6819.00,0.71
6818.00,0.71
6817.00,0.71
6816.00,0.71
6815.00,0.72
6814.00,0.72
6813.00,0.72
6812.00,0.72
6811.00,0.72
6810.00,0.72
6809.00,0.72
6808.00,0.72
6807.00,0.72
6806.00,0.72
6805.00,0.72
6804.00,0.72
6803.00,0.72
6802.00,0.71
6801.00,0.71
6800.00,0.71
6799.00,0.71
6798.00,0.71
6797.00,0.71
6796.00,0.71
6795.00,0.71
6794.00,0.71
6793.00,0.71
6792.00,0.71
6791.00,0.71
6790.00,0.71
6789.00,0.71
6788.00,0.71
6787.00,0.71
6786.00,0.71
6785.00,0.72
6784.00,0.72
6783.00,0.72
6782.00,0.72
6781.00,0.72
6780.00,0.72
6779.00,0.72
6778.00,0.72
6777.00,0.72
6776.00,0.72
6775.00,0.72
6774.00,0.73
6773.00,0.73
6772.00,0.73
6771.00,0.73
6770.00,0.73
6769.00,0.73
6768.00,0.73
6767.00,0.73
6766.00,0.73
6765.00,0.73
6764.00,0.73
6763.00,0.73
6762.00,0.73
6761.00,0.73
6760.00,0.74
6759.00,0.74
6758.00,0.74
6757.00,0.74
6756.00,0.74
6755.00,0.74
6754.00,0.74
6753.00,0.74
6752.00,0.74
6751.00,0.74
6750.00,0.74
6749.00,0.74
6748.00,0.74
6747.00,0.74
6746.00,0.74
6745.00,0.74
6744.00,0.74
6743.00,0.74
6742.00,0.74
6741.00,0.74
6740.00,0.75
6739.00,0.75
6738.00,0.75
6737.00,0.75
6736.00,0.75
6735.00,0.75
6734.00,0.75
6733.00,0.75
6732.00,0.75
6731.00,0.75
6730.00,0.75
6729.00,0.75
6728.00,0.75
6727.00,0.76
6726.00,0.76
6725.00,0.76
6724.00,0.76
6723.00,0.76
6722.00,0.76
6721.00,0.76
6720.00,0.76
6719.00,0.76
6718.00,0.76
6717.00,0.76
6716.00,0.76
6715.00,0.76
6714.00,0.76
6713.00,0.76
6712.00,0.76
6711.00,0.77
6710.00,0.77
6709.00,0.77
6708.00,0.77
6707.00,0.77
6706.00,0.77
6705.00,0.77
6704.00,0.77
6703.00,0.77
6702.00,0.77
6701.00,0.77
6700.00,0.77
6699.00,0.77
6698.00,0.78
6697.00,0.78
6696.00,0.78
6695.00,0.78
6694.00,0.78
6693.00,0.78
6692.00,0.78
6691.00,0.78
6690.00,0.78
6689.00,0.78
6688.00,0.78
6687.00,0.78
6686.00,0.79
6685.00,0.79
6684.00,0.79
6683.00,0.79
6682.00,0.79
6681.00,0.79
6680.00,0.79
6679.00,0.80
6678.00,0.80
6677.00,0.80
6676.00,0.80
6675.00,0.80
6674.00,0.80
6673.00,0.80
6672.00,0.80
6671.00,0.80
6670.00,0.81
6669.00,0.81
6668.00,0.81
6667.00,0.81
6666.00,0.81
6665.00,0.81
6664.00,0.81
6663.00,0.81
6662.00,0.81
6661.00,0.81
6660.00,0.81
6659.00,0.81
6658.00,0.81
6657.00,0.81
6656.00,0.81
6655.00,0.81
6654.00,0.82
6653.00,0.82
6652.00,0.82
6651.00,0.82
6650.00,0.82
6649.00,0.82
6648.00,0.82
6647.00,0.82
6646.00,0.82
6645.00,0.82
6644.00,0.82
6643.00,0.83
6642.00,0.83
6641.00,0.83
6640.00,0.83
6639.00,0.83
6638.00,0.83
6637.00,0.83
6636.00,0.83
6635.00,0.83
6634.00,0.83
6633.00,0.83
6632.00,0.84
6631.00,0.84
6630.00,0.84
6629.00,0.84
6628.00,0.84
6627.00,0.84
6626.00,0.84
6625.00,0.84
6624.00,0.84
6623.00,0.84
6622.00,0.85
6621.00,0.85
6620.00,0.85
6619.00,0.85
6618.00,0.85
6617.00,0.85
6616.00,0.85
6615.00,0.85
6614.00,0.85
6613.00,0.85
6612.00,0.85
6611.00,0.85
6610.00,0.85
6609.00,0.85
6608.00,0.86
6607.00,0.86
6606.00,0.86
6605.00,0.86
6604.00,0.86
6603.00,0.86
6602.00,0.86
6601.00,0.86
6600.00,0.86
6599.00,0.86
6598.00,0.87
6597.00,0.87
6596.00,0.87
6595.00,0.87
6594.00,0.87
6593.00,0.87
6592.00,0.87
6591.00,0.87
6590.00,0.88
6589.00,0.88
6588.00,0.88
6587.00,0.88
6586.00,0.88
6585.00,0.88
6584.00,0.88
6583.00,0.88
6582.00,0.88
6581.00,0.89
6580.00,0.89
6579.00,0.89
6578.00,0.89
6577.00,0.89
6576.00,0.89
6575.00,0.89
6574.00,0.89
6573.00,0.89
6572.00,0.89
6571.00,0.89
6570.00,0.89
6569.00,0.89
6568.00,0.89
6567.00,0.89
6566.00,0.89
6565.00,0.89
6564.00,0.90
6563.00,0.90
6562.00,0.90
6561.00,0.90
6560.00,0.90
6559.00,0.90
6558.00,0.90
6557.00,0.90
6556.00,0.90
6555.00,0.90
6554.00,0.90
6553.00,0.90
6552.00,0.90
6551.00,0.90
6550.00,0.90
6549.00,0.90
6548.00,0.91
6547.00,0.91
6546.00,0.91
6545.00,0.91
6544.00,0.91
6543.00,0.91
6542.00,0.91
6541.00,0.91
6540.00,0.91
6539.00,0.91
6538.00,0.91
6537.00,0.91
6536.00,0.91
6535.00,0.92
6534.00,0.92
6533.00,0.92
6532.00,0.92
6531.00,0.92
6530.00,0.92
6529.00,0.92
6528.00,0.92
6527.00,0.92
6526.00,0.93
6525.00,0.93
6524.00,0.93
6523.00,0.93
6522.00,0.93
6521.00,0.93
6520.00,0.93
6519.00,0.93
6518.00,0.93
6517.00,0.93
6516.00,0.94
6515.00,0.94
6514.00,0.94
6513.00,0.94
6512.00,0.94
6511.00,0.94
6510.00,0.94
6509.00,0.94
6508.00,0.94
6507.00,0.94
6506.00,0.94
6505.00,0.94
6504.00,0.94
6503.00,0.94
6502.00,0.94
6501.00,0.94
6500.00,0.94
6499.00,0.94
6498.00,0.94
6497.00,0.94
6496.00,0.94
6495.00,0.95
6494.00,0.95
6493.00,0.95
6492.00,0.95
6491.00,0.95
6490.00,0.95
6489.00,0.95
6488.00,0.95
6487.00,0.95
6486.00,0.95
6485.00,0.95
6484.00,0.95
6483.00,0.95
6482.00,0.95
6481.00,0.95
6480.00,0.95
6479.00,0.95
6478.00,0.95
6477.00,0.95
6476.00,0.95
6475.00,0.95
6474.00,0.95
6473.00,0.95
6472.00,0.95
6471.00,0.95
6470.00,0.95
6469.00,0.95
6468.00,0.95
6467.00,0.95
6466.00,0.95
6465.00,0.95
6464.00,0.95
6463.00,0.96
6462.00,0.96
6461.00,0.96
6460.00,0.96
6459.00,0.96
6458.00,0.96
6457.00,0.96
6456.00,0.96
6455.00,0.96
6454.00,0.96
6453.00,0.96
6452.00,0.96
6451.00,0.96
6450.00,0.96
6449.00,0.96
6448.00,0.96
6447.00,0.96
6446.00,0.96
6445.00,0.96
6444.00,0.96
6443.00,0.96
6442.00,0.96
6441.00,0.96
6440.00,0.96
6439.00,0.97
6438.00,0.97
6437.00,0.97
6436.00,0.97
6435.00,0.97
6434.00,0.97
6433.00,0.97
6432.00,0.97
6431.00,0.97
6430.00,0.97
6429.00,0.98
6428.00,0.98
6427.00,0.98
6426.00,0.98
6425.00,0.98
6424.00,0.98
6423.00,0.98
6422.00,0.98
6421.00,0.98
6420.00,0.98
6419.00,0.98
6418.00,0.98
6417.00,0.98
6416.00,0.98
6415.00,0.98
6414.00,0.98
6413.00,0.98
6412.00,0.98
6411.00,0.98
6410.00,0.99
6409.00,0.99
6408.00,0.99
6407.00,0.99
6406.00,0.99
6405.00,0.99
6404.00,0.99
6403.00,0.99
6402.00,0.99
6401.00,0.99
6400.00,0.99
6399.00,0.99
6398.00,0.99
6397.00,0.99
6396.00,0.99
6395.00,0.99
6394.00,0.99
6393.00,0.99
6392.00,0.99
6391.00,0.99
6390.00,0.99
6389.00,0.99
6388.00,0.99
6387.00,0.99
6386.00,0.99
6385.00,0.99
6384.00,0.99
6383.00,0.99
6382.00,1.00
6381.00,1.00
6380.00,1.00
6379.00,1.00
6378.00,1.00
6377.00,1.00
6376.00,1.00
6375.00,1.00
6374.00,1.00
6373.00,1.00
6372.00,1.00
6371.00,1.00
6370.00,1.01
6369.00,1.01
6368.00,1.01
6367.00,1.01
6366.00,1.01
6365.00,1.01
6364.00,1.01
6363.00,1.01
6362.00,1.01
6361.00,1.01
6360.00,1.01
6359.00,1.01
6358.00,1.01
6357.00,1.01
6356.00,1.01
6355.00,1.01
6354.00,1.01
6353.00,1.01
6352.00,1.01
6351.00,1.01
6350.00,1.01
6349.00,1.01
6348.00,1.01
6347.00,1.02
6346.00,1.02
6345.00,1.02
6344.00,1.02
6343.00,1.02
6342.00,1.02
6341.00,1.02
6340.00,1.02
6339.00,1.02
6338.00,1.02
6337.00,1.02
6336.00,1.03
6335.00,1.03
6334.00,1.03
6333.00,1.03
6332.00,1.03
6331.00,1.03
6330.00,1.03
6329.00,1.03
6328.00,1.04
6327.00,1.04
6326.00,1.04
6325.00,1.04
6324.00,1.04
6323.00,1.04
6322.00,1.04
6321.00,1.04
6320.00,1.04
6319.00,1.05
6318.00,1.05
6317.00,1.05
6316.00,1.05
6315.00,1.05
6314.00,1.05
6313.00,1.05
6312.00,1.05
6311.00,1.05
6310.00,1.05
6309.00,1.05
6308.00,1.05
6307.00,1.06
6306.00,1.06
6305.00,1.06
6304.00,1.06
6303.00,1.06
6302.00,1.06
6301.00,1.06
6300.00,1.06
6299.00,1.06
6298.00,1.06
6297.00,1.06
6296.00,1.06
6295.00,1.06
6294.00,1.06
6293.00,1.06
6292.00,1.06
6291.00,1.06
6290.00,1.06
6289.00,1.07
6288.00,1.07
6287.00,1.07
6286.00,1.07
6285.00,1.07
6284.00,1.07
6283.00,1.07
6282.00,1.07
6281.00,1.07
6280.00,1.07
6279.00,1.08
6278.00,1.08
6277.00,1.08
6276.00,1.08
6275.00,1.08
6274.00,1.08
6273.00,1.08
6272.00,1.08
6271.00,1.09
6270.00,1.09
6269.00,1.09
6268.00,1.09
6267.00,1.09
6266.00,1.09
6265.00,1.09
6264.00,1.09
6263.00,1.09
6262.00,1.10
6261.00,1.10
6260.00,1.10
6259.00,1.10
6258.00,1.10
6257.00,1.10
6256.00,1.10
6255.00,1.10
6254.00,1.10
6253.00,1.11
6252.00,1.11
6251.00,1.11
6250.00,1.11
6249.00,1.11
6248.00,1.11
6247.00,1.11
6246.00,1.11
6245.00,1.11
6244.00,1.11
6243.00,1.12
6242.00,1.12
6241.00,1.12
6240.00,1.12
6239.00,1.12
6238.00,1.12
6237.00,1.12
6236.00,1.12
6235.00,1.12
6234.00,1.13
6233.00,1.13
6232.00,1.13
6231.00,1.13
6230.00,1.13
6229.00,1.13
6228.00,1.13
6227.00,1.13
6226.00,1.13
6225.00,1.13
6224.00,1.13
6223.00,1.13
6222.00,1.13
6221.00,1.13
6220.00,1.14
6219.00,1.14
6218.00,1.14
6217.00,1.14
6216.00,1.14
6215.00,1.14
6214.00,1.14
6213.00,1.14
6212.00,1.14
6211.00,1.14
6210.00,1.15
6209.00,1.15
6208.00,1.15
6207.00,1.15
6206.00,1.15
6205.00,1.15
6204.00,1.15
6203.00,1.15
6202.00,1.16
6201.00,1.16
6200.00,1.16
6199.00,1.16
6198.00,1.16
6197.00,1.16
6196.00,1.16
6195.00,1.16
6194.00,1.17
6193.00,1.17
6192.00,1.17
6191.00,1.17
6190.00,1.17
6189.00,1.17
6188.00,1.17
6187.00,1.18
6186.00,1.18
6185.00,1.18
6184.00,1.18
6183.00,1.18
6182.00,1.18
6181.00,1.18
6180.00,1.19
6179.00,1.19
6178.00,1.19
6177.00,1.19
6176.00,1.19
6175.00,1.19
6174.00,1.19
6173.00,1.19
6172.00,1.19
6171.00,1.19
6170.00,1.19
6169.00,1.19
6168.00,1.19
6167.00,1.20
6166.00,1.20
6165.00,1.20
6164.00,1.20
6163.00,1.20
6162.00,1.20
6161.00,1.20
6160.00,1.20
6159.00,1.20
6158.00,1.20
6157.00,1.20
6156.00,1.20
6155.00,1.21
6154.00,1.21
6153.00,1.21
6152.00,1.21
6151.00,1.21
6150.00,1.21
6149.00,1.21
6148.00,1.22
6147.00,1.22
6146.00,1.22
6145.00,1.22
6144.00,1.22
6143.00,1.23
6142.00,1.23
6141.00,1.23
6140.00,1.23
6139.00,1.23
6138.00,1.23
6137.00,1.24
6136.00,1.24
6135.00,1.24
6134.00,1.24
6133.00,1.24
6132.00,1.24
6131.00,1.24
6130.00,1.25
6129.00,1.25
6128.00,1.25
6127.00,1.25
6126.00,1.25
6125.00,1.25
6124.00,1.25
6123.00,1.25
6122.00,1.25
6121.00,1.26
6120.00,1.26
6119.00,1.26
6118.00,1.26
6117.00,1.26
6116.00,1.26
6115.00,1.26
6114.00,1.26
6113.00,1.27
6112.00,1.27
6111.00,1.27
6110.00,1.27
6109.00,1.27
6108.00,1.27
6107.00,1.27
6106.00,1.27
6105.00,1.27
6104.00,1.27
6103.00,1.28
6102.00,1.28
6101.00,1.28
6100.00,1.28
6099.00,1.28
6098.00,1.28
6097.00,1.28
6096.00,1.28
6095.00,1.28
6094.00,1.28
6093.00,1.29
6092.00,1.29
6091.00,1.29
6090.00,1.29
6089.00,1.29
6088.00,1.29
6087.00,1.29
6086.00,1.29
6085.00,1.30
6084.00,1.30
6083.00,1.30
6082.00,1.30
6081.00,1.30
6080.00,1.30
6079.00,1.30
6078.00,1.30
6077.00,1.31
6076.00,1.31
6075.00,1.31
6074.00,1.31
6073.00,1.31
6072.00,1.31
6071.00,1.31
6070.00,1.31
6069.00,1.31
6068.00,1.31
6067.00,1.31
6066.00,1.31
6065.00,1.31
6064.00,1.31
6063.00,1.31
6062.00,1.31
6061.00,1.31
6060.00,1.31
6059.00,1.31
6058.00,1.31
6057.00,1.32
6056.00,1.32
6055.00,1.32
6054.00,1.32
6053.00,1.32
6052.00,1.32
6051.00,1.32
6050.00,1.32
6049.00,1.32
6048.00,1.32
6047.00,1.32
6046.00,1.32
6045.00,1.33
6044.00,1.33
6043.00,1.33
6042.00,1.33
6041.00,1.33
6040.00,1.33
6039.00,1.33
6038.00,1.33
6037.00,1.33
6036.00,1.33
6035.00,1.33
6034.00,1.33
6033.00,1.33
6032.00,1.33
6031.00,1.33
6030.00,1.33
6029.00,1.33
6028.00,1.34
6027.00,1.34
6026.00,1.34
6025.00,1.34
6024.00,1.34
6023.00,1.34
6022.00,1.34
6021.00,1.34
6020.00,1.34
6019.00,1.34
6018.00,1.34
6017.00,1.34
6016.00,1.34
6015.00,1.34
6014.00,1.34
6013.00,1.34
6012.00,1.34
6011.00,1.33
6010.00,1.33
6009.00,1.33
6008.00,1.33
6007.00,1.33
6006.00,1.33
6005.00,1.33
6004.00,1.33
6003.00,1.33
6002.00,1.33
6001.00,1.33
6000.00,1.33
5999.00,1.33
5998.00,1.33
5997.00,1.33
5996.00,1.33
5995.00,1.33
5994.00,1.33
5993.00,1.33
5992.00,1.33
5991.00,1.33
5990.00,1.32
5989.00,1.32
5988.00,1.32
5987.00,1.32
5986.00,1.32
5985.00,1.31
5984.00,1.31
5983.00,1.31
5982.00,1.31
5981.00,1.30
5980.00,1.30
5979.00,1.30
5978.00,1.30
5977.00,1.29
5976.00,1.29
5975.00,1.28
5974.00,1.28
5973.00,1.28
5972.00,1.27
5971.00,1.27
5970.00,1.26
5969.00,1.26
5968.00,1.25
5967.00,1.24
5966.00,1.24
5965.00,1.23
5964.00,1.23
5963.00,1.22
5962.00,1.21
5961.00,1.21
5960.00,1.20
5959.00,1.19
5958.00,1.19
5957.00,1.18
5956.00,1.17
5955.00,1.17
5954.00,1.16
5953.00,1.15
5952.00,1.15
5951.00,1.14
5950.00,1.14
5949.00,1.13
5948.00,1.13
5947.00,1.13
5946.00,1.12
5945.00,1.12
5944.00,1.12
5943.00,1.11
5942.00,1.11
5941.00,1.11
5940.00,1.11
5939.00,1.11
5938.00,1.11
5937.00,1.11
5936.00,1.10
5935.00,1.10
5934.00,1.10
5933.00,1.10
5932.00,1.10
5931.00,1.10
5930.00,1.10
5929.00,1.10
5928.00,1.10
5927.00,1.10
5926.00,1.09
5925.00,1.09
5924.00,1.09
5923.00,1.09
5922.00,1.09
5921.00,1.09
5920.00,1.08
5919.00,1.08
5918.00,1.08
5917.00,1.08
5916.00,1.07
5915.00,1.07
5914.00,1.07
5913.00,1.07
5912.00,1.06
5911.00,1.06
5910.00,1.06
5909.00,1.06
5908.00,1.06
5907.00,1.05
5906.00,1.05
5905.00,1.05
5904.00,1.05
5903.00,1.05
5902.00,1.05
5901.00,1.05
5900.00,1.05
5899.00,1.05
5898.00,1.05
5897.00,1.05
5896.00,1.05
5895.00,1.05
5894.00,1.05
5893.00,1.06
5892.00,1.06
5891.00,1.06
5890.00,1.06
5889.00,1.07
5888.00,1.07
5887.00,1.07
5886.00,1.07
5885.00,1.08
5884.00,1.08
5883.00,1.08
5882.00,1.09
5881.00,1.09
5880.00,1.09
5879.00,1.09
5878.00,1.10
5877.00,1.10
5876.00,1.10
5875.00,1.10
5874.00,1.11
5873.00,1.11
5872.00,1.11
5871.00,1.11
5870.00,1.11
5869.00,1.12
5868.00,1.12
5867.00,1.12
5866.00,1.12
5865.00,1.12
5864.00,1.12
5863.00,1.13
5862.00,1.13
5861.00,1.13
5860.00,1.13
5859.00,1.13
5858.00,1.13
5857.00,1.13
5856.00,1.14
5855.00,1.14
5854.00,1.14
5853.00,1.14
5852.00,1.14
5851.00,1.14
5850.00,1.14
5849.00,1.14
5848.00,1.14
5847.00,1.14
5846.00,1.14
5845.00,1.14
5844.00,1.14
5843.00,1.14
5842.00,1.14
5841.00,1.14
5840.00,1.14
5839.00,1.14
5838.00,1.14
5837.00,1.14
5836.00,1.14
5835.00,1.14
5834.00,1.13
5833.00,1.13
5832.00,1.13
5831.00,1.13
5830.00,1.13
5829.00,1.13
5828.00,1.13
5827.00,1.13
5826.00,1.13
5825.00,1.13
5824.00,1.14
5823.00,1.14
5822.00,1.14
5821.00,1.14
5820.00,1.14
5819.00,1.14
5818.00,1.14
5817.00,1.14
5816.00,1.14
5815.00,1.14
5814.00,1.14
5813.00,1.14
5812.00,1.14
5811.00,1.14
5810.00,1.15
5809.00,1.15
5808.00,1.15
5807.00,1.15
5806.00,1.14
5805.00,1.14
5804.00,1.14
5803.00,1.14
5802.00,1.14
5801.00,1.14
5800.00,1.14
5799.00,1.14
5798.00,1.14
5797.00,1.13
5796.00,1.13
5795.00,1.13
5794.00,1.13
5793.00,1.13
5792.00,1.12
5791.00,1.12
5790.00,1.12
5789.00,1.12
5788.00,1.12
5787.00,1.11
5786.00,1.11
5785.00,1.11
5784.00,1.11
5783.00,1.11
5782.00,1.10
5781.00,1.10
5780.00,1.10
5779.00,1.10
5778.00,1.10
5777.00,1.10
5776.00,1.10
5775.00,1.10
5774.00,1.10
5773.00,1.09
5772.00,1.09
5771.00,1.09
5770.00,1.10
5769.00,1.10
5768.00,1.10
5767.00,1.10
5766.00,1.10
5765.00,1.10
5764.00,1.10
5763.00,1.10
5762.00,1.10
5761.00,1.11
5760.00,1.11
5759.00,1.11
5758.00,1.11
5757.00,1.12
5756.00,1.12
5755.00,1.12
5754.00,1.12
5753.00,1.13
5752.00,1.13
5751.00,1.13
5750.00,1.14
5749.00,1.14
5748.00,1.14
5747.00,1.15
5746.00,1.15
5745.00,1.15
5744.00,1.16
5743.00,1.16
5742.00,1.16
5741.00,1.17
5740.00,1.17
5739.00,1.17
5738.00,1.18
5737.00,1.18
5736.00,1.18
5735.00,1.18
5734.00,1.18
5733.00,1.19
5732.00,1.19
5731.00,1.19
5730.00,1.19
5729.00,1.19
5728.00,1.19
5727.00,1.19
5726.00,1.19
5725.00,1.19
5724.00,1.19
5723.00,1.19
5722.00,1.19
5721.00,1.19
5720.00,1.19
5719.00,1.19
5718.00,1.20
5717.00,1.20
5716.00,1.20
5715.00,1.20
5714.00,1.20
5713.00,1.20
5712.00,1.20
5711.00,1.20
5710.00,1.20
5709.00,1.20
5708.00,1.19
5707.00,1.19
5706.00,1.19
5705.00,1.19
5704.00,1.19
5703.00,1.19
5702.00,1.19
5701.00,1.19
5700.00,1.19
5699.00,1.19
5698.00,1.19
5697.00,1.18
5696.00,1.18
5695.00,1.18
5694.00,1.18
5693.00,1.18
5692.00,1.18
5691.00,1.18
5690.00,1.18
5689.00,1.18
5688.00,1.18
5687.00,1.17
5686.00,1.17
5685.00,1.17
5684.00,1.17
5683.00,1.17
5682.00,1.17
5681.00,1.17
5680.00,1.17
5679.00,1.17
5678.00,1.17
5677.00,1.17
5676.00,1.17
5675.00,1.17
5674.00,1.17
5673.00,1.17
5672.00,1.17
5671.00,1.17
5670.00,1.17
5669.00,1.17
5668.00,1.17
5667.00,1.17
5666.00,1.17
5665.00,1.17
5664.00,1.17
5663.00,1.17
5662.00,1.17
5661.00,1.18
5660.00,1.18
5659.00,1.18
5658.00,1.18
5657.00,1.18
5656.00,1.18
5655.00,1.18
5654.00,1.19
5653.00,1.19
5652.00,1.19
5651.00,1.19
5650.00,1.19
5649.00,1.19
5648.00,1.19
5647.00,1.20
5646.00,1.20
5645.00,1.20
5644.00,1.20
5643.00,1.20
5642.00,1.20
5641.00,1.21
5640.00,1.21
5639.00,1.21
5638.00,1.21
5637.00,1.21
5636.00,1.22
5635.00,1.22
5634.00,1.22
5633.00,1.22
5632.00,1.22
5631.00,1.23
5630.00,1.23
5629.00,1.23
5628.00,1.23
5627.00,1.23
5626.00,1.23
5625.00,1.24
5624.00,1.24
5623.00,1.24
5622.00,1.24
5621.00,1.24
5620.00,1.24
5619.00,1.24
5618.00,1.24
5617.00,1.25
5616.00,1.25
5615.00,1.25
5614.00,1.25
5613.00,1.25
5612.00,1.25
5611.00,1.25
5610.00,1.25
5609.00,1.26
5608.00,1.26
5607.00,1.26
5606.00,1.26
5605.00,1.26
5604.00,1.27
5603.00,1.27
5602.00,1.27
5601.00,1.27
5600.00,1.27
5599.00,1.27
5598.00,1.28
5597.00,1.28
5596.00,1.28
5595.00,1.28
5594.00,1.28
5593.00,1.28
5592.00,1.29
5591.00,1.29
5590.00,1.29
5589.00,1.29
5588.00,1.29
5587.00,1.29
5586.00,1.29
5585.00,1.30
5584.00,1.30
5583.00,1.30
5582.00,1.30
5581.00,1.30
5580.00,1.30
5579.00,1.30
5578.00,1.30
5577.00,1.31
5576.00,1.31
5575.00,1.31
5574.00,1.31
5573.00,1.31
5572.00,1.31
5571.00,1.31
5570.00,1.31
5569.00,1.31
5568.00,1.31
5567.00,1.32
5566.00,1.32
5565.00,1.32
5564.00,1.32
5563.00,1.32
5562.00,1.32
5561.00,1.32
5560.00,1.32
5559.00,1.32
5558.00,1.32
5557.00,1.32
5556.00,1.32
5555.00,1.32
5554.00,1.33
5553.00,1.33
5552.00,1.33
5551.00,1.33
5550.00,1.33
5549.00,1.33
5548.00,1.33
5547.00,1.33
5546.00,1.33
5545.00,1.34
5544.00,1.34
5543.00,1.34
5542.00,1.34
5541.00,1.34
5540.00,1.34
5539.00,1.34
5538.00,1.35
5537.00,1.35
5536.00,1.35
5535.00,1.35
5534.00,1.35
5533.00,1.35
5532.00,1.35
5531.00,1.35
5530.00,1.35
5529.00,1.36
5528.00,1.36
5527.00,1.36
5526.00,1.36
5525.00,1.36
5524.00,1.36
5523.00,1.36
5522.00,1.36
5521.00,1.36
5520.00,1.36
5519.00,1.36
5518.00,1.36
5517.00,1.36
5516.00,1.36
5515.00,1.37
5514.00,1.37
5513.00,1.37
5512.00,1.37
5511.00,1.37
5510.00,1.37
5509.00,1.37
5508.00,1.37
5507.00,1.37
5506.00,1.37
5505.00,1.37
5504.00,1.37
5503.00,1.37
5502.00,1.37
5501.00,1.37
5500.00,1.37
5499.00,1.37
5498.00,1.37
5497.00,1.37
5496.00,1.38
5495.00,1.38
5494.00,1.38
5493.00,1.38
5492.00,1.38
5491.00,1.38
5490.00,1.38
5489.00,1.38
5488.00,1.38
5487.00,1.38
5486.00,1.38
5485.00,1.39
5484.00,1.39
5483.00,1.39
5482.00,1.39
5481.00,1.39
5480.00,1.39
5479.00,1.39
5478.00,1.39
5477.00,1.39
5476.00,1.39
5475.00,1.40
5474.00,1.40
5473.00,1.40
5472.00,1.40
5471.00,1.40
5470.00,1.40
5469.00,1.40
5468.00,1.40
5467.00,1.40
5466.00,1.40
5465.00,1.41
5464.00,1.41
5463.00,1.41
5462.00,1.41
5461.00,1.41
5460.00,1.41
5459.00,1.41
5458.00,1.41
5457.00,1.41
5456.00,1.41
5455.00,1.41
5454.00,1.42
5453.00,1.42
5452.00,1.42
5451.00,1.42
5450.00,1.42
5449.00,1.42
5448.00,1.42
5447.00,1.42
5446.00,1.42
5445.00,1.42
5444.00,1.42
5443.00,1.42
5442.00,1.42
5441.00,1.42
5440.00,1.42
5439.00,1.42
5438.00,1.42
5437.00,1.42
5436.00,1.42
5435.00,1.42
5434.00,1.42
5433.00,1.42
5432.00,1.42
5431.00,1.42
5430.00,1.42
5429.00,1.42
5428.00,1.42
5427.00,1.42
5426.00,1.42
5425.00,1.42
5424.00,1.42
5423.00,1.42
5422.00,1.42
5421.00,1.42
5420.00,1.42
5419.00,1.42
5418.00,1.42
5417.00,1.42
5416.00,1.42
5415.00,1.42
5414.00,1.42
5413.00,1.42
5412.00,1.42
5411.00,1.42
5410.00,1.42
5409.00,1.42
5408.00,1.42
5407.00,1.42
5406.00,1.42
5405.00,1.42
5404.00,1.42
5403.00,1.42
5402.00,1.42
5401.00,1.42
5400.00,1.42
5399.00,1.42
5398.00,1.42
5397.00,1.42
5396.00,1.42
5395.00,1.42
5394.00,1.42
5393.00,1.42
5392.00,1.42
5391.00,1.41
5390.00,1.41
5389.00,1.41
5388.00,1.41
5387.00,1.41
5386.00,1.40
5385.00,1.40
5384.00,1.40
5383.00,1.40
5382.00,1.40
5381.00,1.39
5380.00,1.39
5379.00,1.39
5378.00,1.39
5377.00,1.38
5376.00,1.38
5375.00,1.38
5374.00,1.38
5373.00,1.37
5372.00,1.37
5371.00,1.37
5370.00,1.36
5369.00,1.36
5368.00,1.36
5367.00,1.35
5366.00,1.35
5365.00,1.34
5364.00,1.34
5363.00,1.34
5362.00,1.33
5361.00,1.33
5360.00,1.32
5359.00,1.31
5358.00,1.31
5357.00,1.30
5356.00,1.30
5355.00,1.29
5354.00,1.28
5353.00,1.28
5352.00,1.27
5351.00,1.26
5350.00,1.26
5349.00,1.25
5348.00,1.24
5347.00,1.23
5346.00,1.22
5345.00,1.22
5344.00,1.21
5343.00,1.20
5342.00,1.19
5341.00,1.18
5340.00,1.17
5339.00,1.16
5338.00,1.16
5337.00,1.15
5336.00,1.14
5335.00,1.13
5334.00,1.12
5333.00,1.11
5332.00,1.10
5331.00,1.09
5330.00,1.08
5329.00,1.07
5328.00,1.06
5327.00,1.05
5326.00,1.04
5325.00,1.03
5324.00,1.02
5323.00,1.01
5322.00,1.00
5321.00,0.99
5320.00,0.98
5319.00,0.97
5318.00,0.96
5317.00,0.95
5316.00,0.94
5315.00,0.93
5314.00,0.92
5313.00,0.91
5312.00,0.90
5311.00,0.90
5310.00,0.89
5309.00,0.88
5308.00,0.87
5307.00,0.86
5306.00,0.85
5305.00,0.85
5304.00,0.84
5303.00,0.83
5302.00,0.83
5301.00,0.82
5300.00,0.81
5299.00,0.81
5298.00,0.80
5297.00,0.80
5296.00,0.79
5295.00,0.79
5294.00,0.78
5293.00,0.78
5292.00,0.77
5291.00,0.77
5290.00,0.77
5289.00,0.76
5288.00,0.76
5287.00,0.76
5286.00,0.76
5285.00,0.75
5284.00,0.75
5283.00,0.75
5282.00,0.75
5281.00,0.74
5280.00,0.74
5279.00,0.74
5278.00,0.74
5277.00,0.74
5276.00,0.74
5275.00,0.74
5274.00,0.73
5273.00,0.73
5272.00,0.73
5271.00,0.73
5270.00,0.73
5269.00,0.73
5268.00,0.73
5267.00,0.73
5266.00,0.73
5265.00,0.72
5264.00,0.72
5263.00,0.72
5262.00,0.72
5261.00,0.72
5260.00,0.72
5259.00,0.72
5258.00,0.72
5257.00,0.72
5256.00,0.72
5255.00,0.72
5254.00,0.72
5253.00,0.72
5252.00,0.72
5251.00,0.72
5250.00,0.72
5249.00,0.72
5248.00,0.72
5247.00,0.72
5246.00,0.72
5245.00,0.72
5244.00,0.72
5243.00,0.72
5242.00,0.72
5241.00,0.72
5240.00,0.72
5239.00,0.72
5238.00,0.72
5237.00,0.72
5236.00,0.72
5235.00,0.72
5234.00,0.72
5233.00,0.72
5232.00,0.72
5231.00,0.72
5230.00,0.72
5229.00,0.72
5228.00,0.72
5227.00,0.72
5226.00,0.72
5225.00,0.72
5224.00,0.72
5223.00,0.72
5222.00,0.72
5221.00,0.72
5220.00,0.72
5219.00,0.72
5218.00,0.72
5217.00,0.72
5216.00,0.72
5215.00,0.72
5214.00,0.72
5213.00,0.72
5212.00,0.72
5211.00,0.72
5210.00,0.72
5209.00,0.72
5208.00,0.72
5207.00,0.72
5206.00,0.72
5205.00,0.72
5204.00,0.72
5203.00,0.72
5202.00,0.72
5201.00,0.72
5200.00,0.72
5199.00,0.72
5198.00,0.72
5197.00,0.72
5196.00,0.72
5195.00,0.73
5194.00,0.73
5193.00,0.73
5192.00,0.73
5191.00,0.73
5190.00,0.73
5189.00,0.73
5188.00,0.73
5187.00,0.73
5186.00,0.73
5185.00,0.73
5184.00,0.73
5183.00,0.73
5182.00,0.73
5181.00,0.73
5180.00,0.73
5179.00,0.73
5178.00,0.73
5177.00,0.73
5176.00,0.73
5175.00,0.73
5174.00,0.73
5173.00,0.73
5172.00,0.73
5171.00,0.73
5170.00,0.73
5169.00,0.73
5168.00,0.73
5167.00,0.73
5166.00,0.74
5165.00,0.74
5164.00,0.74
5163.00,0.74
5162.00,0.74
5161.00,0.74
5160.00,0.74
5159.00,0.74
5158.00,0.74
5157.00,0.74
5156.00,0.74
5155.00,0.74
5154.00,0.74
5153.00,0.74
5152.00,0.74
5151.00,0.74
5150.00,0.74
5149.00,0.74
5148.00,0.74
5147.00,0.74
5146.00,0.74
5145.00,0.75
5144.00,0.75
5143.00,0.75
5142.00,0.75
5141.00,0.75
5140.00,0.75
5139.00,0.75
5138.00,0.75
5137.00,0.75
5136.00,0.75
5135.00,0.75
5134.00,0.76
5133.00,0.76
5132.00,0.76
5131.00,0.76
5130.00,0.76
5129.00,0.76
5128.00,0.76
5127.00,0.76
5126.00,0.76
5125.00,0.76
5124.00,0.76
5123.00,0.76
5122.00,0.76
5121.00,0.76
5120.00,0.76
5119.00,0.76
5118.00,0.76
5117.00,0.76
5116.00,0.76
5115.00,0.76
5114.00,0.76
5113.00,0.76
5112.00,0.76
5111.00,0.76
5110.00,0.76
5109.00,0.76
5108.00,0.76
5107.00,0.76
5106.00,0.76
5105.00,0.77
5104.00,0.77
5103.00,0.77
5102.00,0.77
5101.00,0.77
5100.00,0.77
5099.00,0.77
5098.00,0.77
5097.00,0.77
5096.00,0.77
5095.00,0.77
5094.00,0.78
5093.00,0.78
5092.00,0.78
5091.00,0.78
5090.00,0.78
5089.00,0.78
5088.00,0.78
5087.00,0.78
5086.00,0.78
5085.00,0.78
5084.00,0.78
5083.00,0.78
5082.00,0.78
5081.00,0.78
5080.00,0.78
5079.00,0.78
5078.00,0.78
5077.00,0.78
5076.00,0.78
5075.00,0.78
5074.00,0.79
5073.00,0.79
5072.00,0.79
5071.00,0.79
5070.00,0.79
5069.00,0.79
5068.00,0.79
5067.00,0.79
5066.00,0.79
5065.00,0.79
5064.00,0.79
5063.00,0.80
5062.00,0.80
5061.00,0.80
5060.00,0.80
5059.00,0.80
5058.00,0.80
5057.00,0.80
5056.00,0.80
5055.00,0.80
5054.00,0.80
5053.00,0.80
5052.00,0.80
5051.00,0.80
5050.00,0.81
5049.00,0.81
5048.00,0.81
5047.00,0.81
5046.00,0.81
5045.00,0.81
5044.00,0.81
5043.00,0.81
5042.00,0.81
5041.00,0.81
5040.00,0.81
5039.00,0.81
5038.00,0.81
5037.00,0.81
5036.00,0.81
5035.00,0.81
5034.00,0.81
5033.00,0.81
5032.00,0.82
5031.00,0.82
5030.00,0.82
5029.00,0.82
5028.00,0.82
5027.00,0.82
5026.00,0.82
5025.00,0.83
5024.00,0.83
5023.00,0.83
5022.00,0.83
5021.00,0.83
5020.00,0.83
5019.00,0.83
5018.00,0.84
5017.00,0.84
5016.00,0.84
5015.00,0.84
5014.00,0.84
5013.00,0.84
5012.00,0.84
5011.00,0.84
5010.00,0.84
5009.00,0.84
5008.00,0.84
5007.00,0.84
5006.00,0.84
5005.00,0.84
5004.00,0.84
5003.00,0.84
5002.00,0.84
5001.00,0.84
5000.00,0.85
4999.00,0.85
4998.00,0.85
4997.00,0.85
4996.00,0.85
4995.00,0.85
4994.00,0.85
4993.00,0.85
4992.00,0.86
4991.00,0.86
4990.00,0.86
4989.00,0.86
4988.00,0.86
4987.00,0.86
4986.00,0.87
4985.00,0.87
4984.00,0.87
4983.00,0.87
4982.00,0.87
4981.00,0.87
4980.00,0.87
4979.00,0.87
4978.00,0.88
4977.00,0.88
4976.00,0.88
4975.00,0.88
4974.00,0.88
4973.00,0.88
4972.00,0.88
4971.00,0.88
4970.00,0.88
4969.00,0.88
4968.00,0.88
4967.00,0.88
4966.00,0.88
4965.00,0.88
4964.00,0.88
4963.00,0.88
4962.00,0.89
4961.00,0.89
4960.00,0.89
4959.00,0.89
4958.00,0.89
4957.00,0.89
4956.00,0.89
4955.00,0.89
4954.00,0.89
4953.00,0.89
4952.00,0.89
4951.00,0.90
4950.00,0.90
4949.00,0.90
4948.00,0.90
4947.00,0.90
4946.00,0.90
4945.00,0.90
4944.00,0.90
4943.00,0.90
4942.00,0.90
4941.00,0.90
4940.00,0.90
4939.00,0.90
4938.00,0.90
4937.00,0.90
4936.00,0.91
4935.00,0.91
4934.00,0.91
4933.00,0.91
4932.00,0.91
4931.00,0.91
4930.00,0.91
4929.00,0.91
4928.00,0.91
4927.00,0.91
4926.00,0.91
4925.00,0.92
4924.00,0.92
4923.00,0.92
4922.00,0.92
4921.00,0.92
4920.00,0.92
4919.00,0.92
4918.00,0.92
4917.00,0.92
4916.00,0.92
4915.00,0.93
4914.00,0.93
4913.00,0.93
4912.00,0.93
4911.00,0.93
4910.00,0.93
4909.00,0.93
4908.00,0.93
4907.00,0.93
4906.00,0.93
4905.00,0.93
4904.00,0.94
4903.00,0.94
4902.00,0.94
4901.00,0.94
4900.00,0.94
4899.00,0.94
4898.00,0.94
4897.00,0.94
4896.00,0.94
4895.00,0.94
4894.00,0.94
4893.00,0.94
4892.00,0.94
4891.00,0.95
4890.00,0.95
4889.00,0.95
4888.00,0.95
4887.00,0.95
4886.00,0.95
4885.00,0.95
4884.00,0.95
4883.00,0.95
4882.00,0.95
4881.00,0.95
4880.00,0.95
4879.00,0.95
4878.00,0.95
4877.00,0.95
4876.00,0.95
4875.00,0.95
4874.00,0.95
4873.00,0.95
4872.00,0.95
4871.00,0.95
4870.00,0.96
4869.00,0.96
4868.00,0.96
4867.00,0.96
4866.00,0.96
4865.00,0.96
4864.00,0.96
4863.00,0.96
4862.00,0.96
4861.00,0.96
4860.00,0.96
4859.00,0.96
4858.00,0.96
4857.00,0.96
4856.00,0.96
4855.00,0.96
4854.00,0.96
4853.00,0.96
4852.00,0.96
4851.00,0.96
4850.00,0.96
4849.00,0.96
4848.00,0.96
4847.00,0.96
4846.00,0.96
4845.00,0.97
4844.00,0.97
4843.00,0.97
4842.00,0.97
4841.00,0.97
4840.00,0.97
4839.00,0.97
4838.00,0.97
4837.00,0.97
4836.00,0.97
4835.00,0.98
4834.00,0.98
4833.00,0.98
4832.00,0.98
4831.00,0.98
4830.00,0.98
4829.00,0.98
4828.00,0.98
4827.00,0.98
4826.00,0.99
4825.00,0.99
4824.00,0.99
4823.00,0.99
4822.00,0.99
4821.00,0.99
4820.00,0.99
4819.00,0.99
4818.00,0.99
4817.00,0.99
4816.00,1.00
4815.00,1.00
4814.00,1.00
4813.00,1.00
4812.00,1.00
4811.00,1.00
4810.00,1.00
4809.00,1.00
4808.00,1.00
4807.00,1.01
4806.00,1.01
4805.00,1.01
4804.00,1.01
4803.00,1.01
4802.00,1.01
4801.00,1.01
4800.00,1.01
4799.00,1.02
4798.00,1.02
4797.00,1.02
4796.00,1.02
4795.00,1.02
4794.00,1.02
4793.00,1.02
4792.00,1.02
4791.00,1.03
4790.00,1.03
4789.00,1.03
4788.00,1.03
4787.00,1.03
4786.00,1.03
4785.00,1.03
4784.00,1.03
4783.00,1.03
4782.00,1.04
4781.00,1.04
4780.00,1.04
4779.00,1.04
4778.00,1.04
4777.00,1.04
4776.00,1.04
4775.00,1.04
4774.00,1.05
4773.00,1.05
4772.00,1.05
4771.00,1.05
4770.00,1.05
4769.00,1.05
4768.00,1.06
4767.00,1.06
4766.00,1.06
4765.00,1.06
4764.00,1.06
4763.00,1.06
4762.00,1.06
4761.00,1.07
4760.00,1.07
4759.00,1.07
4758.00,1.07
4757.00,1.07
4756.00,1.07
4755.00,1.07
4754.00,1.07
4753.00,1.08
4752.00,1.08
4751.00,1.08
4750.00,1.08
4749.00,1.08
4748.00,1.08
4747.00,1.08
4746.00,1.08
4745.00,1.09
4744.00,1.09
4743.00,1.09
4742.00,1.09
4741.00,1.09
4740.00,1.10
4739.00,1.10
4738.00,1.10
4737.00,1.10
4736.00,1.11
4735.00,1.11
4734.00,1.11
4733.00,1.11
4732.00,1.12
4731.00,1.12
4730.00,1.12
4729.00,1.12
4728.00,1.13
4727.00,1.13
4726.00,1.13
4725.00,1.13
4724.00,1.14
4723.00,1.14
4722.00,1.14
4721.00,1.14
4720.00,1.14
4719.00,1.15
4718.00,1.15
4717.00,1.15
4716.00,1.15
4715.00,1.15
4714.00,1.15
4713.00,1.16
4712.00,1.16
4711.00,1.16
4710.00,1.16
4709.00,1.16
4708.00,1.17
4707.00,1.17
4706.00,1.17
4705.00,1.17
4704.00,1.17
4703.00,1.17
4702.00,1.18
4701.00,1.18
4700.00,1.18
4699.00,1.18
4698.00,1.18
4697.00,1.18
4696.00,1.18
4695.00,1.18
4694.00,1.19
4693.00,1.19
4692.00,1.19
4691.00,1.19
4690.00,1.19
4689.00,1.19
4688.00,1.19
4687.00,1.19
4686.00,1.19
4685.00,1.20
4684.00,1.20
4683.00,1.20
4682.00,1.20
4681.00,1.20
4680.00,1.20
4679.00,1.21
4678.00,1.21
4677.00,1.21
4676.00,1.21
4675.00,1.21
4674.00,1.22
4673.00,1.22
4672.00,1.22
4671.00,1.22
4670.00,1.22
4669.00,1.23
4668.00,1.23
4667.00,1.23
4666.00,1.23
4665.00,1.23
4664.00,1.23
4663.00,1.24
4662.00,1.24
4661.00,1.24
4660.00,1.24
4659.00,1.24
4658.00,1.24
4657.00,1.24
4656.00,1.25
4655.00,1.25
4654.00,1.25
4653.00,1.25
4652.00,1.25
4651.00,1.25
4650.00,1.26
4649.00,1.26
4648.00,1.26
4647.00,1.26
4646.00,1.26
4645.00,1.26
4644.00,1.26
4643.00,1.27
4642.00,1.27
4641.00,1.27
4640.00,1.27
4639.00,1.27
4638.00,1.27
4637.00,1.27
4636.00,1.28
4635.00,1.28
4634.00,1.28
4633.00,1.28
4632.00,1.28
4631.00,1.28
4630.00,1.28
4629.00,1.28
4628.00,1.28
4627.00,1.28
4626.00,1.29
4625.00,1.29
4624.00,1.29
4623.00,1.29
4622.00,1.29
4621.00,1.29
4620.00,1.29
4619.00,1.29
4618.00,1.30
4617.00,1.30
4616.00,1.30
4615.00,1.30
4614.00,1.30
4613.00,1.30
4612.00,1.31
4611.00,1.31
4610.00,1.31
4609.00,1.31
4608.00,1.31
4607.00,1.31
4606.00,1.31
4605.00,1.31
4604.00,1.32
4603.00,1.32
4602.00,1.32
4601.00,1.32
4600.00,1.32
4599.00,1.32
4598.00,1.32
4597.00,1.32
4596.00,1.32
4595.00,1.32
4594.00,1.32
4593.00,1.32
4592.00,1.32
4591.00,1.32
4590.00,1.32
4589.00,1.32
4588.00,1.33
4587.00,1.33
4586.00,1.33
4585.00,1.33
4584.00,1.33
4583.00,1.33
4582.00,1.33
4581.00,1.33
4580.00,1.34
4579.00,1.34
4578.00,1.34
4577.00,1.34
4576.00,1.34
4575.00,1.34
4574.00,1.34
4573.00,1.34
4572.00,1.34
4571.00,1.35
4570.00,1.35
4569.00,1.35
4568.00,1.35
4567.00,1.35
4566.00,1.35
4565.00,1.35
4564.00,1.35
4563.00,1.35
4562.00,1.35
4561.00,1.35
4560.00,1.35
4559.00,1.36
4558.00,1.36
4557.00,1.36
4556.00,1.36
4555.00,1.36
4554.00,1.36
4553.00,1.37
4552.00,1.37
4551.00,1.37
4550.00,1.37
4549.00,1.37
4548.00,1.37
4547.00,1.37
4546.00,1.37
4545.00,1.37
4544.00,1.37
4543.00,1.37
4542.00,1.38
4541.00,1.38
4540.00,1.38
4539.00,1.38
4538.00,1.38
4537.00,1.38
4536.00,1.38
4535.00,1.38
4534.00,1.38
4533.00,1.37
4532.00,1.37
4531.00,1.37
4530.00,1.37
4529.00,1.37
4528.00,1.38
4527.00,1.38
4526.00,1.38
4525.00,1.38
4524.00,1.38
4523.00,1.38
4522.00,1.38
4521.00,1.38
4520.00,1.38
4519.00,1.38
4518.00,1.38
4517.00,1.38
4516.00,1.38
4515.00,1.38
4514.00,1.38
4513.00,1.38
4512.00,1.38
4511.00,1.38
4510.00,1.38
4509.00,1.38
4508.00,1.38
4507.00,1.38
4506.00,1.38
4505.00,1.38
4504.00,1.38
4503.00,1.38
4502.00,1.38
4501.00,1.38
4500.00,1.38
4499.00,1.38
4498.00,1.38
4497.00,1.38
4496.00,1.38
4495.00,1.38
4494.00,1.37
4493.00,1.37
4492.00,1.37
4491.00,1.37
4490.00,1.37
4489.00,1.37
4488.00,1.37
4487.00,1.36
4486.00,1.36
4485.00,1.36
4484.00,1.36
4483.00,1.36
4482.00,1.35
4481.00,1.35
4480.00,1.35
4479.00,1.35
4478.00,1.35
4477.00,1.34
4476.00,1.34
4475.00,1.34
4474.00,1.34
4473.00,1.33
4472.00,1.33
4471.00,1.33
4470.00,1.33
4469.00,1.32
4468.00,1.32
4467.00,1.32
4466.00,1.32
4465.00,1.31
4464.00,1.31
4463.00,1.31
4462.00,1.30
4461.00,1.30
4460.00,1.30
4459.00,1.29
4458.00,1.29
4457.00,1.28
4456.00,1.28
4455.00,1.28
4454.00,1.27
4453.00,1.27
4452.00,1.26
4451.00,1.26
4450.00,1.25
4449.00,1.25
4448.00,1.24
4447.00,1.24
4446.00,1.23
4445.00,1.23
4444.00,1.22
4443.00,1.22
4442.00,1.21
4441.00,1.21
4440.00,1.20
4439.00,1.20
4438.00,1.19
4437.00,1.19
4436.00,1.18
4435.00,1.18
4434.00,1.17
4433.00,1.17
4432.00,1.16
4431.00,1.16
4430.00,1.15
4429.00,1.15
4428.00,1.15
4427.00,1.14
4426.00,1.14
4425.00,1.14
4424.00,1.14
4423.00,1.14
4422.00,1.14
4421.00,1.14
4420.00,1.14
4419.00,1.14
4418.00,1.14
4417.00,1.14
4416.00,1.14
4415.00,1.14
4414.00,1.14
4413.00,1.14
4412.00,1.14
4411.00,1.14
4410.00,1.14
4409.00,1.14
4408.00,1.14
4407.00,1.14
4406.00,1.14
4405.00,1.15
4404.00,1.15
4403.00,1.15
4402.00,1.15
4401.00,1.15
4400.00,1.15
4399.00,1.15
4398.00,1.15
4397.00,1.15
4396.00,1.15
4395.00,1.15
4394.00,1.15
4393.00,1.16
4392.00,1.16
4391.00,1.16
4390.00,1.16
4389.00,1.16
4388.00,1.16
4387.00,1.16
4386.00,1.16
4385.00,1.16
4384.00,1.16
4383.00,1.16
4382.00,1.16
4381.00,1.16
4380.00,1.16
4379.00,1.16
4378.00,1.17
4377.00,1.17
4376.00,1.17
4375.00,1.17
4374.00,1.17
4373.00,1.17
4372.00,1.17
4371.00,1.17
4370.00,1.17
4369.00,1.17
4368.00,1.17
4367.00,1.17
4366.00,1.17
4365.00,1.17
4364.00,1.17
4363.00,1.17
4362.00,1.17
4361.00,1.17
4360.00,1.17
4359.00,1.17
4358.00,1.17
4357.00,1.17
4356.00,1.17
4355.00,1.17
4354.00,1.17
4353.00,1.17
4352.00,1.17
4351.00,1.17
4350.00,1.17
4349.00,1.17
4348.00,1.17
4347.00,1.17
4346.00,1.17
4345.00,1.17
4344.00,1.17
4343.00,1.17
4342.00,1.17
4341.00,1.17
4340.00,1.17
4339.00,1.17
4338.00,1.17
4337.00,1.17
4336.00,1.18
4335.00,1.18
4334.00,1.18
4333.00,1.18
4332.00,1.18
4331.00,1.18
4330.00,1.18
4329.00,1.18
4328.00,1.18
4327.00,1.19
4326.00,1.19
4325.00,1.19
4324.00,1.19
4323.00,1.19
4322.00,1.19
4321.00,1.19
4320.00,1.20
4319.00,1.20
4318.00,1.20
4317.00,1.20
4316.00,1.20
4315.00,1.20
4314.00,1.20
4313.00,1.20
4312.00,1.21
4311.00,1.21
4310.00,1.21
4309.00,1.21
4308.00,1.21
4307.00,1.22
4306.00,1.22
4305.00,1.22
4304.00,1.22
4303.00,1.23
4302.00,1.23
4301.00,1.23
4300.00,1.23
4299.00,1.24
4298.00,1.24
4297.00,1.24
4296.00,1.24
4295.00,1.25
4294.00,1.25
4293.00,1.25
4292.00,1.25
4291.00,1.26
4290.00,1.26
4289.00,1.26
4288.00,1.26
4287.00,1.27
4286.00,1.27
4285.00,1.27
4284.00,1.27
4283.00,1.27
4282.00,1.27
4281.00,1.28
4280.00,1.28
4279.00,1.28
4278.00,1.28
4277.00,1.28
4276.00,1.27
4275.00,1.27
4274.00,1.27
4273.00,1.27
4272.00,1.27
4271.00,1.27
4270.00,1.27
4269.00,1.26
4268.00,1.26
4267.00,1.26
4266.00,1.26
4265.00,1.26
4264.00,1.25
4263.00,1.25
4262.00,1.25
4261.00,1.25
4260.00,1.25
4259.00,1.25
4258.00,1.25
4257.00,1.25
4256.00,1.25
4255.00,1.25
4254.00,1.25
4253.00,1.25
4252.00,1.25
4251.00,1.25
4250.00,1.25
4249.00,1.25
4248.00,1.25
4247.00,1.25
4246.00,1.26
4245.00,1.26
4244.00,1.26
4243.00,1.26
4242.00,1.26
4241.00,1.27
4240.00,1.27
4239.00,1.27
4238.00,1.27
4237.00,1.27
4236.00,1.28
4235.00,1.28
4234.00,1.28
4233.00,1.28
4232.00,1.29
4231.00,1.29
4230.00,1.29
4229.00,1.29
4228.00,1.29
4227.00,1.30
4226.00,1.30
4225.00,1.30
4224.00,1.30
4223.00,1.30
4222.00,1.30
4221.00,1.31
4220.00,1.31
4219.00,1.31
4218.00,1.31
4217.00,1.31
4216.00,1.31
4215.00,1.31
4214.00,1.31
4213.00,1.31
4212.00,1.31
4211.00,1.31
4210.00,1.31
4209.00,1.31
4208.00,1.31
4207.00,1.31
4206.00,1.31
4205.00,1.31
4204.00,1.31
4203.00,1.31
4202.00,1.31
4201.00,1.31
4200.00,1.31
4199.00,1.31
4198.00,1.31
4197.00,1.31
4196.00,1.31
4195.00,1.31
4194.00,1.31
4193.00,1.31
4192.00,1.31
4191.00,1.31
4190.00,1.31
4189.00,1.31
4188.00,1.31
4187.00,1.31
4186.00,1.31
4185.00,1.31
4184.00,1.31
4183.00,1.31
4182.00,1.31
4181.00,1.31
4180.00,1.31
4179.00,1.31
4178.00,1.31
4177.00,1.31
4176.00,1.31
4175.00,1.31
4174.00,1.32
4173.00,1.32
4172.00,1.32
4171.00,1.32
4170.00,1.32
4169.00,1.32
4168.00,1.32
4167.00,1.32
4166.00,1.33
4165.00,1.33
4164.00,1.33
4163.00,1.33
4162.00,1.33
4161.00,1.33
4160.00,1.33
4159.00,1.33
4158.00,1.33
4157.00,1.33
4156.00,1.33
4155.00,1.33
4154.00,1.33
4153.00,1.33
4152.00,1.33
4151.00,1.33
4150.00,1.33
4149.00,1.33
4148.00,1.33
4147.00,1.33
4146.00,1.33
4145.00,1.33
4144.00,1.33
4143.00,1.33
4142.00,1.33
4141.00,1.33
4140.00,1.33
4139.00,1.33
4138.00,1.33
4137.00,1.33
4136.00,1.33
4135.00,1.33
4134.00,1.33
4133.00,1.33
4132.00,1.33
4131.00,1.33
4130.00,1.33
4129.00,1.33
4128.00,1.33
4127.00,1.33
4126.00,1.33
4125.00,1.33
4124.00,1.33
4123.00,1.33
4122.00,1.33
4121.00,1.33
4120.00,1.33
4119.00,1.33
4118.00,1.34
4117.00,1.34
4116.00,1.34
4115.00,1.34
4114.00,1.34
4113.00,1.34
4112.00,1.34
4111.00,1.35
4110.00,1.35
4109.00,1.35
4108.00,1.35
4107.00,1.35
4106.00,1.35
4105.00,1.35
4104.00,1.35
4103.00,1.35
4102.00,1.35
4101.00,1.35
4100.00,1.36
4099.00,1.36
4098.00,1.36
4097.00,1.36
4096.00,1.35
4095.00,1.35
4094.00,1.35
4093.00,1.35
4092.00,1.35
4091.00,1.35
4090.00,1.35
4089.00,1.35
4088.00,1.35
4087.00,1.35
4086.00,1.36
4085.00,1.36
4084.00,1.36
4083.00,1.36
4082.00,1.36
4081.00,1.36
4080.00,1.36
4079.00,1.36
4078.00,1.37
4077.00,1.37
4076.00,1.37
4075.00,1.37
4074.00,1.37
4073.00,1.37
4072.00,1.37
4071.00,1.37
4070.00,1.37
4069.00,1.37
4068.00,1.37
4067.00,1.37
4066.00,1.37
4065.00,1.37
4064.00,1.37
4063.00,1.37
4062.00,1.36
4061.00,1.36
4060.00,1.36
4059.00,1.36
4058.00,1.37
4057.00,1.37
4056.00,1.37
4055.00,1.37
4054.00,1.37
4053.00,1.37
4052.00,1.37
4051.00,1.37
4050.00,1.37
4049.00,1.38
4048.00,1.38
4047.00,1.38
4046.00,1.38
4045.00,1.38
4044.00,1.38
4043.00,1.38
4042.00,1.38
4041.00,1.38
4040.00,1.38
4039.00,1.38
4038.00,1.38
4037.00,1.38
4036.00,1.38
4035.00,1.39
4034.00,1.39
4033.00,1.39
4032.00,1.39
4031.00,1.39
4030.00,1.39
4029.00,1.39
4028.00,1.39
4027.00,1.39
4026.00,1.40
4025.00,1.40
4024.00,1.40
4023.00,1.40
4022.00,1.40
4021.00,1.40
4020.00,1.40
4019.00,1.41
4018.00,1.41
4017.00,1.41
4016.00,1.41
4015.00,1.41
4014.00,1.41
4013.00,1.41
4012.00,1.41
4011.00,1.41
4010.00,1.41
4009.00,1.41
4008.00,1.42
4007.00,1.42
4006.00,1.42
4005.00,1.42
4004.00,1.42
4003.00,1.42
4002.00,1.42
4001.00,1.42
4000.00,1.42
