创建为新数据集,样品 029 用户 Administrator 日期 星期三, 十一月 01 2017
cm-1,%T
10000.00,1.54
9999.00,1.54
9998.00,1.54
9997.00,1.54
9996.00,1.54
9995.00,1.54
9994.00,1.54
9993.00,1.54
9992.00,1.54
9991.00,1.54
9990.00,1.54
9989.00,1.54
9988.00,1.54
9987.00,1.54
9986.00,1.54
9985.00,1.54
9984.00,1.54
9983.00,1.54
9982.00,1.54
9981.00,1.54
9980.00,1.54
9979.00,1.54
9978.00,1.54
9977.00,1.54
9976.00,1.54
9975.00,1.54
9974.00,1.54
9973.00,1.54
9972.00,1.54
9971.00,1.54
9970.00,1.54
9969.00,1.54
9968.00,1.53
9967.00,1.53
9966.00,1.53
9965.00,1.53
9964.00,1.53
9963.00,1.52
9962.00,1.52
9961.00,1.52
9960.00,1.52
9959.00,1.51
9958.00,1.51
9957.00,1.51
9956.00,1.51
9955.00,1.51
9954.00,1.51
9953.00,1.51
9952.00,1.51
9951.00,1.51
9950.00,1.51
9949.00,1.51
9948.00,1.51
9947.00,1.51
9946.00,1.51
9945.00,1.51
9944.00,1.51
9943.00,1.51
9942.00,1.51
9941.00,1.51
9940.00,1.52
9939.00,1.52
9938.00,1.52
9937.00,1.52
9936.00,1.52
9935.00,1.52
9934.00,1.52
9933.00,1.52
9932.00,1.52
9931.00,1.52
9930.00,1.52
9929.00,1.52
9928.00,1.52
9927.00,1.52
9926.00,1.52
9925.00,1.52
9924.00,1.51
9923.00,1.51
9922.00,1.51
9921.00,1.51
9920.00,1.51
9919.00,1.51
9918.00,1.51
9917.00,1.50
9916.00,1.50
9915.00,1.50
9914.00,1.50
9913.00,1.51
9912.00,1.51
9911.00,1.51
9910.00,1.51
9909.00,1.51
9908.00,1.51
9907.00,1.51
9906.00,1.51
9905.00,1.51
9904.00,1.51
9903.00,1.51
9902.00,1.51
9901.00,1.51
9900.00,1.51
9899.00,1.51
9898.00,1.52
9897.00,1.52
9896.00,1.52
9895.00,1.52
9894.00,1.52
9893.00,1.52
9892.00,1.52
9891.00,1.52
9890.00,1.52
9889.00,1.52
9888.00,1.52
9887.00,1.52
9886.00,1.52
9885.00,1.52
9884.00,1.52
9883.00,1.52
9882.00,1.52
9881.00,1.52
9880.00,1.52
9879.00,1.51
9878.00,1.51
9877.00,1.51
9876.00,1.51
9875.00,1.51
9874.00,1.51
9873.00,1.51
9872.00,1.51
9871.00,1.51
9870.00,1.51
9869.00,1.51
9868.00,1.51
9867.00,1.51
9866.00,1.51
9865.00,1.51
9864.00,1.51
9863.00,1.51
9862.00,1.52
9861.00,1.52
9860.00,1.52
9859.00,1.52
9858.00,1.52
9857.00,1.52
9856.00,1.52
9855.00,1.52
9854.00,1.52
9853.00,1.52
9852.00,1.52
9851.00,1.52
9850.00,1.52
9849.00,1.52
9848.00,1.52
9847.00,1.52
9846.00,1.52
9845.00,1.52
9844.00,1.52
9843.00,1.52
9842.00,1.52
9841.00,1.52
9840.00,1.52
9839.00,1.52
9838.00,1.52
9837.00,1.51
9836.00,1.51
9835.00,1.51
9834.00,1.51
9833.00,1.51
9832.00,1.51
9831.00,1.51
9830.00,1.51
9829.00,1.51
9828.00,1.51
9827.00,1.51
9826.00,1.51
9825.00,1.51
9824.00,1.52
9823.00,1.52
9822.00,1.52
9821.00,1.52
9820.00,1.52
9819.00,1.52
9818.00,1.52
9817.00,1.53
9816.00,1.53
9815.00,1.53
9814.00,1.53
9813.00,1.53
9812.00,1.53
9811.00,1.53
9810.00,1.53
9809.00,1.53
9808.00,1.53
9807.00,1.53
9806.00,1.53
9805.00,1.53
9804.00,1.53
9803.00,1.53
9802.00,1.53
9801.00,1.53
9800.00,1.52
9799.00,1.52
9798.00,1.52
9797.00,1.52
9796.00,1.52
9795.00,1.52
9794.00,1.52
9793.00,1.52
9792.00,1.53
9791.00,1.53
9790.00,1.53
9789.00,1.53
9788.00,1.53
9787.00,1.53
9786.00,1.53
9785.00,1.53
9784.00,1.53
9783.00,1.52
9782.00,1.52
9781.00,1.52
9780.00,1.52
9779.00,1.52
9778.00,1.52
9777.00,1.52
9776.00,1.52
9775.00,1.52
9774.00,1.52
9773.00,1.52
9772.00,1.52
9771.00,1.52
9770.00,1.52
9769.00,1.52
9768.00,1.52
9767.00,1.52
9766.00,1.52
9765.00,1.52
9764.00,1.52
9763.00,1.52
9762.00,1.52
9761.00,1.52
9760.00,1.52
9759.00,1.52
9758.00,1.52
9757.00,1.52
9756.00,1.52
9755.00,1.52
9754.00,1.52
9753.00,1.52
9752.00,1.52
9751.00,1.52
9750.00,1.52
9749.00,1.52
9748.00,1.52
9747.00,1.52
9746.00,1.52
9745.00,1.52
9744.00,1.52
9743.00,1.52
9742.00,1.52
9741.00,1.52
9740.00,1.52
9739.00,1.52
9738.00,1.52
9737.00,1.52
9736.00,1.52
9735.00,1.52
9734.00,1.52
9733.00,1.53
9732.00,1.53
9731.00,1.53
9730.00,1.53
9729.00,1.53
9728.00,1.53
9727.00,1.53
9726.00,1.53
9725.00,1.53
9724.00,1.53
9723.00,1.53
9722.00,1.53
9721.00,1.53
9720.00,1.53
9719.00,1.53
9718.00,1.53
9717.00,1.53
9716.00,1.53
9715.00,1.53
9714.00,1.53
9713.00,1.53
9712.00,1.53
9711.00,1.53
9710.00,1.53
9709.00,1.53
9708.00,1.53
9707.00,1.54
9706.00,1.54
9705.00,1.54
9704.00,1.54
9703.00,1.54
9702.00,1.54
9701.00,1.53
9700.00,1.53
9699.00,1.53
9698.00,1.53
9697.00,1.53
9696.00,1.53
9695.00,1.53
9694.00,1.53
9693.00,1.53
9692.00,1.53
9691.00,1.53
9690.00,1.53
9689.00,1.53
9688.00,1.53
9687.00,1.53
9686.00,1.53
9685.00,1.53
9684.00,1.53
9683.00,1.53
9682.00,1.53
9681.00,1.53
9680.00,1.53
9679.00,1.53
9678.00,1.53
9677.00,1.53
9676.00,1.53
9675.00,1.53
9674.00,1.53
9673.00,1.53
9672.00,1.53
9671.00,1.53
9670.00,1.53
9669.00,1.53
9668.00,1.53
9667.00,1.53
9666.00,1.53
9665.00,1.53
9664.00,1.53
9663.00,1.53
9662.00,1.53
9661.00,1.53
9660.00,1.53
9659.00,1.53
9658.00,1.53
9657.00,1.53
9656.00,1.53
9655.00,1.53
9654.00,1.53
9653.00,1.53
9652.00,1.53
9651.00,1.53
9650.00,1.53
9649.00,1.53
9648.00,1.53
9647.00,1.53
9646.00,1.53
9645.00,1.54
9644.00,1.54
9643.00,1.54
9642.00,1.54
9641.00,1.54
9640.00,1.54
9639.00,1.54
9638.00,1.54
9637.00,1.54
9636.00,1.54
9635.00,1.54
9634.00,1.54
9633.00,1.54
9632.00,1.54
9631.00,1.54
9630.00,1.54
9629.00,1.54
9628.00,1.53
9627.00,1.53
9626.00,1.53
9625.00,1.53
9624.00,1.53
9623.00,1.53
9622.00,1.53
9621.00,1.53
9620.00,1.53
9619.00,1.53
9618.00,1.53
9617.00,1.53
9616.00,1.53
9615.00,1.53
9614.00,1.53
9613.00,1.53
9612.00,1.53
9611.00,1.53
9610.00,1.53
9609.00,1.53
9608.00,1.53
9607.00,1.53
9606.00,1.53
9605.00,1.53
9604.00,1.53
9603.00,1.53
9602.00,1.53
9601.00,1.53
9600.00,1.53
9599.00,1.53
9598.00,1.53
9597.00,1.53
9596.00,1.53
9595.00,1.53
9594.00,1.53
9593.00,1.53
9592.00,1.53
9591.00,1.53
9590.00,1.53
9589.00,1.53
9588.00,1.53
9587.00,1.53
9586.00,1.53
9585.00,1.53
9584.00,1.53
9583.00,1.53
9582.00,1.53
9581.00,1.53
9580.00,1.53
9579.00,1.53
9578.00,1.53
9577.00,1.53
9576.00,1.53
9575.00,1.53
9574.00,1.53
9573.00,1.53
9572.00,1.53
9571.00,1.53
9570.00,1.53
9569.00,1.52
9568.00,1.52
9567.00,1.52
9566.00,1.52
9565.00,1.52
9564.00,1.52
9563.00,1.52
9562.00,1.52
9561.00,1.52
9560.00,1.52
9559.00,1.52
9558.00,1.52
9557.00,1.52
9556.00,1.52
9555.00,1.53
9554.00,1.53
9553.00,1.53
9552.00,1.53
9551.00,1.53
9550.00,1.53
9549.00,1.53
9548.00,1.53
9547.00,1.53
9546.00,1.53
9545.00,1.53
9544.00,1.53
9543.00,1.53
9542.00,1.53
9541.00,1.53
9540.00,1.53
9539.00,1.53
9538.00,1.53
9537.00,1.53
9536.00,1.53
9535.00,1.53
9534.00,1.53
9533.00,1.53
9532.00,1.53
9531.00,1.53
9530.00,1.53
9529.00,1.54
9528.00,1.54
9527.00,1.54
9526.00,1.54
9525.00,1.54
9524.00,1.54
9523.00,1.54
9522.00,1.54
9521.00,1.54
9520.00,1.53
9519.00,1.53
9518.00,1.53
9517.00,1.53
9516.00,1.53
9515.00,1.53
9514.00,1.53
9513.00,1.53
9512.00,1.52
9511.00,1.52
9510.00,1.52
9509.00,1.52
9508.00,1.52
9507.00,1.52
9506.00,1.52
9505.00,1.52
9504.00,1.52
9503.00,1.52
9502.00,1.52
9501.00,1.52
9500.00,1.53
9499.00,1.53
9498.00,1.53
9497.00,1.53
9496.00,1.53
9495.00,1.53
9494.00,1.53
9493.00,1.53
9492.00,1.53
9491.00,1.53
9490.00,1.53
9489.00,1.53
9488.00,1.53
9487.00,1.53
9486.00,1.53
9485.00,1.53
9484.00,1.53
9483.00,1.53
9482.00,1.53
9481.00,1.53
9480.00,1.53
9479.00,1.53
9478.00,1.53
9477.00,1.53
9476.00,1.53
9475.00,1.53
9474.00,1.53
9473.00,1.53
9472.00,1.53
9471.00,1.53
9470.00,1.53
9469.00,1.53
9468.00,1.53
9467.00,1.53
9466.00,1.53
9465.00,1.53
9464.00,1.53
9463.00,1.53
9462.00,1.53
9461.00,1.53
9460.00,1.53
9459.00,1.53
9458.00,1.53
9457.00,1.53
9456.00,1.53
9455.00,1.52
9454.00,1.52
9453.00,1.52
9452.00,1.52
9451.00,1.52
9450.00,1.52
9449.00,1.52
9448.00,1.52
9447.00,1.52
9446.00,1.52
9445.00,1.52
9444.00,1.52
9443.00,1.52
9442.00,1.52
9441.00,1.52
9440.00,1.52
9439.00,1.52
9438.00,1.52
9437.00,1.52
9436.00,1.52
9435.00,1.52
9434.00,1.52
9433.00,1.52
9432.00,1.52
9431.00,1.52
9430.00,1.52
9429.00,1.52
9428.00,1.52
9427.00,1.52
9426.00,1.52
9425.00,1.52
9424.00,1.52
9423.00,1.52
9422.00,1.52
9421.00,1.52
9420.00,1.52
9419.00,1.51
9418.00,1.51
9417.00,1.51
9416.00,1.51
9415.00,1.51
9414.00,1.51
9413.00,1.51
9412.00,1.51
9411.00,1.51
9410.00,1.51
9409.00,1.51
9408.00,1.51
9407.00,1.51
9406.00,1.51
9405.00,1.51
9404.00,1.51
9403.00,1.52
9402.00,1.52
9401.00,1.52
9400.00,1.52
9399.00,1.52
9398.00,1.52
9397.00,1.52
9396.00,1.52
9395.00,1.53
9394.00,1.53
9393.00,1.53
9392.00,1.53
9391.00,1.53
9390.00,1.53
9389.00,1.53
9388.00,1.53
9387.00,1.53
9386.00,1.53
9385.00,1.53
9384.00,1.53
9383.00,1.53
9382.00,1.53
9381.00,1.53
9380.00,1.53
9379.00,1.53
9378.00,1.53
9377.00,1.53
9376.00,1.53
9375.00,1.53
9374.00,1.53
9373.00,1.53
9372.00,1.53
9371.00,1.52
9370.00,1.52
9369.00,1.52
9368.00,1.52
9367.00,1.52
9366.00,1.52
9365.00,1.52
9364.00,1.52
9363.00,1.52
9362.00,1.52
9361.00,1.52
9360.00,1.52
9359.00,1.52
9358.00,1.53
9357.00,1.53
9356.00,1.53
9355.00,1.53
9354.00,1.53
9353.00,1.53
9352.00,1.53
9351.00,1.53
9350.00,1.53
9349.00,1.53
9348.00,1.53
9347.00,1.53
9346.00,1.53
9345.00,1.53
9344.00,1.53
9343.00,1.53
9342.00,1.53
9341.00,1.53
9340.00,1.53
9339.00,1.53
9338.00,1.53
9337.00,1.53
9336.00,1.53
9335.00,1.53
9334.00,1.53
9333.00,1.53
9332.00,1.53
9331.00,1.53
9330.00,1.53
9329.00,1.53
9328.00,1.53
9327.00,1.53
9326.00,1.53
9325.00,1.53
9324.00,1.53
9323.00,1.53
9322.00,1.53
9321.00,1.53
9320.00,1.53
9319.00,1.53
9318.00,1.53
9317.00,1.53
9316.00,1.53
9315.00,1.53
9314.00,1.53
9313.00,1.53
9312.00,1.53
9311.00,1.53
9310.00,1.52
9309.00,1.52
9308.00,1.52
9307.00,1.52
9306.00,1.52
9305.00,1.52
9304.00,1.52
9303.00,1.52
9302.00,1.51
9301.00,1.51
9300.00,1.51
9299.00,1.51
9298.00,1.51
9297.00,1.50
9296.00,1.50
9295.00,1.50
9294.00,1.50
9293.00,1.50
9292.00,1.50
9291.00,1.50
9290.00,1.50
9289.00,1.50
9288.00,1.50
9287.00,1.50
9286.00,1.50
9285.00,1.50
9284.00,1.51
9283.00,1.51
9282.00,1.51
9281.00,1.51
9280.00,1.51
9279.00,1.51
9278.00,1.52
9277.00,1.52
9276.00,1.52
9275.00,1.52
9274.00,1.52
9273.00,1.52
9272.00,1.52
9271.00,1.52
9270.00,1.52
9269.00,1.52
9268.00,1.52
9267.00,1.52
9266.00,1.52
9265.00,1.52
9264.00,1.52
9263.00,1.52
9262.00,1.52
9261.00,1.52
9260.00,1.52
9259.00,1.52
9258.00,1.52
9257.00,1.52
9256.00,1.52
9255.00,1.52
9254.00,1.52
9253.00,1.52
9252.00,1.52
9251.00,1.52
9250.00,1.52
9249.00,1.52
9248.00,1.52
9247.00,1.52
9246.00,1.52
9245.00,1.52
9244.00,1.52
9243.00,1.52
9242.00,1.52
9241.00,1.52
9240.00,1.52
9239.00,1.52
9238.00,1.52
9237.00,1.52
9236.00,1.52
9235.00,1.52
9234.00,1.52
9233.00,1.52
9232.00,1.52
9231.00,1.52
9230.00,1.52
9229.00,1.52
9228.00,1.52
9227.00,1.52
9226.00,1.52
9225.00,1.52
9224.00,1.52
9223.00,1.52
9222.00,1.53
9221.00,1.53
9220.00,1.53
9219.00,1.53
9218.00,1.53
9217.00,1.53
9216.00,1.53
9215.00,1.54
9214.00,1.54
9213.00,1.54
9212.00,1.54
9211.00,1.54
9210.00,1.54
9209.00,1.54
9208.00,1.54
9207.00,1.54
9206.00,1.54
9205.00,1.54
9204.00,1.54
9203.00,1.54
9202.00,1.54
9201.00,1.54
9200.00,1.54
9199.00,1.53
9198.00,1.53
9197.00,1.53
9196.00,1.53
9195.00,1.53
9194.00,1.53
9193.00,1.53
9192.00,1.53
9191.00,1.53
9190.00,1.52
9189.00,1.52
9188.00,1.52
9187.00,1.52
9186.00,1.52
9185.00,1.52
9184.00,1.52
9183.00,1.52
9182.00,1.52
9181.00,1.52
9180.00,1.52
9179.00,1.52
9178.00,1.52
9177.00,1.52
9176.00,1.52
9175.00,1.52
9174.00,1.52
9173.00,1.52
9172.00,1.52
9171.00,1.52
9170.00,1.52
9169.00,1.52
9168.00,1.52
9167.00,1.52
9166.00,1.52
9165.00,1.52
9164.00,1.52
9163.00,1.52
9162.00,1.52
9161.00,1.52
9160.00,1.52
9159.00,1.53
9158.00,1.53
9157.00,1.53
9156.00,1.53
9155.00,1.53
9154.00,1.53
9153.00,1.53
9152.00,1.53
9151.00,1.53
9150.00,1.53
9149.00,1.53
9148.00,1.53
9147.00,1.53
9146.00,1.53
9145.00,1.53
9144.00,1.53
9143.00,1.53
9142.00,1.53
9141.00,1.53
9140.00,1.53
9139.00,1.52
9138.00,1.52
9137.00,1.52
9136.00,1.52
9135.00,1.52
9134.00,1.52
9133.00,1.52
9132.00,1.52
9131.00,1.52
9130.00,1.52
9129.00,1.52
9128.00,1.52
9127.00,1.52
9126.00,1.52
9125.00,1.52
9124.00,1.52
9123.00,1.53
9122.00,1.53
9121.00,1.53
9120.00,1.53
9119.00,1.53
9118.00,1.53
9117.00,1.54
9116.00,1.54
9115.00,1.54
9114.00,1.54
9113.00,1.54
9112.00,1.54
9111.00,1.54
9110.00,1.54
9109.00,1.54
9108.00,1.54
9107.00,1.54
9106.00,1.54
9105.00,1.54
9104.00,1.54
9103.00,1.54
9102.00,1.54
9101.00,1.54
9100.00,1.54
9099.00,1.54
9098.00,1.54
9097.00,1.53
9096.00,1.53
9095.00,1.53
9094.00,1.53
9093.00,1.53
9092.00,1.53
9091.00,1.53
9090.00,1.53
9089.00,1.53
9088.00,1.53
9087.00,1.53
9086.00,1.53
9085.00,1.53
9084.00,1.53
9083.00,1.53
9082.00,1.52
9081.00,1.52
9080.00,1.52
9079.00,1.52
9078.00,1.52
9077.00,1.52
9076.00,1.52
9075.00,1.52
9074.00,1.52
9073.00,1.52
9072.00,1.51
9071.00,1.51
9070.00,1.51
9069.00,1.51
9068.00,1.51
9067.00,1.51
9066.00,1.51
9065.00,1.51
9064.00,1.51
9063.00,1.51
9062.00,1.51
9061.00,1.51
9060.00,1.51
9059.00,1.51
9058.00,1.51
9057.00,1.51
9056.00,1.51
9055.00,1.51
9054.00,1.51
9053.00,1.51
9052.00,1.51
9051.00,1.51
9050.00,1.51
9049.00,1.51
9048.00,1.51
9047.00,1.51
9046.00,1.51
9045.00,1.51
9044.00,1.52
9043.00,1.52
9042.00,1.52
9041.00,1.52
9040.00,1.52
9039.00,1.52
9038.00,1.52
9037.00,1.52
9036.00,1.52
9035.00,1.52
9034.00,1.52
9033.00,1.52
9032.00,1.52
9031.00,1.52
9030.00,1.52
9029.00,1.52
9028.00,1.52
9027.00,1.52
9026.00,1.52
9025.00,1.52
9024.00,1.52
9023.00,1.52
9022.00,1.52
9021.00,1.52
9020.00,1.52
9019.00,1.52
9018.00,1.52
9017.00,1.52
9016.00,1.52
9015.00,1.52
9014.00,1.53
9013.00,1.53
9012.00,1.53
9011.00,1.53
9010.00,1.53
9009.00,1.53
9008.00,1.53
9007.00,1.53
9006.00,1.53
9005.00,1.53
9004.00,1.53
9003.00,1.53
9002.00,1.53
9001.00,1.53
9000.00,1.53
8999.00,1.53
8998.00,1.53
8997.00,1.53
8996.00,1.53
8995.00,1.53
8994.00,1.53
8993.00,1.53
8992.00,1.53
8991.00,1.53
8990.00,1.53
8989.00,1.53
8988.00,1.53
8987.00,1.53
8986.00,1.53
8985.00,1.53
8984.00,1.53
8983.00,1.53
8982.00,1.53
8981.00,1.53
8980.00,1.53
8979.00,1.53
8978.00,1.53
8977.00,1.53
8976.00,1.53
8975.00,1.53
8974.00,1.53
8973.00,1.53
8972.00,1.53
8971.00,1.53
8970.00,1.53
8969.00,1.53
8968.00,1.53
8967.00,1.53
8966.00,1.53
8965.00,1.53
8964.00,1.53
8963.00,1.53
8962.00,1.53
8961.00,1.53
8960.00,1.53
8959.00,1.53
8958.00,1.53
8957.00,1.53
8956.00,1.53
8955.00,1.53
8954.00,1.53
8953.00,1.53
8952.00,1.53
8951.00,1.53
8950.00,1.53
8949.00,1.52
8948.00,1.52
8947.00,1.52
8946.00,1.52
8945.00,1.52
8944.00,1.52
8943.00,1.52
8942.00,1.52
8941.00,1.52
8940.00,1.52
8939.00,1.51
8938.00,1.51
8937.00,1.51
8936.00,1.51
8935.00,1.51
8934.00,1.51
8933.00,1.51
8932.00,1.52
8931.00,1.52
8930.00,1.52
8929.00,1.52
8928.00,1.52
8927.00,1.52
8926.00,1.52
8925.00,1.52
8924.00,1.52
8923.00,1.52
8922.00,1.53
8921.00,1.53
8920.00,1.53
8919.00,1.53
8918.00,1.53
8917.00,1.53
8916.00,1.53
8915.00,1.53
8914.00,1.53
8913.00,1.53
8912.00,1.53
8911.00,1.54
8910.00,1.54
8909.00,1.54
8908.00,1.54
8907.00,1.54
8906.00,1.54
8905.00,1.54
8904.00,1.54
8903.00,1.54
8902.00,1.54
8901.00,1.54
8900.00,1.54
8899.00,1.54
8898.00,1.54
8897.00,1.54
8896.00,1.54
8895.00,1.54
8894.00,1.54
8893.00,1.53
8892.00,1.53
8891.00,1.53
8890.00,1.53
8889.00,1.53
8888.00,1.53
8887.00,1.52
8886.00,1.52
8885.00,1.52
8884.00,1.52
8883.00,1.52
8882.00,1.52
8881.00,1.52
8880.00,1.52
8879.00,1.52
8878.00,1.52
8877.00,1.52
8876.00,1.52
8875.00,1.52
8874.00,1.52
8873.00,1.52
8872.00,1.52
8871.00,1.52
8870.00,1.52
8869.00,1.52
8868.00,1.52
8867.00,1.52
8866.00,1.52
8865.00,1.53
8864.00,1.53
8863.00,1.53
8862.00,1.53
8861.00,1.53
8860.00,1.53
8859.00,1.53
8858.00,1.53
8857.00,1.53
8856.00,1.53
8855.00,1.53
8854.00,1.52
8853.00,1.52
8852.00,1.52
8851.00,1.52
8850.00,1.52
8849.00,1.52
8848.00,1.52
8847.00,1.52
8846.00,1.52
8845.00,1.52
8844.00,1.52
8843.00,1.52
8842.00,1.52
8841.00,1.52
8840.00,1.52
8839.00,1.52
8838.00,1.52
8837.00,1.52
8836.00,1.52
8835.00,1.52
8834.00,1.52
8833.00,1.52
8832.00,1.52
8831.00,1.52
8830.00,1.52
8829.00,1.52
8828.00,1.52
8827.00,1.52
8826.00,1.52
8825.00,1.52
8824.00,1.52
8823.00,1.52
8822.00,1.52
8821.00,1.52
8820.00,1.52
8819.00,1.52
8818.00,1.52
8817.00,1.51
8816.00,1.51
8815.00,1.51
8814.00,1.51
8813.00,1.51
8812.00,1.51
8811.00,1.51
8810.00,1.51
8809.00,1.51
8808.00,1.51
8807.00,1.51
8806.00,1.51
8805.00,1.51
8804.00,1.51
8803.00,1.51
8802.00,1.50
8801.00,1.50
8800.00,1.50
8799.00,1.50
8798.00,1.50
8797.00,1.50
8796.00,1.50
8795.00,1.50
8794.00,1.50
8793.00,1.50
8792.00,1.50
8791.00,1.50
8790.00,1.50
8789.00,1.50
8788.00,1.50
8787.00,1.50
8786.00,1.50
8785.00,1.50
8784.00,1.50
8783.00,1.50
8782.00,1.50
8781.00,1.50
8780.00,1.50
8779.00,1.50
8778.00,1.50
8777.00,1.50
8776.00,1.50
8775.00,1.49
8774.00,1.49
8773.00,1.49
8772.00,1.49
8771.00,1.49
8770.00,1.49
8769.00,1.49
8768.00,1.48
8767.00,1.48
8766.00,1.48
8765.00,1.48
8764.00,1.48
8763.00,1.48
8762.00,1.48
8761.00,1.48
8760.00,1.48
8759.00,1.48
8758.00,1.48
8757.00,1.48
8756.00,1.48
8755.00,1.48
8754.00,1.47
8753.00,1.47
8752.00,1.47
8751.00,1.47
8750.00,1.47
8749.00,1.47
8748.00,1.47
8747.00,1.47
8746.00,1.47
8745.00,1.47
8744.00,1.47
8743.00,1.47
8742.00,1.47
8741.00,1.47
8740.00,1.47
8739.00,1.47
8738.00,1.47
8737.00,1.47
8736.00,1.47
8735.00,1.47
8734.00,1.47
8733.00,1.47
8732.00,1.46
8731.00,1.46
8730.00,1.46
8729.00,1.46
8728.00,1.46
8727.00,1.46
8726.00,1.45
8725.00,1.45
8724.00,1.45
8723.00,1.45
8722.00,1.45
8721.00,1.45
8720.00,1.45
8719.00,1.45
8718.00,1.44
8717.00,1.44
8716.00,1.44
8715.00,1.44
8714.00,1.44
8713.00,1.45
8712.00,1.45
8711.00,1.45
8710.00,1.45
8709.00,1.45
8708.00,1.45
8707.00,1.45
8706.00,1.45
8705.00,1.46
8704.00,1.46
8703.00,1.46
8702.00,1.46
8701.00,1.46
8700.00,1.46
8699.00,1.47
8698.00,1.47
8697.00,1.47
8696.00,1.47
8695.00,1.47
8694.00,1.47
8693.00,1.47
8692.00,1.47
8691.00,1.47
8690.00,1.47
8689.00,1.47
8688.00,1.47
8687.00,1.47
8686.00,1.47
8685.00,1.47
8684.00,1.47
8683.00,1.47
8682.00,1.47
8681.00,1.47
8680.00,1.47
8679.00,1.47
8678.00,1.47
8677.00,1.47
8676.00,1.48
8675.00,1.48
8674.00,1.48
8673.00,1.48
8672.00,1.48
8671.00,1.48
8670.00,1.48
8669.00,1.48
8668.00,1.48
8667.00,1.48
8666.00,1.47
8665.00,1.47
8664.00,1.47
8663.00,1.47
8662.00,1.47
8661.00,1.47
8660.00,1.47
8659.00,1.47
8658.00,1.46
8657.00,1.46
8656.00,1.46
8655.00,1.46
8654.00,1.46
8653.00,1.46
8652.00,1.45
8651.00,1.45
8650.00,1.45
8649.00,1.45
8648.00,1.45
8647.00,1.45
8646.00,1.45
8645.00,1.45
8644.00,1.45
8643.00,1.45
8642.00,1.45
8641.00,1.45
8640.00,1.45
8639.00,1.45
8638.00,1.45
8637.00,1.45
8636.00,1.45
8635.00,1.45
8634.00,1.44
8633.00,1.44
8632.00,1.44
8631.00,1.44
8630.00,1.44
8629.00,1.44
8628.00,1.44
8627.00,1.44
8626.00,1.44
8625.00,1.44
8624.00,1.44
8623.00,1.44
8622.00,1.44
8621.00,1.44
8620.00,1.44
8619.00,1.44
8618.00,1.44
8617.00,1.44
8616.00,1.44
8615.00,1.44
8614.00,1.44
8613.00,1.44
8612.00,1.44
8611.00,1.44
8610.00,1.44
8609.00,1.44
8608.00,1.44
8607.00,1.43
8606.00,1.43
8605.00,1.43
8604.00,1.43
8603.00,1.43
8602.00,1.43
8601.00,1.43
8600.00,1.43
8599.00,1.43
8598.00,1.43
8597.00,1.43
8596.00,1.43
8595.00,1.43
8594.00,1.43
8593.00,1.43
8592.00,1.43
8591.00,1.43
8590.00,1.43
8589.00,1.43
8588.00,1.43
8587.00,1.43
8586.00,1.43
8585.00,1.43
8584.00,1.43
8583.00,1.43
8582.00,1.43
8581.00,1.43
8580.00,1.43
8579.00,1.43
8578.00,1.43
8577.00,1.43
8576.00,1.43
8575.00,1.43
8574.00,1.42
8573.00,1.42
8572.00,1.42
8571.00,1.42
8570.00,1.42
8569.00,1.42
8568.00,1.42
8567.00,1.41
8566.00,1.41
8565.00,1.41
8564.00,1.41
8563.00,1.41
8562.00,1.41
8561.00,1.41
8560.00,1.40
8559.00,1.40
8558.00,1.40
8557.00,1.40
8556.00,1.40
8555.00,1.40
8554.00,1.40
8553.00,1.40
8552.00,1.40
8551.00,1.40
8550.00,1.40
8549.00,1.40
8548.00,1.40
8547.00,1.40
8546.00,1.40
8545.00,1.40
8544.00,1.40
8543.00,1.40
8542.00,1.40
8541.00,1.40
8540.00,1.40
8539.00,1.40
8538.00,1.40
8537.00,1.40
8536.00,1.40
8535.00,1.40
8534.00,1.40
8533.00,1.40
8532.00,1.40
8531.00,1.40
8530.00,1.39
8529.00,1.39
8528.00,1.39
8527.00,1.39
8526.00,1.39
8525.00,1.39
8524.00,1.38
8523.00,1.38
8522.00,1.38
8521.00,1.38
8520.00,1.38
8519.00,1.38
8518.00,1.38
8517.00,1.38
8516.00,1.37
8515.00,1.37
8514.00,1.37
8513.00,1.37
8512.00,1.37
8511.00,1.37
8510.00,1.37
8509.00,1.37
8508.00,1.36
8507.00,1.36
8506.00,1.36
8505.00,1.36
8504.00,1.36
8503.00,1.36
8502.00,1.36
8501.00,1.36
8500.00,1.35
8499.00,1.35
8498.00,1.35
8497.00,1.35
8496.00,1.35
8495.00,1.35
8494.00,1.35
8493.00,1.35
8492.00,1.35
8491.00,1.35
8490.00,1.35
8489.00,1.35
8488.00,1.35
8487.00,1.35
8486.00,1.35
8485.00,1.35
8484.00,1.35
8483.00,1.35
8482.00,1.35
8481.00,1.35
8480.00,1.35
8479.00,1.35
8478.00,1.35
8477.00,1.35
8476.00,1.35
8475.00,1.35
8474.00,1.35
8473.00,1.35
8472.00,1.35
8471.00,1.35
8470.00,1.35
8469.00,1.34
8468.00,1.34
8467.00,1.34
8466.00,1.34
8465.00,1.34
8464.00,1.34
8463.00,1.33
8462.00,1.33
8461.00,1.33
8460.00,1.33
8459.00,1.33
8458.00,1.33
8457.00,1.33
8456.00,1.32
8455.00,1.32
8454.00,1.32
8453.00,1.32
8452.00,1.32
8451.00,1.32
8450.00,1.32
8449.00,1.32
8448.00,1.32
8447.00,1.32
8446.00,1.32
8445.00,1.32
8444.00,1.32
8443.00,1.32
8442.00,1.32
8441.00,1.32
8440.00,1.32
8439.00,1.32
8438.00,1.32
8437.00,1.32
8436.00,1.32
8435.00,1.32
8434.00,1.32
8433.00,1.32
8432.00,1.33
8431.00,1.33
8430.00,1.33
8429.00,1.33
8428.00,1.33
8427.00,1.33
8426.00,1.33
8425.00,1.33
8424.00,1.34
8423.00,1.34
8422.00,1.34
8421.00,1.34
8420.00,1.34
8419.00,1.34
8418.00,1.34
8417.00,1.34
8416.00,1.34
8415.00,1.34
8414.00,1.34
8413.00,1.34
8412.00,1.34
8411.00,1.34
8410.00,1.34
8409.00,1.34
8408.00,1.34
8407.00,1.34
8406.00,1.35
8405.00,1.35
8404.00,1.35
8403.00,1.35
8402.00,1.35
8401.00,1.35
8400.00,1.35
8399.00,1.35
8398.00,1.35
8397.00,1.35
8396.00,1.35
8395.00,1.35
8394.00,1.35
8393.00,1.35
8392.00,1.35
8391.00,1.35
8390.00,1.35
8389.00,1.35
8388.00,1.36
8387.00,1.36
8386.00,1.36
8385.00,1.36
8384.00,1.36
8383.00,1.36
8382.00,1.36
8381.00,1.36
8380.00,1.36
8379.00,1.36
8378.00,1.36
8377.00,1.36
8376.00,1.36
8375.00,1.36
8374.00,1.36
8373.00,1.36
8372.00,1.36
8371.00,1.36
8370.00,1.36
8369.00,1.36
8368.00,1.36
8367.00,1.37
8366.00,1.37
8365.00,1.37
8364.00,1.37
8363.00,1.37
8362.00,1.37
8361.00,1.37
8360.00,1.37
8359.00,1.38
8358.00,1.38
8357.00,1.38
8356.00,1.38
8355.00,1.38
8354.00,1.38
8353.00,1.38
8352.00,1.38
8351.00,1.38
8350.00,1.38
8349.00,1.38
8348.00,1.38
8347.00,1.38
8346.00,1.38
8345.00,1.38
8344.00,1.38
8343.00,1.38
8342.00,1.38
8341.00,1.38
8340.00,1.38
8339.00,1.37
8338.00,1.37
8337.00,1.37
8336.00,1.37
8335.00,1.37
8334.00,1.37
8333.00,1.37
8332.00,1.37
8331.00,1.37
8330.00,1.38
8329.00,1.38
8328.00,1.38
8327.00,1.38
8326.00,1.38
8325.00,1.38
8324.00,1.38
8323.00,1.38
8322.00,1.39
8321.00,1.39
8320.00,1.39
8319.00,1.39
8318.00,1.39
8317.00,1.39
8316.00,1.40
8315.00,1.40
8314.00,1.40
8313.00,1.40
8312.00,1.40
8311.00,1.40
8310.00,1.40
8309.00,1.40
8308.00,1.40
8307.00,1.40
8306.00,1.40
8305.00,1.40
8304.00,1.40
8303.00,1.40
8302.00,1.40
8301.00,1.40
8300.00,1.40
8299.00,1.40
8298.00,1.40
8297.00,1.41
8296.00,1.41
8295.00,1.41
8294.00,1.41
8293.00,1.41
8292.00,1.41
8291.00,1.41
8290.00,1.41
8289.00,1.41
8288.00,1.41
8287.00,1.41
8286.00,1.41
8285.00,1.41
8284.00,1.41
8283.00,1.40
8282.00,1.40
8281.00,1.40
8280.00,1.40
8279.00,1.40
8278.00,1.40
8277.00,1.39
8276.00,1.39
8275.00,1.39
8274.00,1.39
8273.00,1.39
8272.00,1.39
8271.00,1.39
8270.00,1.39
8269.00,1.39
8268.00,1.39
8267.00,1.39
8266.00,1.39
8265.00,1.39
8264.00,1.39
8263.00,1.39
8262.00,1.39
8261.00,1.39
8260.00,1.39
8259.00,1.39
8258.00,1.39
8257.00,1.39
8256.00,1.39
8255.00,1.39
8254.00,1.39
8253.00,1.40
8252.00,1.40
8251.00,1.40
8250.00,1.40
8249.00,1.40
8248.00,1.40
8247.00,1.40
8246.00,1.40
8245.00,1.40
8244.00,1.40
8243.00,1.40
8242.00,1.40
8241.00,1.40
8240.00,1.40
8239.00,1.40
8238.00,1.40
8237.00,1.40
8236.00,1.40
8235.00,1.40
8234.00,1.40
8233.00,1.40
8232.00,1.40
8231.00,1.41
8230.00,1.41
8229.00,1.41
8228.00,1.41
8227.00,1.41
8226.00,1.41
8225.00,1.41
8224.00,1.41
8223.00,1.41
8222.00,1.41
8221.00,1.41
8220.00,1.41
8219.00,1.41
8218.00,1.41
8217.00,1.41
8216.00,1.41
8215.00,1.41
8214.00,1.41
8213.00,1.41
8212.00,1.41
8211.00,1.41
8210.00,1.41
8209.00,1.41
8208.00,1.41
8207.00,1.42
8206.00,1.42
8205.00,1.42
8204.00,1.42
8203.00,1.42
8202.00,1.42
8201.00,1.42
8200.00,1.42
8199.00,1.42
8198.00,1.42
8197.00,1.42
8196.00,1.43
8195.00,1.43
8194.00,1.43
8193.00,1.43
8192.00,1.43
8191.00,1.43
8190.00,1.43
8189.00,1.43
8188.00,1.43
8187.00,1.43
8186.00,1.43
8185.00,1.43
8184.00,1.43
8183.00,1.43
8182.00,1.43
8181.00,1.43
8180.00,1.43
8179.00,1.43
8178.00,1.43
8177.00,1.43
8176.00,1.43
8175.00,1.43
8174.00,1.43
8173.00,1.43
8172.00,1.43
8171.00,1.43
8170.00,1.43
8169.00,1.43
8168.00,1.43
8167.00,1.43
8166.00,1.43
8165.00,1.43
8164.00,1.43
8163.00,1.43
8162.00,1.43
8161.00,1.44
8160.00,1.44
8159.00,1.44
8158.00,1.44
8157.00,1.44
8156.00,1.44
8155.00,1.44
8154.00,1.44
8153.00,1.44
8152.00,1.44
8151.00,1.44
8150.00,1.44
8149.00,1.44
8148.00,1.44
8147.00,1.44
8146.00,1.44
8145.00,1.44
8144.00,1.45
8143.00,1.45
8142.00,1.45
8141.00,1.45
8140.00,1.45
8139.00,1.45
8138.00,1.45
8137.00,1.45
8136.00,1.45
8135.00,1.45
8134.00,1.45
8133.00,1.45
8132.00,1.45
8131.00,1.45
8130.00,1.45
8129.00,1.45
8128.00,1.45
8127.00,1.45
8126.00,1.45
8125.00,1.45
8124.00,1.45
8123.00,1.45
8122.00,1.45
8121.00,1.46
8120.00,1.46
8119.00,1.46
8118.00,1.46
8117.00,1.46
8116.00,1.46
8115.00,1.46
8114.00,1.46
8113.00,1.46
8112.00,1.46
8111.00,1.46
8110.00,1.46
8109.00,1.46
8108.00,1.46
8107.00,1.46
8106.00,1.46
8105.00,1.46
8104.00,1.46
8103.00,1.46
8102.00,1.46
8101.00,1.46
8100.00,1.46
8099.00,1.46
8098.00,1.46
8097.00,1.46
8096.00,1.46
8095.00,1.46
8094.00,1.46
8093.00,1.46
8092.00,1.46
8091.00,1.46
8090.00,1.46
8089.00,1.46
8088.00,1.46
8087.00,1.46
8086.00,1.46
8085.00,1.47
8084.00,1.47
8083.00,1.47
8082.00,1.47
8081.00,1.47
8080.00,1.47
8079.00,1.47
8078.00,1.47
8077.00,1.47
8076.00,1.47
8075.00,1.47
8074.00,1.47
8073.00,1.47
8072.00,1.48
8071.00,1.48
8070.00,1.48
8069.00,1.48
8068.00,1.48
8067.00,1.48
8066.00,1.48
8065.00,1.48
8064.00,1.48
8063.00,1.48
8062.00,1.48
8061.00,1.48
8060.00,1.48
8059.00,1.48
8058.00,1.48
8057.00,1.48
8056.00,1.48
8055.00,1.49
8054.00,1.49
8053.00,1.49
8052.00,1.49
8051.00,1.49
8050.00,1.49
8049.00,1.49
8048.00,1.49
8047.00,1.49
8046.00,1.49
8045.00,1.49
8044.00,1.48
8043.00,1.48
8042.00,1.48
8041.00,1.48
8040.00,1.48
8039.00,1.48
8038.00,1.48
8037.00,1.48
8036.00,1.48
8035.00,1.48
8034.00,1.48
8033.00,1.49
8032.00,1.49
8031.00,1.49
8030.00,1.49
8029.00,1.49
8028.00,1.49
8027.00,1.49
8026.00,1.49
8025.00,1.49
8024.00,1.49
8023.00,1.49
8022.00,1.49
8021.00,1.49
8020.00,1.49
8019.00,1.49
8018.00,1.49
8017.00,1.49
8016.00,1.49
8015.00,1.49
8014.00,1.49
8013.00,1.49
8012.00,1.49
8011.00,1.49
8010.00,1.49
8009.00,1.49
8008.00,1.49
8007.00,1.49
8006.00,1.50
8005.00,1.50
8004.00,1.50
8003.00,1.50
8002.00,1.50
8001.00,1.50
8000.00,1.50
7999.00,1.50
7998.00,1.50
7997.00,1.50
7996.00,1.50
7995.00,1.50
7994.00,1.50
7993.00,1.51
7992.00,1.51
7991.00,1.50
7990.00,1.50
7989.00,1.50
7988.00,1.50
7987.00,1.50
7986.00,1.50
7985.00,1.50
7984.00,1.50
7983.00,1.50
7982.00,1.50
7981.00,1.50
7980.00,1.50
7979.00,1.50
7978.00,1.50
7977.00,1.50
7976.00,1.50
7975.00,1.50
7974.00,1.50
7973.00,1.50
7972.00,1.50
7971.00,1.50
7970.00,1.50
7969.00,1.50
7968.00,1.50
7967.00,1.50
7966.00,1.50
7965.00,1.49
7964.00,1.49
7963.00,1.49
7962.00,1.49
7961.00,1.49
7960.00,1.49
7959.00,1.50
7958.00,1.50
7957.00,1.50
7956.00,1.50
7955.00,1.50
7954.00,1.50
7953.00,1.50
7952.00,1.50
7951.00,1.50
7950.00,1.50
7949.00,1.50
7948.00,1.50
7947.00,1.50
7946.00,1.50
7945.00,1.50
7944.00,1.50
7943.00,1.50
7942.00,1.50
7941.00,1.50
7940.00,1.50
7939.00,1.50
7938.00,1.50
7937.00,1.50
7936.00,1.50
7935.00,1.50
7934.00,1.50
7933.00,1.51
7932.00,1.51
7931.00,1.51
7930.00,1.51
7929.00,1.51
7928.00,1.51
7927.00,1.51
7926.00,1.51
7925.00,1.51
7924.00,1.51
7923.00,1.51
7922.00,1.51
7921.00,1.51
7920.00,1.51
7919.00,1.51
7918.00,1.51
7917.00,1.51
7916.00,1.51
7915.00,1.51
7914.00,1.51
7913.00,1.51
7912.00,1.51
7911.00,1.51
7910.00,1.51
7909.00,1.51
7908.00,1.51
7907.00,1.51
7906.00,1.51
7905.00,1.51
7904.00,1.51
7903.00,1.51
7902.00,1.51
7901.00,1.51
7900.00,1.51
7899.00,1.51
7898.00,1.51
7897.00,1.51
7896.00,1.51
7895.00,1.51
7894.00,1.51
7893.00,1.51
7892.00,1.51
7891.00,1.51
7890.00,1.51
7889.00,1.51
7888.00,1.51
7887.00,1.52
7886.00,1.52
7885.00,1.52
7884.00,1.52
7883.00,1.52
7882.00,1.52
7881.00,1.52
7880.00,1.52
7879.00,1.52
7878.00,1.52
7877.00,1.52
7876.00,1.52
7875.00,1.52
7874.00,1.52
7873.00,1.52
7872.00,1.52
7871.00,1.52
7870.00,1.52
7869.00,1.52
7868.00,1.52
7867.00,1.52
7866.00,1.52
7865.00,1.52
7864.00,1.52
7863.00,1.52
7862.00,1.52
7861.00,1.52
7860.00,1.52
7859.00,1.52
7858.00,1.52
7857.00,1.52
7856.00,1.52
7855.00,1.52
7854.00,1.52
7853.00,1.52
7852.00,1.52
7851.00,1.52
7850.00,1.52
7849.00,1.52
7848.00,1.52
7847.00,1.52
7846.00,1.52
7845.00,1.52
7844.00,1.52
7843.00,1.52
7842.00,1.52
7841.00,1.52
7840.00,1.52
7839.00,1.52
7838.00,1.52
7837.00,1.52
7836.00,1.53
7835.00,1.53
7834.00,1.53
7833.00,1.53
7832.00,1.53
7831.00,1.53
7830.00,1.53
7829.00,1.53
7828.00,1.53
7827.00,1.53
7826.00,1.53
7825.00,1.53
7824.00,1.53
7823.00,1.53
7822.00,1.53
7821.00,1.53
7820.00,1.53
7819.00,1.53
7818.00,1.53
7817.00,1.53
7816.00,1.53
7815.00,1.53
7814.00,1.53
7813.00,1.53
7812.00,1.53
7811.00,1.53
7810.00,1.53
7809.00,1.53
7808.00,1.53
7807.00,1.53
7806.00,1.53
7805.00,1.53
7804.00,1.52
7803.00,1.52
7802.00,1.52
7801.00,1.52
7800.00,1.52
7799.00,1.52
7798.00,1.52
7797.00,1.52
7796.00,1.52
7795.00,1.52
7794.00,1.52
7793.00,1.53
7792.00,1.53
7791.00,1.53
7790.00,1.53
7789.00,1.53
7788.00,1.53
7787.00,1.53
7786.00,1.53
7785.00,1.53
7784.00,1.53
7783.00,1.53
7782.00,1.53
7781.00,1.53
7780.00,1.53
7779.00,1.53
7778.00,1.53
7777.00,1.53
7776.00,1.53
7775.00,1.53
7774.00,1.53
7773.00,1.53
7772.00,1.53
7771.00,1.53
7770.00,1.53
7769.00,1.53
7768.00,1.53
7767.00,1.53
7766.00,1.53
7765.00,1.53
7764.00,1.53
7763.00,1.53
7762.00,1.53
7761.00,1.53
7760.00,1.53
7759.00,1.53
7758.00,1.53
7757.00,1.53
7756.00,1.53
7755.00,1.53
7754.00,1.53
7753.00,1.53
7752.00,1.53
7751.00,1.53
7750.00,1.53
7749.00,1.53
7748.00,1.53
7747.00,1.53
7746.00,1.53
7745.00,1.53
7744.00,1.53
7743.00,1.53
7742.00,1.53
7741.00,1.53
7740.00,1.53
7739.00,1.53
7738.00,1.53
7737.00,1.53
7736.00,1.53
7735.00,1.53
7734.00,1.53
7733.00,1.53
7732.00,1.53
7731.00,1.53
7730.00,1.53
7729.00,1.53
7728.00,1.53
7727.00,1.53
7726.00,1.53
7725.00,1.54
7724.00,1.54
7723.00,1.54
7722.00,1.54
7721.00,1.54
7720.00,1.54
7719.00,1.54
7718.00,1.54
7717.00,1.54
7716.00,1.54
7715.00,1.54
7714.00,1.54
7713.00,1.54
7712.00,1.54
7711.00,1.54
7710.00,1.54
7709.00,1.54
7708.00,1.54
7707.00,1.54
7706.00,1.54
7705.00,1.54
7704.00,1.54
7703.00,1.54
7702.00,1.54
7701.00,1.54
7700.00,1.54
7699.00,1.54
7698.00,1.54
7697.00,1.54
7696.00,1.54
7695.00,1.54
7694.00,1.54
7693.00,1.54
7692.00,1.54
7691.00,1.54
7690.00,1.54
7689.00,1.54
7688.00,1.54
7687.00,1.54
7686.00,1.54
7685.00,1.54
7684.00,1.54
7683.00,1.54
7682.00,1.54
7681.00,1.54
7680.00,1.54
7679.00,1.54
7678.00,1.54
7677.00,1.54
7676.00,1.54
7675.00,1.53
7674.00,1.53
7673.00,1.53
7672.00,1.53
7671.00,1.53
7670.00,1.53
7669.00,1.53
7668.00,1.53
7667.00,1.53
7666.00,1.53
7665.00,1.53
7664.00,1.53
7663.00,1.53
7662.00,1.53
7661.00,1.53
7660.00,1.53
7659.00,1.53
7658.00,1.53
7657.00,1.53
7656.00,1.53
7655.00,1.53
7654.00,1.53
7653.00,1.53
7652.00,1.53
7651.00,1.54
7650.00,1.54
7649.00,1.54
7648.00,1.54
7647.00,1.54
7646.00,1.54
7645.00,1.54
7644.00,1.54
7643.00,1.54
7642.00,1.54
7641.00,1.54
7640.00,1.54
7639.00,1.54
7638.00,1.54
7637.00,1.54
7636.00,1.54
7635.00,1.54
7634.00,1.54
7633.00,1.54
7632.00,1.54
7631.00,1.54
7630.00,1.54
7629.00,1.54
7628.00,1.54
7627.00,1.54
7626.00,1.54
7625.00,1.54
7624.00,1.54
7623.00,1.54
7622.00,1.54
7621.00,1.54
7620.00,1.54
7619.00,1.53
7618.00,1.53
7617.00,1.53
7616.00,1.53
7615.00,1.53
7614.00,1.53
7613.00,1.53
7612.00,1.53
7611.00,1.53
7610.00,1.53
7609.00,1.53
7608.00,1.53
7607.00,1.53
7606.00,1.53
7605.00,1.53
7604.00,1.53
7603.00,1.53
7602.00,1.53
7601.00,1.53
7600.00,1.53
7599.00,1.53
7598.00,1.53
7597.00,1.53
7596.00,1.53
7595.00,1.53
7594.00,1.53
7593.00,1.53
7592.00,1.53
7591.00,1.53
7590.00,1.53
7589.00,1.53
7588.00,1.53
7587.00,1.53
7586.00,1.53
7585.00,1.53
7584.00,1.53
7583.00,1.53
7582.00,1.53
7581.00,1.53
7580.00,1.53
7579.00,1.53
7578.00,1.53
7577.00,1.53
7576.00,1.53
7575.00,1.53
7574.00,1.53
7573.00,1.53
7572.00,1.53
7571.00,1.53
7570.00,1.53
7569.00,1.53
7568.00,1.53
7567.00,1.53
7566.00,1.53
7565.00,1.53
7564.00,1.53
7563.00,1.53
7562.00,1.53
7561.00,1.53
7560.00,1.53
7559.00,1.53
7558.00,1.53
7557.00,1.53
7556.00,1.53
7555.00,1.53
7554.00,1.53
7553.00,1.53
7552.00,1.53
7551.00,1.53
7550.00,1.52
7549.00,1.52
7548.00,1.52
7547.00,1.52
7546.00,1.52
7545.00,1.52
7544.00,1.52
7543.00,1.52
7542.00,1.52
7541.00,1.52
7540.00,1.52
7539.00,1.52
7538.00,1.52
7537.00,1.52
7536.00,1.52
7535.00,1.52
7534.00,1.52
7533.00,1.52
7532.00,1.52
7531.00,1.52
7530.00,1.52
7529.00,1.52
7528.00,1.52
7527.00,1.52
7526.00,1.52
7525.00,1.52
7524.00,1.52
7523.00,1.52
7522.00,1.52
7521.00,1.52
7520.00,1.52
7519.00,1.52
7518.00,1.52
7517.00,1.52
7516.00,1.52
7515.00,1.52
7514.00,1.52
7513.00,1.52
7512.00,1.52
7511.00,1.52
7510.00,1.52
7509.00,1.52
7508.00,1.52
7507.00,1.52
7506.00,1.51
7505.00,1.51
7504.00,1.51
7503.00,1.51
7502.00,1.51
7501.00,1.51
7500.00,1.51
7499.00,1.51
7498.00,1.51
7497.00,1.51
7496.00,1.51
7495.00,1.51
7494.00,1.51
7493.00,1.51
7492.00,1.51
7491.00,1.51
7490.00,1.51
7489.00,1.51
7488.00,1.51
7487.00,1.51
7486.00,1.51
7485.00,1.51
7484.00,1.51
7483.00,1.51
7482.00,1.51
7481.00,1.51
7480.00,1.51
7479.00,1.51
7478.00,1.50
7477.00,1.50
7476.00,1.50
7475.00,1.50
7474.00,1.50
7473.00,1.50
7472.00,1.50
7471.00,1.49
7470.00,1.49
7469.00,1.49
7468.00,1.49
7467.00,1.49
7466.00,1.49
7465.00,1.49
7464.00,1.49
7463.00,1.49
7462.00,1.49
7461.00,1.48
7460.00,1.48
7459.00,1.48
7458.00,1.48
7457.00,1.48
7456.00,1.48
7455.00,1.48
7454.00,1.48
7453.00,1.48
7452.00,1.48
7451.00,1.48
7450.00,1.48
7449.00,1.48
7448.00,1.48
7447.00,1.48
7446.00,1.48
7445.00,1.48
7444.00,1.48
7443.00,1.47
7442.00,1.47
7441.00,1.47
7440.00,1.47
7439.00,1.47
7438.00,1.47
7437.00,1.47
7436.00,1.47
7435.00,1.47
7434.00,1.47
7433.00,1.47
7432.00,1.47
7431.00,1.47
7430.00,1.47
7429.00,1.47
7428.00,1.46
7427.00,1.46
7426.00,1.46
7425.00,1.46
7424.00,1.46
7423.00,1.46
7422.00,1.46
7421.00,1.46
7420.00,1.46
7419.00,1.46
7418.00,1.46
7417.00,1.45
7416.00,1.45
7415.00,1.45
7414.00,1.45
7413.00,1.45
7412.00,1.45
7411.00,1.45
7410.00,1.45
7409.00,1.44
7408.00,1.44
7407.00,1.44
7406.00,1.44
7405.00,1.44
7404.00,1.44
7403.00,1.44
7402.00,1.44
7401.00,1.43
7400.00,1.43
7399.00,1.43
7398.00,1.43
7397.00,1.43
7396.00,1.43
7395.00,1.43
7394.00,1.43
7393.00,1.43
7392.00,1.43
7391.00,1.43
7390.00,1.43
7389.00,1.43
7388.00,1.43
7387.00,1.42
7386.00,1.42
7385.00,1.42
7384.00,1.42
7383.00,1.42
7382.00,1.42
7381.00,1.42
7380.00,1.42
7379.00,1.41
7378.00,1.41
7377.00,1.41
7376.00,1.41
7375.00,1.41
7374.00,1.41
7373.00,1.41
7372.00,1.41
7371.00,1.41
7370.00,1.41
7369.00,1.40
7368.00,1.40
7367.00,1.40
7366.00,1.40
7365.00,1.40
7364.00,1.40
7363.00,1.40
7362.00,1.40
7361.00,1.40
7360.00,1.40
7359.00,1.40
7358.00,1.40
7357.00,1.40
7356.00,1.40
7355.00,1.40
7354.00,1.40
7353.00,1.40
7352.00,1.40
7351.00,1.40
7350.00,1.40
7349.00,1.41
7348.00,1.41
7347.00,1.41
7346.00,1.41
7345.00,1.41
7344.00,1.41
7343.00,1.41
7342.00,1.41
7341.00,1.41
7340.00,1.41
7339.00,1.41
7338.00,1.41
7337.00,1.40
7336.00,1.40
7335.00,1.40
7334.00,1.40
7333.00,1.40
7332.00,1.40
7331.00,1.40
7330.00,1.40
7329.00,1.40
7328.00,1.40
7327.00,1.39
7326.00,1.39
7325.00,1.39
7324.00,1.39
7323.00,1.39
7322.00,1.39
7321.00,1.39
7320.00,1.39
7319.00,1.39
7318.00,1.39
7317.00,1.39
7316.00,1.39
7315.00,1.39
7314.00,1.38
7313.00,1.38
7312.00,1.38
7311.00,1.38
7310.00,1.38
7309.00,1.38
7308.00,1.38
7307.00,1.38
7306.00,1.38
7305.00,1.38
7304.00,1.38
7303.00,1.38
7302.00,1.38
7301.00,1.38
7300.00,1.38
7299.00,1.38
7298.00,1.38
7297.00,1.38
7296.00,1.37
7295.00,1.37
7294.00,1.37
7293.00,1.37
7292.00,1.37
7291.00,1.37
7290.00,1.37
7289.00,1.36
7288.00,1.36
7287.00,1.36
7286.00,1.36
7285.00,1.36
7284.00,1.35
7283.00,1.35
7282.00,1.35
7281.00,1.35
7280.00,1.35
7279.00,1.34
7278.00,1.34
7277.00,1.34
7276.00,1.34
7275.00,1.34
7274.00,1.33
7273.00,1.33
7272.00,1.33
7271.00,1.33
7270.00,1.33
7269.00,1.33
7268.00,1.33
7267.00,1.32
7266.00,1.32
7265.00,1.32
7264.00,1.32
7263.00,1.32
7262.00,1.32
7261.00,1.32
7260.00,1.32
7259.00,1.32
7258.00,1.32
7257.00,1.31
7256.00,1.31
7255.00,1.31
7254.00,1.31
7253.00,1.31
7252.00,1.31
7251.00,1.31
7250.00,1.30
7249.00,1.30
7248.00,1.30
7247.00,1.30
7246.00,1.30
7245.00,1.29
7244.00,1.29
7243.00,1.29
7242.00,1.29
7241.00,1.28
7240.00,1.28
7239.00,1.28
7238.00,1.27
7237.00,1.27
7236.00,1.26
7235.00,1.26
7234.00,1.26
7233.00,1.25
7232.00,1.25
7231.00,1.24
7230.00,1.24
7229.00,1.24
7228.00,1.23
7227.00,1.23
7226.00,1.22
7225.00,1.22
7224.00,1.21
7223.00,1.21
7222.00,1.21
7221.00,1.20
7220.00,1.20
7219.00,1.19
7218.00,1.19
7217.00,1.19
7216.00,1.18
7215.00,1.18
7214.00,1.17
7213.00,1.17
7212.00,1.17
7211.00,1.16
7210.00,1.16
7209.00,1.16
7208.00,1.15
7207.00,1.15
7206.00,1.15
7205.00,1.14
7204.00,1.14
7203.00,1.14
7202.00,1.13
7201.00,1.13
7200.00,1.13
7199.00,1.12
7198.00,1.12
7197.00,1.12
7196.00,1.11
7195.00,1.11
7194.00,1.11
7193.00,1.10
7192.00,1.10
7191.00,1.10
7190.00,1.09
7189.00,1.09
7188.00,1.09
7187.00,1.08
7186.00,1.08
7185.00,1.08
7184.00,1.07
7183.00,1.07
7182.00,1.07
7181.00,1.07
7180.00,1.06
7179.00,1.06
7178.00,1.06
7177.00,1.05
7176.00,1.05
7175.00,1.05
7174.00,1.05
7173.00,1.04
7172.00,1.04
7171.00,1.04
7170.00,1.04
7169.00,1.03
7168.00,1.03
7167.00,1.03
7166.00,1.02
7165.00,1.02
7164.00,1.02
7163.00,1.01
7162.00,1.01
7161.00,1.01
7160.00,1.00
7159.00,1.00
7158.00,0.99
7157.00,0.99
7156.00,0.99
7155.00,0.98
7154.00,0.98
7153.00,0.98
7152.00,0.97
7151.00,0.97
7150.00,0.97
7149.00,0.96
7148.00,0.96
7147.00,0.96
7146.00,0.96
7145.00,0.95
7144.00,0.95
7143.00,0.95
7142.00,0.94
7141.00,0.94
7140.00,0.94
7139.00,0.94
7138.00,0.93
7137.00,0.93
7136.00,0.93
7135.00,0.92
7134.00,0.92
7133.00,0.92
7132.00,0.92
7131.00,0.91
7130.00,0.91
7129.00,0.91
7128.00,0.91
7127.00,0.90
7126.00,0.90
7125.00,0.90
7124.00,0.89
7123.00,0.89
7122.00,0.89
7121.00,0.89
7120.00,0.88
7119.00,0.88
7118.00,0.88
7117.00,0.88
7116.00,0.87
7115.00,0.87
7114.00,0.87
7113.00,0.87
7112.00,0.86
7111.00,0.86
7110.00,0.86
7109.00,0.85
7108.00,0.85
7107.00,0.85
7106.00,0.85
7105.00,0.84
7104.00,0.84
7103.00,0.83
7102.00,0.83
7101.00,0.83
7100.00,0.82
7099.00,0.82
7098.00,0.82
7097.00,0.81
7096.00,0.81
7095.00,0.81
7094.00,0.80
7093.00,0.80
7092.00,0.80
7091.00,0.80
7090.00,0.79
7089.00,0.79
7088.00,0.79
7087.00,0.79
7086.00,0.78
7085.00,0.78
7084.00,0.78
7083.00,0.78
7082.00,0.77
7081.00,0.77
7080.00,0.77
7079.00,0.77
7078.00,0.77
7077.00,0.77
7076.00,0.76
7075.00,0.76
7074.00,0.76
7073.00,0.76
7072.00,0.76
7071.00,0.76
7070.00,0.76
7069.00,0.75
7068.00,0.75
7067.00,0.75
7066.00,0.75
7065.00,0.75
7064.00,0.74
7063.00,0.74
7062.00,0.74
7061.00,0.74
7060.00,0.74
7059.00,0.73
7058.00,0.73
7057.00,0.73
7056.00,0.73
7055.00,0.73
7054.00,0.73
7053.00,0.73
7052.00,0.73
7051.00,0.72
7050.00,0.72
7049.00,0.72
7048.00,0.72
7047.00,0.72
7046.00,0.72
7045.00,0.72
7044.00,0.72
7043.00,0.72
7042.00,0.72
7041.00,0.71
7040.00,0.71
7039.00,0.71
7038.00,0.71
7037.00,0.71
7036.00,0.71
7035.00,0.71
7034.00,0.71
7033.00,0.70
7032.00,0.70
7031.00,0.70
7030.00,0.70
7029.00,0.70
7028.00,0.70
7027.00,0.70
7026.00,0.70
7025.00,0.69
7024.00,0.69
7023.00,0.69
7022.00,0.69
7021.00,0.69
7020.00,0.69
7019.00,0.69
7018.00,0.69
7017.00,0.69
7016.00,0.69
7015.00,0.69
7014.00,0.69
7013.00,0.68
7012.00,0.68
7011.00,0.68
7010.00,0.68
7009.00,0.68
7008.00,0.68
7007.00,0.68
7006.00,0.68
7005.00,0.68
7004.00,0.68
7003.00,0.68
7002.00,0.68
7001.00,0.68
7000.00,0.68
6999.00,0.68
6998.00,0.68
6997.00,0.68
6996.00,0.68
6995.00,0.68
6994.00,0.68
6993.00,0.68
6992.00,0.67
6991.00,0.67
6990.00,0.67
6989.00,0.67
6988.00,0.67
6987.00,0.67
6986.00,0.67
6985.00,0.67
6984.00,0.66
6983.00,0.66
6982.00,0.66
6981.00,0.66
6980.00,0.66
6979.00,0.66
6978.00,0.66
6977.00,0.66
6976.00,0.65
6975.00,0.65
6974.00,0.65
6973.00,0.65
6972.00,0.65
6971.00,0.65
6970.00,0.65
6969.00,0.65
6968.00,0.65
6967.00,0.65
6966.00,0.65
6965.00,0.64
6964.00,0.64
6963.00,0.64
6962.00,0.64
6961.00,0.64
6960.00,0.64
6959.00,0.64
6958.00,0.64
6957.00,0.64
6956.00,0.64
6955.00,0.64
6954.00,0.64
6953.00,0.64
6952.00,0.63
6951.00,0.63
6950.00,0.63
6949.00,0.63
6948.00,0.63
6947.00,0.63
6946.00,0.63
6945.00,0.63
6944.00,0.63
6943.00,0.63
6942.00,0.63
6941.00,0.63
6940.00,0.63
6939.00,0.63
6938.00,0.63
6937.00,0.63
6936.00,0.63
6935.00,0.63
6934.00,0.63
6933.00,0.63
6932.00,0.63
6931.00,0.63
6930.00,0.63
6929.00,0.63
6928.00,0.63
6927.00,0.63
6926.00,0.63
6925.00,0.63
6924.00,0.63
6923.00,0.63
6922.00,0.63
6921.00,0.63
6920.00,0.63
6919.00,0.63
6918.00,0.63
6917.00,0.63
6916.00,0.63
6915.00,0.63
6914.00,0.63
6913.00,0.63
6912.00,0.63
6911.00,0.63
6910.00,0.63
6909.00,0.63
6908.00,0.63
6907.00,0.63
6906.00,0.63
6905.00,0.63
6904.00,0.63
6903.00,0.63
6902.00,0.63
6901.00,0.63
6900.00,0.63
6899.00,0.63
6898.00,0.63
6897.00,0.63
6896.00,0.63
6895.00,0.63
6894.00,0.63
6893.00,0.63
6892.00,0.62
6891.00,0.62
6890.00,0.62
6889.00,0.62
6888.00,0.62
6887.00,0.62
6886.00,0.62
6885.00,0.62
6884.00,0.62
6883.00,0.62
6882.00,0.62
6881.00,0.62
6880.00,0.62
6879.00,0.62
6878.00,0.62
6877.00,0.62
6876.00,0.62
6875.00,0.62
6874.00,0.62
6873.00,0.62
6872.00,0.62
6871.00,0.62
6870.00,0.62
6869.00,0.62
6868.00,0.62
6867.00,0.62
6866.00,0.62
6865.00,0.62
6864.00,0.62
6863.00,0.62
6862.00,0.62
6861.00,0.62
6860.00,0.62
6859.00,0.62
6858.00,0.62
6857.00,0.62
6856.00,0.62
6855.00,0.62
6854.00,0.62
6853.00,0.62
6852.00,0.62
6851.00,0.62
6850.00,0.62
6849.00,0.62
6848.00,0.62
6847.00,0.62
6846.00,0.62
6845.00,0.62
6844.00,0.62
6843.00,0.62
6842.00,0.62
6841.00,0.62
6840.00,0.62
6839.00,0.62
6838.00,0.63
6837.00,0.63
6836.00,0.63
6835.00,0.63
6834.00,0.63
6833.00,0.63
6832.00,0.63
6831.00,0.63
6830.00,0.63
6829.00,0.63
6828.00,0.63
6827.00,0.63
6826.00,0.64
6825.00,0.64
6824.00,0.64
6823.00,0.64
6822.00,0.64
6821.00,0.64
6820.00,0.64
6819.00,0.64
6818.00,0.64
6817.00,0.64
6816.00,0.64
6815.00,0.64
6814.00,0.64
6813.00,0.64
6812.00,0.63
6811.00,0.63
6810.00,0.63
6809.00,0.63
6808.00,0.63
6807.00,0.63
6806.00,0.63
6805.00,0.63
6804.00,0.63
6803.00,0.63
6802.00,0.63
6801.00,0.63
6800.00,0.64
6799.00,0.64
6798.00,0.64
6797.00,0.64
6796.00,0.64
6795.00,0.64
6794.00,0.64
6793.00,0.64
6792.00,0.64
6791.00,0.64
6790.00,0.64
6789.00,0.64
6788.00,0.64
6787.00,0.64
6786.00,0.64
6785.00,0.64
6784.00,0.64
6783.00,0.64
6782.00,0.65
6781.00,0.65
6780.00,0.65
6779.00,0.65
6778.00,0.65
6777.00,0.65
6776.00,0.65
6775.00,0.65
6774.00,0.65
6773.00,0.65
6772.00,0.65
6771.00,0.65
6770.00,0.65
6769.00,0.65
6768.00,0.65
6767.00,0.65
6766.00,0.65
6765.00,0.65
6764.00,0.65
6763.00,0.65
6762.00,0.65
6761.00,0.65
6760.00,0.65
6759.00,0.65
6758.00,0.66
6757.00,0.66
6756.00,0.66
6755.00,0.66
6754.00,0.66
6753.00,0.66
6752.00,0.66
6751.00,0.66
6750.00,0.66
6749.00,0.66
6748.00,0.67
6747.00,0.67
6746.00,0.67
6745.00,0.67
6744.00,0.67
6743.00,0.67
6742.00,0.67
6741.00,0.67
6740.00,0.67
6739.00,0.67
6738.00,0.67
6737.00,0.67
6736.00,0.67
6735.00,0.67
6734.00,0.68
6733.00,0.68
6732.00,0.68
6731.00,0.68
6730.00,0.68
6729.00,0.68
6728.00,0.68
6727.00,0.68
6726.00,0.68
6725.00,0.68
6724.00,0.68
6723.00,0.68
6722.00,0.68
6721.00,0.68
6720.00,0.68
6719.00,0.69
6718.00,0.69
6717.00,0.69
6716.00,0.69
6715.00,0.69
6714.00,0.69
6713.00,0.69
6712.00,0.69
6711.00,0.69
6710.00,0.69
6709.00,0.69
6708.00,0.70
6707.00,0.70
6706.00,0.70
6705.00,0.70
6704.00,0.70
6703.00,0.70
6702.00,0.70
6701.00,0.70
6700.00,0.70
6699.00,0.71
6698.00,0.71
6697.00,0.71
6696.00,0.71
6695.00,0.71
6694.00,0.71
6693.00,0.71
6692.00,0.71
6691.00,0.71
6690.00,0.71
6689.00,0.71
6688.00,0.72
6687.00,0.72
6686.00,0.72
6685.00,0.72
6684.00,0.72
6683.00,0.72
6682.00,0.72
6681.00,0.72
6680.00,0.73
6679.00,0.73
6678.00,0.73
6677.00,0.73
6676.00,0.73
6675.00,0.73
6674.00,0.73
6673.00,0.73
6672.00,0.73
6671.00,0.73
6670.00,0.73
6669.00,0.74
6668.00,0.74
6667.00,0.74
6666.00,0.74
6665.00,0.74
6664.00,0.74
6663.00,0.74
6662.00,0.74
6661.00,0.74
6660.00,0.74
6659.00,0.74
6658.00,0.74
6657.00,0.74
6656.00,0.74
6655.00,0.74
6654.00,0.74
6653.00,0.74
6652.00,0.75
6651.00,0.75
6650.00,0.75
6649.00,0.75
6648.00,0.75
6647.00,0.75
6646.00,0.75
6645.00,0.75
6644.00,0.76
6643.00,0.76
6642.00,0.76
6641.00,0.76
6640.00,0.76
6639.00,0.76
6638.00,0.76
6637.00,0.76
6636.00,0.76
6635.00,0.77
6634.00,0.77
6633.00,0.77
6632.00,0.77
6631.00,0.77
6630.00,0.77
6629.00,0.77
6628.00,0.77
6627.00,0.77
6626.00,0.77
6625.00,0.77
6624.00,0.77
6623.00,0.78
6622.00,0.78
6621.00,0.78
6620.00,0.78
6619.00,0.78
6618.00,0.78
6617.00,0.78
6616.00,0.78
6615.00,0.78
6614.00,0.78
6613.00,0.78
6612.00,0.78
6611.00,0.79
6610.00,0.79
6609.00,0.79
6608.00,0.79
6607.00,0.79
6606.00,0.79
6605.00,0.79
6604.00,0.79
6603.00,0.79
6602.00,0.80
6601.00,0.80
6600.00,0.80
6599.00,0.80
6598.00,0.80
6597.00,0.80
6596.00,0.80
6595.00,0.81
6594.00,0.81
6593.00,0.81
6592.00,0.81
6591.00,0.81
6590.00,0.81
6589.00,0.81
6588.00,0.81
6587.00,0.81
6586.00,0.81
6585.00,0.81
6584.00,0.82
6583.00,0.82
6582.00,0.82
6581.00,0.82
6580.00,0.82
6579.00,0.82
6578.00,0.82
6577.00,0.82
6576.00,0.82
6575.00,0.82
6574.00,0.82
6573.00,0.82
6572.00,0.82
6571.00,0.83
6570.00,0.83
6569.00,0.83
6568.00,0.83
6567.00,0.83
6566.00,0.83
6565.00,0.83
6564.00,0.83
6563.00,0.84
6562.00,0.84
6561.00,0.84
6560.00,0.84
6559.00,0.84
6558.00,0.84
6557.00,0.84
6556.00,0.85
6555.00,0.85
6554.00,0.85
6553.00,0.85
6552.00,0.85
6551.00,0.85
6550.00,0.85
6549.00,0.86
6548.00,0.86
6547.00,0.86
6546.00,0.86
6545.00,0.86
6544.00,0.86
6543.00,0.86
6542.00,0.86
6541.00,0.86
6540.00,0.86
6539.00,0.86
6538.00,0.87
6537.00,0.87
6536.00,0.87
6535.00,0.87
6534.00,0.87
6533.00,0.87
6532.00,0.87
6531.00,0.87
6530.00,0.87
6529.00,0.87
6528.00,0.87
6527.00,0.87
6526.00,0.87
6525.00,0.87
6524.00,0.87
6523.00,0.87
6522.00,0.88
6521.00,0.88
6520.00,0.88
6519.00,0.88
6518.00,0.88
6517.00,0.88
6516.00,0.88
6515.00,0.88
6514.00,0.88
6513.00,0.88
6512.00,0.88
6511.00,0.89
6510.00,0.89
6509.00,0.89
6508.00,0.89
6507.00,0.89
6506.00,0.89
6505.00,0.89
6504.00,0.89
6503.00,0.89
6502.00,0.89
6501.00,0.89
6500.00,0.89
6499.00,0.89
6498.00,0.89
6497.00,0.89
6496.00,0.89
6495.00,0.89
6494.00,0.89
6493.00,0.90
6492.00,0.90
6491.00,0.90
6490.00,0.90
6489.00,0.90
6488.00,0.90
6487.00,0.90
6486.00,0.90
6485.00,0.91
6484.00,0.91
6483.00,0.91
6482.00,0.91
6481.00,0.91
6480.00,0.91
6479.00,0.91
6478.00,0.91
6477.00,0.91
6476.00,0.91
6475.00,0.91
6474.00,0.91
6473.00,0.91
6472.00,0.92
6471.00,0.92
6470.00,0.92
6469.00,0.92
6468.00,0.92
6467.00,0.92
6466.00,0.92
6465.00,0.92
6464.00,0.92
6463.00,0.92
6462.00,0.92
6461.00,0.92
6460.00,0.92
6459.00,0.92
6458.00,0.92
6457.00,0.93
6456.00,0.93
6455.00,0.93
6454.00,0.93
6453.00,0.93
6452.00,0.93
6451.00,0.93
6450.00,0.93
6449.00,0.93
6448.00,0.93
6447.00,0.93
6446.00,0.93
6445.00,0.93
6444.00,0.94
6443.00,0.94
6442.00,0.94
6441.00,0.94
6440.00,0.94
6439.00,0.94
6438.00,0.94
6437.00,0.94
6436.00,0.94
6435.00,0.94
6434.00,0.94
6433.00,0.94
6432.00,0.94
6431.00,0.94
6430.00,0.94
6429.00,0.94
6428.00,0.94
6427.00,0.94
6426.00,0.94
6425.00,0.94
6424.00,0.94
6423.00,0.94
6422.00,0.94
6421.00,0.94
6420.00,0.94
6419.00,0.94
6418.00,0.94
6417.00,0.94
6416.00,0.94
6415.00,0.94
6414.00,0.94
6413.00,0.94
6412.00,0.95
6411.00,0.95
6410.00,0.95
6409.00,0.95
6408.00,0.95
6407.00,0.95
6406.00,0.95
6405.00,0.95
6404.00,0.95
6403.00,0.95
6402.00,0.95
6401.00,0.95
6400.00,0.95
6399.00,0.95
6398.00,0.95
6397.00,0.95
6396.00,0.96
6395.00,0.96
6394.00,0.96
6393.00,0.96
6392.00,0.96
6391.00,0.96
6390.00,0.96
6389.00,0.96
6388.00,0.96
6387.00,0.96
6386.00,0.96
6385.00,0.96
6384.00,0.96
6383.00,0.96
6382.00,0.96
6381.00,0.96
6380.00,0.96
6379.00,0.96
6378.00,0.97
6377.00,0.97
6376.00,0.97
6375.00,0.97
6374.00,0.97
6373.00,0.97
6372.00,0.97
6371.00,0.97
6370.00,0.97
6369.00,0.98
6368.00,0.98
6367.00,0.98
6366.00,0.98
6365.00,0.98
6364.00,0.98
6363.00,0.98
6362.00,0.98
6361.00,0.98
6360.00,0.98
6359.00,0.99
6358.00,0.99
6357.00,0.99
6356.00,0.99
6355.00,0.99
6354.00,0.99
6353.00,0.99
6352.00,0.99
6351.00,0.99
6350.00,0.99
6349.00,0.99
6348.00,0.99
6347.00,0.99
6346.00,0.99
6345.00,1.00
6344.00,1.00
6343.00,1.00
6342.00,1.00
6341.00,1.00
6340.00,1.00
6339.00,1.00
6338.00,1.00
6337.00,1.00
6336.00,1.00
6335.00,1.01
6334.00,1.01
6333.00,1.01
6332.00,1.01
6331.00,1.01
6330.00,1.01
6329.00,1.01
6328.00,1.01
6327.00,1.01
6326.00,1.01
6325.00,1.01
6324.00,1.02
6323.00,1.02
6322.00,1.02
6321.00,1.02
6320.00,1.02
6319.00,1.02
6318.00,1.02
6317.00,1.02
6316.00,1.03
6315.00,1.03
6314.00,1.03
6313.00,1.03
6312.00,1.03
6311.00,1.03
6310.00,1.03
6309.00,1.03
6308.00,1.03
6307.00,1.04
6306.00,1.04
6305.00,1.04
6304.00,1.04
6303.00,1.04
6302.00,1.04
6301.00,1.04
6300.00,1.04
6299.00,1.04
6298.00,1.04
6297.00,1.05
6296.00,1.05
6295.00,1.05
6294.00,1.05
6293.00,1.05
6292.00,1.05
6291.00,1.05
6290.00,1.05
6289.00,1.06
6288.00,1.06
6287.00,1.06
6286.00,1.06
6285.00,1.06
6284.00,1.06
6283.00,1.06
6282.00,1.06
6281.00,1.06
6280.00,1.06
6279.00,1.06
6278.00,1.07
6277.00,1.07
6276.00,1.07
6275.00,1.07
6274.00,1.07
6273.00,1.07
6272.00,1.07
6271.00,1.08
6270.00,1.08
6269.00,1.08
6268.00,1.08
6267.00,1.08
6266.00,1.08
6265.00,1.08
6264.00,1.09
6263.00,1.09
6262.00,1.09
6261.00,1.09
6260.00,1.09
6259.00,1.09
6258.00,1.10
6257.00,1.10
6256.00,1.10
6255.00,1.10
6254.00,1.10
6253.00,1.10
6252.00,1.10
6251.00,1.10
6250.00,1.11
6249.00,1.11
6248.00,1.11
6247.00,1.11
6246.00,1.11
6245.00,1.11
6244.00,1.11
6243.00,1.11
6242.00,1.11
6241.00,1.11
6240.00,1.11
6239.00,1.12
6238.00,1.12
6237.00,1.12
6236.00,1.12
6235.00,1.12
6234.00,1.12
6233.00,1.12
6232.00,1.13
6231.00,1.13
6230.00,1.13
6229.00,1.13
6228.00,1.13
6227.00,1.13
6226.00,1.13
6225.00,1.14
6224.00,1.14
6223.00,1.14
6222.00,1.14
6221.00,1.14
6220.00,1.15
6219.00,1.15
6218.00,1.15
6217.00,1.15
6216.00,1.15
6215.00,1.15
6214.00,1.16
6213.00,1.16
6212.00,1.16
6211.00,1.16
6210.00,1.16
6209.00,1.16
6208.00,1.16
6207.00,1.16
6206.00,1.17
6205.00,1.17
6204.00,1.17
6203.00,1.17
6202.00,1.17
6201.00,1.17
6200.00,1.17
6199.00,1.17
6198.00,1.17
6197.00,1.18
6196.00,1.18
6195.00,1.18
6194.00,1.18
6193.00,1.18
6192.00,1.18
6191.00,1.19
6190.00,1.19
6189.00,1.19
6188.00,1.19
6187.00,1.19
6186.00,1.19
6185.00,1.20
6184.00,1.20
6183.00,1.20
6182.00,1.20
6181.00,1.20
6180.00,1.20
6179.00,1.20
6178.00,1.21
6177.00,1.21
6176.00,1.21
6175.00,1.21
6174.00,1.21
6173.00,1.21
6172.00,1.21
6171.00,1.22
6170.00,1.22
6169.00,1.22
6168.00,1.22
6167.00,1.22
6166.00,1.22
6165.00,1.23
6164.00,1.23
6163.00,1.23
6162.00,1.23
6161.00,1.23
6160.00,1.24
6159.00,1.24
6158.00,1.24
6157.00,1.24
6156.00,1.24
6155.00,1.25
6154.00,1.25
6153.00,1.25
6152.00,1.25
6151.00,1.25
6150.00,1.26
6149.00,1.26
6148.00,1.26
6147.00,1.26
6146.00,1.26
6145.00,1.27
6144.00,1.27
6143.00,1.27
6142.00,1.27
6141.00,1.27
6140.00,1.27
6139.00,1.27
6138.00,1.27
6137.00,1.28
6136.00,1.28
6135.00,1.28
6134.00,1.28
6133.00,1.28
6132.00,1.28
6131.00,1.28
6130.00,1.29
6129.00,1.29
6128.00,1.29
6127.00,1.29
6126.00,1.30
6125.00,1.30
6124.00,1.30
6123.00,1.30
6122.00,1.30
6121.00,1.31
6120.00,1.31
6119.00,1.31
6118.00,1.31
6117.00,1.31
6116.00,1.32
6115.00,1.32
6114.00,1.32
6113.00,1.32
6112.00,1.32
6111.00,1.32
6110.00,1.33
6109.00,1.33
6108.00,1.33
6107.00,1.33
6106.00,1.33
6105.00,1.33
6104.00,1.33
6103.00,1.33
6102.00,1.34
6101.00,1.34
6100.00,1.34
6099.00,1.34
6098.00,1.34
6097.00,1.34
6096.00,1.34
6095.00,1.34
6094.00,1.34
6093.00,1.35
6092.00,1.35
6091.00,1.35
6090.00,1.35
6089.00,1.35
6088.00,1.35
6087.00,1.35
6086.00,1.35
6085.00,1.36
6084.00,1.36
6083.00,1.36
6082.00,1.36
6081.00,1.36
6080.00,1.36
6079.00,1.36
6078.00,1.37
6077.00,1.37
6076.00,1.37
6075.00,1.37
6074.00,1.37
6073.00,1.37
6072.00,1.37
6071.00,1.38
6070.00,1.38
6069.00,1.38
6068.00,1.38
6067.00,1.38
6066.00,1.38
6065.00,1.38
6064.00,1.39
6063.00,1.39
6062.00,1.39
6061.00,1.39
6060.00,1.39
6059.00,1.39
6058.00,1.39
6057.00,1.39
6056.00,1.39
6055.00,1.39
6054.00,1.39
6053.00,1.39
6052.00,1.39
6051.00,1.40
6050.00,1.40
6049.00,1.40
6048.00,1.40
6047.00,1.40
6046.00,1.40
6045.00,1.40
6044.00,1.40
6043.00,1.40
6042.00,1.41
6041.00,1.41
6040.00,1.41
6039.00,1.41
6038.00,1.41
6037.00,1.41
6036.00,1.41
6035.00,1.41
6034.00,1.41
6033.00,1.41
6032.00,1.41
6031.00,1.41
6030.00,1.41
6029.00,1.41
6028.00,1.41
6027.00,1.41
6026.00,1.41
6025.00,1.41
6024.00,1.41
6023.00,1.41
6022.00,1.41
6021.00,1.41
6020.00,1.41
6019.00,1.41
6018.00,1.41
6017.00,1.41
6016.00,1.41
6015.00,1.41
6014.00,1.41
6013.00,1.41
6012.00,1.41
6011.00,1.41
6010.00,1.41
6009.00,1.41
6008.00,1.41
6007.00,1.41
6006.00,1.41
6005.00,1.41
6004.00,1.41
6003.00,1.41
6002.00,1.41
6001.00,1.41
6000.00,1.41
5999.00,1.41
5998.00,1.41
5997.00,1.41
5996.00,1.41
5995.00,1.40
5994.00,1.40
5993.00,1.40
5992.00,1.40
5991.00,1.40
5990.00,1.40
5989.00,1.39
5988.00,1.39
5987.00,1.39
5986.00,1.39
5985.00,1.38
5984.00,1.38
5983.00,1.38
5982.00,1.37
5981.00,1.37
5980.00,1.37
5979.00,1.36
5978.00,1.36
5977.00,1.35
5976.00,1.35
5975.00,1.34
5974.00,1.34
5973.00,1.33
5972.00,1.33
5971.00,1.32
5970.00,1.31
5969.00,1.31
5968.00,1.30
5967.00,1.29
5966.00,1.29
5965.00,1.28
5964.00,1.27
5963.00,1.26
5962.00,1.25
5961.00,1.25
5960.00,1.24
5959.00,1.23
5958.00,1.22
5957.00,1.21
5956.00,1.20
5955.00,1.19
5954.00,1.19
5953.00,1.18
5952.00,1.17
5951.00,1.16
5950.00,1.16
5949.00,1.15
5948.00,1.14
5947.00,1.14
5946.00,1.13
5945.00,1.13
5944.00,1.13
5943.00,1.12
5942.00,1.12
5941.00,1.12
5940.00,1.11
5939.00,1.11
5938.00,1.11
5937.00,1.11
5936.00,1.11
5935.00,1.10
5934.00,1.10
5933.00,1.10
5932.00,1.10
5931.00,1.10
5930.00,1.10
5929.00,1.10
5928.00,1.10
5927.00,1.09
5926.00,1.09
5925.00,1.09
5924.00,1.09
5923.00,1.09
5922.00,1.08
5921.00,1.08
5920.00,1.08
5919.00,1.08
5918.00,1.07
5917.00,1.07
5916.00,1.07
5915.00,1.07
5914.00,1.06
5913.00,1.06
5912.00,1.06
5911.00,1.06
5910.00,1.06
5909.00,1.05
5908.00,1.05
5907.00,1.05
5906.00,1.05
5905.00,1.05
5904.00,1.05
5903.00,1.05
5902.00,1.05
5901.00,1.05
5900.00,1.05
5899.00,1.05
5898.00,1.05
5897.00,1.05
5896.00,1.05
5895.00,1.05
5894.00,1.05
5893.00,1.06
5892.00,1.06
5891.00,1.06
5890.00,1.06
5889.00,1.07
5888.00,1.07
5887.00,1.07
5886.00,1.08
5885.00,1.08
5884.00,1.09
5883.00,1.09
5882.00,1.09
5881.00,1.10
5880.00,1.10
5879.00,1.10
5878.00,1.11
5877.00,1.11
5876.00,1.11
5875.00,1.12
5874.00,1.12
5873.00,1.12
5872.00,1.12
5871.00,1.13
5870.00,1.13
5869.00,1.13
5868.00,1.13
5867.00,1.13
5866.00,1.14
5865.00,1.14
5864.00,1.14
5863.00,1.14
5862.00,1.14
5861.00,1.14
5860.00,1.15
5859.00,1.15
5858.00,1.15
5857.00,1.15
5856.00,1.15
5855.00,1.15
5854.00,1.15
5853.00,1.16
5852.00,1.16
5851.00,1.16
5850.00,1.16
5849.00,1.16
5848.00,1.16
5847.00,1.16
5846.00,1.16
5845.00,1.16
5844.00,1.16
5843.00,1.16
5842.00,1.16
5841.00,1.16
5840.00,1.16
5839.00,1.16
5838.00,1.16
5837.00,1.16
5836.00,1.16
5835.00,1.16
5834.00,1.16
5833.00,1.16
5832.00,1.16
5831.00,1.16
5830.00,1.16
5829.00,1.16
5828.00,1.16
5827.00,1.16
5826.00,1.16
5825.00,1.16
5824.00,1.16
5823.00,1.16
5822.00,1.16
5821.00,1.16
5820.00,1.16
5819.00,1.16
5818.00,1.16
5817.00,1.16
5816.00,1.16
5815.00,1.16
5814.00,1.16
5813.00,1.16
5812.00,1.16
5811.00,1.16
5810.00,1.16
5809.00,1.16
5808.00,1.16
5807.00,1.16
5806.00,1.16
5805.00,1.16
5804.00,1.16
5803.00,1.16
5802.00,1.16
5801.00,1.16
5800.00,1.16
5799.00,1.16
5798.00,1.15
5797.00,1.15
5796.00,1.15
5795.00,1.15
5794.00,1.15
5793.00,1.14
5792.00,1.14
5791.00,1.14
5790.00,1.13
5789.00,1.13
5788.00,1.13
5787.00,1.13
5786.00,1.12
5785.00,1.12
5784.00,1.12
5783.00,1.11
5782.00,1.11
5781.00,1.11
5780.00,1.11
5779.00,1.11
5778.00,1.10
5777.00,1.10
5776.00,1.10
5775.00,1.10
5774.00,1.10
5773.00,1.10
5772.00,1.10
5771.00,1.10
5770.00,1.10
5769.00,1.10
5768.00,1.10
5767.00,1.10
5766.00,1.10
5765.00,1.10
5764.00,1.10
5763.00,1.11
5762.00,1.11
5761.00,1.11
5760.00,1.11
5759.00,1.12
5758.00,1.12
5757.00,1.12
5756.00,1.13
5755.00,1.13
5754.00,1.14
5753.00,1.14
5752.00,1.14
5751.00,1.15
5750.00,1.15
5749.00,1.16
5748.00,1.16
5747.00,1.16
5746.00,1.17
5745.00,1.17
5744.00,1.18
5743.00,1.18
5742.00,1.19
5741.00,1.19
5740.00,1.19
5739.00,1.20
5738.00,1.20
5737.00,1.20
5736.00,1.21
5735.00,1.21
5734.00,1.21
5733.00,1.22
5732.00,1.22
5731.00,1.22
5730.00,1.22
5729.00,1.22
5728.00,1.22
5727.00,1.23
5726.00,1.23
5725.00,1.23
5724.00,1.23
5723.00,1.23
5722.00,1.23
5721.00,1.23
5720.00,1.23
5719.00,1.23
5718.00,1.23
5717.00,1.23
5716.00,1.23
5715.00,1.23
5714.00,1.23
5713.00,1.23
5712.00,1.23
5711.00,1.23
5710.00,1.23
5709.00,1.23
5708.00,1.23
5707.00,1.23
5706.00,1.22
5705.00,1.22
5704.00,1.22
5703.00,1.22
5702.00,1.22
5701.00,1.22
5700.00,1.22
5699.00,1.22
5698.00,1.22
5697.00,1.21
5696.00,1.21
5695.00,1.21
5694.00,1.21
5693.00,1.21
5692.00,1.21
5691.00,1.20
5690.00,1.20
5689.00,1.20
5688.00,1.20
5687.00,1.20
5686.00,1.20
5685.00,1.19
5684.00,1.19
5683.00,1.19
5682.00,1.19
5681.00,1.19
5680.00,1.19
5679.00,1.19
5678.00,1.19
5677.00,1.19
5676.00,1.19
5675.00,1.18
5674.00,1.18
5673.00,1.18
5672.00,1.18
5671.00,1.18
5670.00,1.19
5669.00,1.19
5668.00,1.19
5667.00,1.19
5666.00,1.19
5665.00,1.19
5664.00,1.19
5663.00,1.19
5662.00,1.19
5661.00,1.20
5660.00,1.20
5659.00,1.20
5658.00,1.20
5657.00,1.20
5656.00,1.21
5655.00,1.21
5654.00,1.21
5653.00,1.21
5652.00,1.22
5651.00,1.22
5650.00,1.22
5649.00,1.22
5648.00,1.23
5647.00,1.23
5646.00,1.23
5645.00,1.23
5644.00,1.23
5643.00,1.24
5642.00,1.24
5641.00,1.24
5640.00,1.24
5639.00,1.25
5638.00,1.25
5637.00,1.25
5636.00,1.25
5635.00,1.25
5634.00,1.26
5633.00,1.26
5632.00,1.26
5631.00,1.26
5630.00,1.26
5629.00,1.27
5628.00,1.27
5627.00,1.27
5626.00,1.27
5625.00,1.28
5624.00,1.28
5623.00,1.28
5622.00,1.28
5621.00,1.28
5620.00,1.29
5619.00,1.29
5618.00,1.29
5617.00,1.29
5616.00,1.29
5615.00,1.30
5614.00,1.30
5613.00,1.30
5612.00,1.30
5611.00,1.30
5610.00,1.31
5609.00,1.31
5608.00,1.31
5607.00,1.31
5606.00,1.32
5605.00,1.32
5604.00,1.32
5603.00,1.32
5602.00,1.32
5601.00,1.32
5600.00,1.33
5599.00,1.33
5598.00,1.33
5597.00,1.33
5596.00,1.33
5595.00,1.33
5594.00,1.34
5593.00,1.34
5592.00,1.34
5591.00,1.34
5590.00,1.34
5589.00,1.34
5588.00,1.35
5587.00,1.35
5586.00,1.35
5585.00,1.35
5584.00,1.35
5583.00,1.36
5582.00,1.36
5581.00,1.36
5580.00,1.36
5579.00,1.36
5578.00,1.37
5577.00,1.37
5576.00,1.37
5575.00,1.37
5574.00,1.38
5573.00,1.38
5572.00,1.38
5571.00,1.38
5570.00,1.38
5569.00,1.38
5568.00,1.39
5567.00,1.39
5566.00,1.39
5565.00,1.39
5564.00,1.39
5563.00,1.39
5562.00,1.39
5561.00,1.40
5560.00,1.40
5559.00,1.40
5558.00,1.40
5557.00,1.40
5556.00,1.40
5555.00,1.40
5554.00,1.41
5553.00,1.41
5552.00,1.41
5551.00,1.41
5550.00,1.41
5549.00,1.41
5548.00,1.42
5547.00,1.42
5546.00,1.42
5545.00,1.42
5544.00,1.42
5543.00,1.42
5542.00,1.43
5541.00,1.43
5540.00,1.43
5539.00,1.43
5538.00,1.43
5537.00,1.43
5536.00,1.43
5535.00,1.44
5534.00,1.44
5533.00,1.44
5532.00,1.44
5531.00,1.44
5530.00,1.44
5529.00,1.44
5528.00,1.44
5527.00,1.44
5526.00,1.44
5525.00,1.45
5524.00,1.45
5523.00,1.45
5522.00,1.45
5521.00,1.45
5520.00,1.45
5519.00,1.45
5518.00,1.45
5517.00,1.45
5516.00,1.45
5515.00,1.45
5514.00,1.45
5513.00,1.46
5512.00,1.46
5511.00,1.46
5510.00,1.46
5509.00,1.46
5508.00,1.46
5507.00,1.46
5506.00,1.46
5505.00,1.46
5504.00,1.46
5503.00,1.46
5502.00,1.47
5501.00,1.47
5500.00,1.47
5499.00,1.47
5498.00,1.47
5497.00,1.47
5496.00,1.47
5495.00,1.47
5494.00,1.47
5493.00,1.48
5492.00,1.48
5491.00,1.48
5490.00,1.48
5489.00,1.48
5488.00,1.48
5487.00,1.48
5486.00,1.48
5485.00,1.49
5484.00,1.49
5483.00,1.49
5482.00,1.49
5481.00,1.49
5480.00,1.49
5479.00,1.49
5478.00,1.49
5477.00,1.50
5476.00,1.50
5475.00,1.50
5474.00,1.50
5473.00,1.50
5472.00,1.50
5471.00,1.51
5470.00,1.51
5469.00,1.51
5468.00,1.51
5467.00,1.51
5466.00,1.51
5465.00,1.51
5464.00,1.52
5463.00,1.52
5462.00,1.52
5461.00,1.52
5460.00,1.52
5459.00,1.52
5458.00,1.52
5457.00,1.53
5456.00,1.53
5455.00,1.53
5454.00,1.53
5453.00,1.53
5452.00,1.53
5451.00,1.53
5450.00,1.53
5449.00,1.53
5448.00,1.53
5447.00,1.53
5446.00,1.54
5445.00,1.54
5444.00,1.54
5443.00,1.54
5442.00,1.54
5441.00,1.54
5440.00,1.54
5439.00,1.54
5438.00,1.54
5437.00,1.54
5436.00,1.54
5435.00,1.54
5434.00,1.54
5433.00,1.54
5432.00,1.54
5431.00,1.54
5430.00,1.54
5429.00,1.54
5428.00,1.54
5427.00,1.54
5426.00,1.54
5425.00,1.54
5424.00,1.54
5423.00,1.54
5422.00,1.54
5421.00,1.54
5420.00,1.54
5419.00,1.54
5418.00,1.54
5417.00,1.54
5416.00,1.54
5415.00,1.54
5414.00,1.54
5413.00,1.54
5412.00,1.54
5411.00,1.54
5410.00,1.54
5409.00,1.54
5408.00,1.54
5407.00,1.54
5406.00,1.54
5405.00,1.54
5404.00,1.54
5403.00,1.54
5402.00,1.54
5401.00,1.54
5400.00,1.54
5399.00,1.54
5398.00,1.54
5397.00,1.54
5396.00,1.53
5395.00,1.53
5394.00,1.53
5393.00,1.53
5392.00,1.53
5391.00,1.53
5390.00,1.52
5389.00,1.52
5388.00,1.52
5387.00,1.52
5386.00,1.52
5385.00,1.51
5384.00,1.51
5383.00,1.51
5382.00,1.51
5381.00,1.50
5380.00,1.50
5379.00,1.50
5378.00,1.49
5377.00,1.49
5376.00,1.49
5375.00,1.48
5374.00,1.48
5373.00,1.47
5372.00,1.47
5371.00,1.46
5370.00,1.46
5369.00,1.45
5368.00,1.45
5367.00,1.44
5366.00,1.43
5365.00,1.43
5364.00,1.42
5363.00,1.42
5362.00,1.41
5361.00,1.40
5360.00,1.39
5359.00,1.39
5358.00,1.38
5357.00,1.37
5356.00,1.36
5355.00,1.35
5354.00,1.35
5353.00,1.34
5352.00,1.33
5351.00,1.32
5350.00,1.31
5349.00,1.30
5348.00,1.29
5347.00,1.28
5346.00,1.27
5345.00,1.26
5344.00,1.24
5343.00,1.23
5342.00,1.22
5341.00,1.21
5340.00,1.20
5339.00,1.19
5338.00,1.17
5337.00,1.16
5336.00,1.15
5335.00,1.14
5334.00,1.13
5333.00,1.11
5332.00,1.10
5331.00,1.09
5330.00,1.08
5329.00,1.06
5328.00,1.05
5327.00,1.04
5326.00,1.03
5325.00,1.02
5324.00,1.00
5323.00,0.99
5322.00,0.98
5321.00,0.97
5320.00,0.96
5319.00,0.95
5318.00,0.93
5317.00,0.92
5316.00,0.91
5315.00,0.90
5314.00,0.89
5313.00,0.88
5312.00,0.87
5311.00,0.86
5310.00,0.86
5309.00,0.85
5308.00,0.84
5307.00,0.83
5306.00,0.82
5305.00,0.82
5304.00,0.81
5303.00,0.80
5302.00,0.80
5301.00,0.79
5300.00,0.79
5299.00,0.78
5298.00,0.78
5297.00,0.77
5296.00,0.77
5295.00,0.76
5294.00,0.76
5293.00,0.76
5292.00,0.75
5291.00,0.75
5290.00,0.75
5289.00,0.74
5288.00,0.74
5287.00,0.74
5286.00,0.74
5285.00,0.73
5284.00,0.73
5283.00,0.73
5282.00,0.73
5281.00,0.73
5280.00,0.72
5279.00,0.72
5278.00,0.72
5277.00,0.72
5276.00,0.72
5275.00,0.72
5274.00,0.72
5273.00,0.72
5272.00,0.72
5271.00,0.72
5270.00,0.71
5269.00,0.71
5268.00,0.71
5267.00,0.71
5266.00,0.71
5265.00,0.71
5264.00,0.71
5263.00,0.71
5262.00,0.71
5261.00,0.71
5260.00,0.71
5259.00,0.71
5258.00,0.71
5257.00,0.71
5256.00,0.71
5255.00,0.71
5254.00,0.71
5253.00,0.71
5252.00,0.71
5251.00,0.71
5250.00,0.71
5249.00,0.71
5248.00,0.71
5247.00,0.71
5246.00,0.71
5245.00,0.71
5244.00,0.71
5243.00,0.71
5242.00,0.71
5241.00,0.71
5240.00,0.71
5239.00,0.71
5238.00,0.72
5237.00,0.72
5236.00,0.72
5235.00,0.72
5234.00,0.72
5233.00,0.72
5232.00,0.72
5231.00,0.72
5230.00,0.72
5229.00,0.72
5228.00,0.72
5227.00,0.72
5226.00,0.72
5225.00,0.72
5224.00,0.72
5223.00,0.72
5222.00,0.72
5221.00,0.72
5220.00,0.72
5219.00,0.72
5218.00,0.72
5217.00,0.72
5216.00,0.72
5215.00,0.72
5214.00,0.72
5213.00,0.72
5212.00,0.72
5211.00,0.72
5210.00,0.72
5209.00,0.72
5208.00,0.72
5207.00,0.72
5206.00,0.72
5205.00,0.72
5204.00,0.72
5203.00,0.72
5202.00,0.72
5201.00,0.72
5200.00,0.72
5199.00,0.72
5198.00,0.72
5197.00,0.72
5196.00,0.72
5195.00,0.72
5194.00,0.73
5193.00,0.73
5192.00,0.73
5191.00,0.73
5190.00,0.73
5189.00,0.73
5188.00,0.73
5187.00,0.73
5186.00,0.73
5185.00,0.73
5184.00,0.73
5183.00,0.73
5182.00,0.73
5181.00,0.73
5180.00,0.73
5179.00,0.73
5178.00,0.74
5177.00,0.74
5176.00,0.74
5175.00,0.74
5174.00,0.74
5173.00,0.74
5172.00,0.74
5171.00,0.74
5170.00,0.74
5169.00,0.74
5168.00,0.74
5167.00,0.74
5166.00,0.74
5165.00,0.74
5164.00,0.74
5163.00,0.74
5162.00,0.74
5161.00,0.74
5160.00,0.74
5159.00,0.74
5158.00,0.74
5157.00,0.74
5156.00,0.74
5155.00,0.74
5154.00,0.74
5153.00,0.74
5152.00,0.74
5151.00,0.75
5150.00,0.75
5149.00,0.75
5148.00,0.75
5147.00,0.75
5146.00,0.75
5145.00,0.75
5144.00,0.75
5143.00,0.75
5142.00,0.75
5141.00,0.75
5140.00,0.75
5139.00,0.75
5138.00,0.75
5137.00,0.75
5136.00,0.75
5135.00,0.75
5134.00,0.75
5133.00,0.75
5132.00,0.75
5131.00,0.75
5130.00,0.75
5129.00,0.75
5128.00,0.76
5127.00,0.76
5126.00,0.76
5125.00,0.76
5124.00,0.76
5123.00,0.76
5122.00,0.76
5121.00,0.76
5120.00,0.76
5119.00,0.76
5118.00,0.76
5117.00,0.77
5116.00,0.77
5115.00,0.77
5114.00,0.77
5113.00,0.77
5112.00,0.77
5111.00,0.77
5110.00,0.77
5109.00,0.77
5108.00,0.77
5107.00,0.77
5106.00,0.77
5105.00,0.77
5104.00,0.77
5103.00,0.77
5102.00,0.77
5101.00,0.78
5100.00,0.78
5099.00,0.78
5098.00,0.78
5097.00,0.78
5096.00,0.78
5095.00,0.78
5094.00,0.78
5093.00,0.78
5092.00,0.78
5091.00,0.78
5090.00,0.78
5089.00,0.78
5088.00,0.78
5087.00,0.78
5086.00,0.78
5085.00,0.78
5084.00,0.78
5083.00,0.78
5082.00,0.79
5081.00,0.79
5080.00,0.79
5079.00,0.79
5078.00,0.79
5077.00,0.79
5076.00,0.79
5075.00,0.79
5074.00,0.79
5073.00,0.79
5072.00,0.79
5071.00,0.79
5070.00,0.79
5069.00,0.80
5068.00,0.80
5067.00,0.80
5066.00,0.80
5065.00,0.80
5064.00,0.80
5063.00,0.80
5062.00,0.80
5061.00,0.80
5060.00,0.80
5059.00,0.80
5058.00,0.81
5057.00,0.81
5056.00,0.81
5055.00,0.81
5054.00,0.81
5053.00,0.81
5052.00,0.81
5051.00,0.81
5050.00,0.81
5049.00,0.81
5048.00,0.81
5047.00,0.81
5046.00,0.81
5045.00,0.81
5044.00,0.81
5043.00,0.81
5042.00,0.81
5041.00,0.81
5040.00,0.81
5039.00,0.81
5038.00,0.81
5037.00,0.81
5036.00,0.82
5035.00,0.82
5034.00,0.82
5033.00,0.82
5032.00,0.82
5031.00,0.82
5030.00,0.82
5029.00,0.82
5028.00,0.82
5027.00,0.82
5026.00,0.82
5025.00,0.83
5024.00,0.83
5023.00,0.83
5022.00,0.83
5021.00,0.83
5020.00,0.83
5019.00,0.83
5018.00,0.83
5017.00,0.83
5016.00,0.83
5015.00,0.83
5014.00,0.84
5013.00,0.84
5012.00,0.84
5011.00,0.84
5010.00,0.84
5009.00,0.84
5008.00,0.84
5007.00,0.84
5006.00,0.84
5005.00,0.84
5004.00,0.85
5003.00,0.85
5002.00,0.85
5001.00,0.85
5000.00,0.85
4999.00,0.85
4998.00,0.85
4997.00,0.85
4996.00,0.85
4995.00,0.86
4994.00,0.86
4993.00,0.86
4992.00,0.86
4991.00,0.86
4990.00,0.86
4989.00,0.86
4988.00,0.86
4987.00,0.87
4986.00,0.87
4985.00,0.87
4984.00,0.87
4983.00,0.87
4982.00,0.87
4981.00,0.87
4980.00,0.87
4979.00,0.87
4978.00,0.87
4977.00,0.87
4976.00,0.87
4975.00,0.87
4974.00,0.87
4973.00,0.87
4972.00,0.88
4971.00,0.88
4970.00,0.88
4969.00,0.88
4968.00,0.88
4967.00,0.88
4966.00,0.88
4965.00,0.88
4964.00,0.88
4963.00,0.88
4962.00,0.88
4961.00,0.89
4960.00,0.89
4959.00,0.89
4958.00,0.89
4957.00,0.89
4956.00,0.89
4955.00,0.89
4954.00,0.89
4953.00,0.89
4952.00,0.89
4951.00,0.89
4950.00,0.89
4949.00,0.89
4948.00,0.89
4947.00,0.89
4946.00,0.90
4945.00,0.90
4944.00,0.90
4943.00,0.90
4942.00,0.90
4941.00,0.90
4940.00,0.90
4939.00,0.90
4938.00,0.90
4937.00,0.90
4936.00,0.90
4935.00,0.90
4934.00,0.90
4933.00,0.90
4932.00,0.91
4931.00,0.91
4930.00,0.91
4929.00,0.91
4928.00,0.91
4927.00,0.91
4926.00,0.91
4925.00,0.91
4924.00,0.91
4923.00,0.92
4922.00,0.92
4921.00,0.92
4920.00,0.92
4919.00,0.92
4918.00,0.92
4917.00,0.92
4916.00,0.92
4915.00,0.93
4914.00,0.93
4913.00,0.93
4912.00,0.93
4911.00,0.93
4910.00,0.93
4909.00,0.93
4908.00,0.93
4907.00,0.93
4906.00,0.93
4905.00,0.93
4904.00,0.93
4903.00,0.94
4902.00,0.94
4901.00,0.94
4900.00,0.94
4899.00,0.94
4898.00,0.94
4897.00,0.94
4896.00,0.94
4895.00,0.94
4894.00,0.94
4893.00,0.94
4892.00,0.94
4891.00,0.94
4890.00,0.94
4889.00,0.94
4888.00,0.94
4887.00,0.94
4886.00,0.94
4885.00,0.94
4884.00,0.94
4883.00,0.94
4882.00,0.94
4881.00,0.94
4880.00,0.94
4879.00,0.95
4878.00,0.95
4877.00,0.95
4876.00,0.95
4875.00,0.95
4874.00,0.95
4873.00,0.95
4872.00,0.95
4871.00,0.95
4870.00,0.95
4869.00,0.95
4868.00,0.95
4867.00,0.96
4866.00,0.96
4865.00,0.96
4864.00,0.96
4863.00,0.96
4862.00,0.96
4861.00,0.96
4860.00,0.96
4859.00,0.96
4858.00,0.96
4857.00,0.96
4856.00,0.96
4855.00,0.96
4854.00,0.96
4853.00,0.96
4852.00,0.96
4851.00,0.97
4850.00,0.97
4849.00,0.97
4848.00,0.97
4847.00,0.97
4846.00,0.97
4845.00,0.97
4844.00,0.97
4843.00,0.97
4842.00,0.97
4841.00,0.98
4840.00,0.98
4839.00,0.98
4838.00,0.98
4837.00,0.98
4836.00,0.98
4835.00,0.98
4834.00,0.98
4833.00,0.99
4832.00,0.99
4831.00,0.99
4830.00,0.99
4829.00,0.99
4828.00,0.99
4827.00,0.99
4826.00,0.99
4825.00,0.99
4824.00,0.99
4823.00,0.99
4822.00,1.00
4821.00,1.00
4820.00,1.00
4819.00,1.00
4818.00,1.00
4817.00,1.00
4816.00,1.00
4815.00,1.00
4814.00,1.00
4813.00,1.00
4812.00,1.00
4811.00,1.00
4810.00,1.00
4809.00,1.00
4808.00,1.00
4807.00,1.00
4806.00,1.01
4805.00,1.01
4804.00,1.01
4803.00,1.01
4802.00,1.01
4801.00,1.01
4800.00,1.01
4799.00,1.01
4798.00,1.02
4797.00,1.02
4796.00,1.02
4795.00,1.02
4794.00,1.02
4793.00,1.02
4792.00,1.02
4791.00,1.03
4790.00,1.03
4789.00,1.03
4788.00,1.03
4787.00,1.03
4786.00,1.03
4785.00,1.04
4784.00,1.04
4783.00,1.04
4782.00,1.04
4781.00,1.04
4780.00,1.04
4779.00,1.05
4778.00,1.05
4777.00,1.05
4776.00,1.05
4775.00,1.05
4774.00,1.05
4773.00,1.05
4772.00,1.06
4771.00,1.06
4770.00,1.06
4769.00,1.06
4768.00,1.06
4767.00,1.06
4766.00,1.06
4765.00,1.06
4764.00,1.07
4763.00,1.07
4762.00,1.07
4761.00,1.07
4760.00,1.07
4759.00,1.07
4758.00,1.07
4757.00,1.08
4756.00,1.08
4755.00,1.08
4754.00,1.08
4753.00,1.08
4752.00,1.08
4751.00,1.09
4750.00,1.09
4749.00,1.09
4748.00,1.09
4747.00,1.09
4746.00,1.10
4745.00,1.10
4744.00,1.10
4743.00,1.10
4742.00,1.10
4741.00,1.10
4740.00,1.10
4739.00,1.11
4738.00,1.11
4737.00,1.11
4736.00,1.11
4735.00,1.11
4734.00,1.11
4733.00,1.11
4732.00,1.11
4731.00,1.12
4730.00,1.12
4729.00,1.12
4728.00,1.12
4727.00,1.12
4726.00,1.13
4725.00,1.13
4724.00,1.13
4723.00,1.13
4722.00,1.14
4721.00,1.14
4720.00,1.14
4719.00,1.14
4718.00,1.15
4717.00,1.15
4716.00,1.15
4715.00,1.15
4714.00,1.16
4713.00,1.16
4712.00,1.16
4711.00,1.16
4710.00,1.16
4709.00,1.17
4708.00,1.17
4707.00,1.17
4706.00,1.17
4705.00,1.17
4704.00,1.17
4703.00,1.18
4702.00,1.18
4701.00,1.18
4700.00,1.18
4699.00,1.18
4698.00,1.18
4697.00,1.19
4696.00,1.19
4695.00,1.19
4694.00,1.19
4693.00,1.19
4692.00,1.19
4691.00,1.20
4690.00,1.20
4689.00,1.20
4688.00,1.20
4687.00,1.20
4686.00,1.21
4685.00,1.21
4684.00,1.21
4683.00,1.21
4682.00,1.21
4681.00,1.21
4680.00,1.22
4679.00,1.22
4678.00,1.22
4677.00,1.22
4676.00,1.22
4675.00,1.23
4674.00,1.23
4673.00,1.23
4672.00,1.23
4671.00,1.23
4670.00,1.23
4669.00,1.24
4668.00,1.24
4667.00,1.24
4666.00,1.24
4665.00,1.24
4664.00,1.24
4663.00,1.24
4662.00,1.24
4661.00,1.24
4660.00,1.24
4659.00,1.24
4658.00,1.24
4657.00,1.24
4656.00,1.24
4655.00,1.25
4654.00,1.25
4653.00,1.25
4652.00,1.25
4651.00,1.25
4650.00,1.25
4649.00,1.25
4648.00,1.26
4647.00,1.26
4646.00,1.26
4645.00,1.26
4644.00,1.27
4643.00,1.27
4642.00,1.27
4641.00,1.27
4640.00,1.28
4639.00,1.28
4638.00,1.28
4637.00,1.28
4636.00,1.28
4635.00,1.29
4634.00,1.29
4633.00,1.29
4632.00,1.29
4631.00,1.29
4630.00,1.29
4629.00,1.29
4628.00,1.30
4627.00,1.30
4626.00,1.30
4625.00,1.30
4624.00,1.30
4623.00,1.30
4622.00,1.30
4621.00,1.31
4620.00,1.31
4619.00,1.31
4618.00,1.31
4617.00,1.31
4616.00,1.32
4615.00,1.32
4614.00,1.32
4613.00,1.32
4612.00,1.32
4611.00,1.33
4610.00,1.33
4609.00,1.33
4608.00,1.33
4607.00,1.33
4606.00,1.33
4605.00,1.34
4604.00,1.34
4603.00,1.34
4602.00,1.34
4601.00,1.34
4600.00,1.34
4599.00,1.34
4598.00,1.34
4597.00,1.34
4596.00,1.34
4595.00,1.34
4594.00,1.34
4593.00,1.34
4592.00,1.34
4591.00,1.34
4590.00,1.34
4589.00,1.34
4588.00,1.34
4587.00,1.34
4586.00,1.35
4585.00,1.35
4584.00,1.35
4583.00,1.35
4582.00,1.35
4581.00,1.35
4580.00,1.35
4579.00,1.35
4578.00,1.35
4577.00,1.35
4576.00,1.36
4575.00,1.36
4574.00,1.36
4573.00,1.36
4572.00,1.36
4571.00,1.36
4570.00,1.36
4569.00,1.36
4568.00,1.37
4567.00,1.37
4566.00,1.37
4565.00,1.37
4564.00,1.37
4563.00,1.37
4562.00,1.38
4561.00,1.38
4560.00,1.38
4559.00,1.38
4558.00,1.38
4557.00,1.38
4556.00,1.39
4555.00,1.39
4554.00,1.39
4553.00,1.39
4552.00,1.39
4551.00,1.39
4550.00,1.39
4549.00,1.39
4548.00,1.40
4547.00,1.40
4546.00,1.40
4545.00,1.40
4544.00,1.40
4543.00,1.40
4542.00,1.40
4541.00,1.40
4540.00,1.40
4539.00,1.40
4538.00,1.40
4537.00,1.40
4536.00,1.40
4535.00,1.40
4534.00,1.40
4533.00,1.40
4532.00,1.40
4531.00,1.41
4530.00,1.41
4529.00,1.41
4528.00,1.41
4527.00,1.41
4526.00,1.41
4525.00,1.41
4524.00,1.41
4523.00,1.41
4522.00,1.41
4521.00,1.41
4520.00,1.41
4519.00,1.41
4518.00,1.42
4517.00,1.42
4516.00,1.42
4515.00,1.42
4514.00,1.42
4513.00,1.42
4512.00,1.42
4511.00,1.42
4510.00,1.42
4509.00,1.42
4508.00,1.42
4507.00,1.41
4506.00,1.41
4505.00,1.41
4504.00,1.41
4503.00,1.41
4502.00,1.41
4501.00,1.41
4500.00,1.41
4499.00,1.41
4498.00,1.41
4497.00,1.41
4496.00,1.40
4495.00,1.40
4494.00,1.40
4493.00,1.40
4492.00,1.40
4491.00,1.39
4490.00,1.39
4489.00,1.39
4488.00,1.39
4487.00,1.39
4486.00,1.38
4485.00,1.38
4484.00,1.38
4483.00,1.38
4482.00,1.37
4481.00,1.37
4480.00,1.37
4479.00,1.37
4478.00,1.37
4477.00,1.36
4476.00,1.36
4475.00,1.36
4474.00,1.36
4473.00,1.36
4472.00,1.35
4471.00,1.35
4470.00,1.35
4469.00,1.35
4468.00,1.35
4467.00,1.34
4466.00,1.34
4465.00,1.34
4464.00,1.34
4463.00,1.33
4462.00,1.33
4461.00,1.33
4460.00,1.32
4459.00,1.32
4458.00,1.31
4457.00,1.31
4456.00,1.31
4455.00,1.30
4454.00,1.30
4453.00,1.29
4452.00,1.29
4451.00,1.28
4450.00,1.28
4449.00,1.28
4448.00,1.27
4447.00,1.27
4446.00,1.26
4445.00,1.26
4444.00,1.26
4443.00,1.25
4442.00,1.25
4441.00,1.25
4440.00,1.24
4439.00,1.24
4438.00,1.23
4437.00,1.23
4436.00,1.23
4435.00,1.22
4434.00,1.22
4433.00,1.22
4432.00,1.22
4431.00,1.21
4430.00,1.21
4429.00,1.21
4428.00,1.20
4427.00,1.20
4426.00,1.20
4425.00,1.20
4424.00,1.20
4423.00,1.20
4422.00,1.20
4421.00,1.20
4420.00,1.19
4419.00,1.19
4418.00,1.19
4417.00,1.19
4416.00,1.20
4415.00,1.20
4414.00,1.20
4413.00,1.20
4412.00,1.20
4411.00,1.20
4410.00,1.20
4409.00,1.20
4408.00,1.20
4407.00,1.20
4406.00,1.20
4405.00,1.20
4404.00,1.20
4403.00,1.20
4402.00,1.20
4401.00,1.21
4400.00,1.21
4399.00,1.21
4398.00,1.21
4397.00,1.21
4396.00,1.21
4395.00,1.21
4394.00,1.21
4393.00,1.21
4392.00,1.21
4391.00,1.21
4390.00,1.21
4389.00,1.22
4388.00,1.22
4387.00,1.22
4386.00,1.22
4385.00,1.22
4384.00,1.22
4383.00,1.22
4382.00,1.22
4381.00,1.22
4380.00,1.22
4379.00,1.22
4378.00,1.23
4377.00,1.23
4376.00,1.23
4375.00,1.23
4374.00,1.23
4373.00,1.23
4372.00,1.23
4371.00,1.23
4370.00,1.23
4369.00,1.23
4368.00,1.23
4367.00,1.23
4366.00,1.23
4365.00,1.23
4364.00,1.23
4363.00,1.24
4362.00,1.24
4361.00,1.24
4360.00,1.24
4359.00,1.24
4358.00,1.24
4357.00,1.24
4356.00,1.24
4355.00,1.24
4354.00,1.24
4353.00,1.24
4352.00,1.24
4351.00,1.24
4350.00,1.24
4349.00,1.24
4348.00,1.24
4347.00,1.24
4346.00,1.24
4345.00,1.24
4344.00,1.24
4343.00,1.24
4342.00,1.24
4341.00,1.24
4340.00,1.24
4339.00,1.24
4338.00,1.24
4337.00,1.24
4336.00,1.24
4335.00,1.24
4334.00,1.24
4333.00,1.24
4332.00,1.24
4331.00,1.24
4330.00,1.25
4329.00,1.25
4328.00,1.25
4327.00,1.25
4326.00,1.25
4325.00,1.25
4324.00,1.26
4323.00,1.26
4322.00,1.26
4321.00,1.26
4320.00,1.26
4319.00,1.26
4318.00,1.27
4317.00,1.27
4316.00,1.27
4315.00,1.27
4314.00,1.27
4313.00,1.27
4312.00,1.28
4311.00,1.28
4310.00,1.28
4309.00,1.28
4308.00,1.28
4307.00,1.29
4306.00,1.29
4305.00,1.29
4304.00,1.29
4303.00,1.30
4302.00,1.30
4301.00,1.30
4300.00,1.30
4299.00,1.30
4298.00,1.30
4297.00,1.31
4296.00,1.31
4295.00,1.31
4294.00,1.31
4293.00,1.31
4292.00,1.31
4291.00,1.31
4290.00,1.32
4289.00,1.32
4288.00,1.32
4287.00,1.32
4286.00,1.32
4285.00,1.32
4284.00,1.32
4283.00,1.32
4282.00,1.32
4281.00,1.32
4280.00,1.32
4279.00,1.32
4278.00,1.32
4277.00,1.33
4276.00,1.33
4275.00,1.33
4274.00,1.33
4273.00,1.33
4272.00,1.33
4271.00,1.33
4270.00,1.33
4269.00,1.33
4268.00,1.34
4267.00,1.34
4266.00,1.34
4265.00,1.34
4264.00,1.34
4263.00,1.34
4262.00,1.34
4261.00,1.34
4260.00,1.34
4259.00,1.34
4258.00,1.34
4257.00,1.34
4256.00,1.34
4255.00,1.34
4254.00,1.34
4253.00,1.34
4252.00,1.34
4251.00,1.34
4250.00,1.34
4249.00,1.34
4248.00,1.34
4247.00,1.34
4246.00,1.34
4245.00,1.34
4244.00,1.35
4243.00,1.35
4242.00,1.35
4241.00,1.35
4240.00,1.35
4239.00,1.35
4238.00,1.35
4237.00,1.36
4236.00,1.36
4235.00,1.36
4234.00,1.36
4233.00,1.36
4232.00,1.36
4231.00,1.37
4230.00,1.37
4229.00,1.37
4228.00,1.37
4227.00,1.37
4226.00,1.37
4225.00,1.38
4224.00,1.38
4223.00,1.38
4222.00,1.38
4221.00,1.38
4220.00,1.38
4219.00,1.38
4218.00,1.38
4217.00,1.38
4216.00,1.38
4215.00,1.38
4214.00,1.38
4213.00,1.38
4212.00,1.38
4211.00,1.38
4210.00,1.38
4209.00,1.38
4208.00,1.38
4207.00,1.38
4206.00,1.38
4205.00,1.38
4204.00,1.38
4203.00,1.38
4202.00,1.38
4201.00,1.38
4200.00,1.38
4199.00,1.39
4198.00,1.39
4197.00,1.39
4196.00,1.39
4195.00,1.40
4194.00,1.40
4193.00,1.40
4192.00,1.40
4191.00,1.40
4190.00,1.40
4189.00,1.40
4188.00,1.41
4187.00,1.41
4186.00,1.41
4185.00,1.41
4184.00,1.41
4183.00,1.41
4182.00,1.41
4181.00,1.41
4180.00,1.40
4179.00,1.40
4178.00,1.40
4177.00,1.40
4176.00,1.40
4175.00,1.41
4174.00,1.41
4173.00,1.41
4172.00,1.41
4171.00,1.41
4170.00,1.41
4169.00,1.41
4168.00,1.41
4167.00,1.41
4166.00,1.41
4165.00,1.41
4164.00,1.41
4163.00,1.41
4162.00,1.41
4161.00,1.41
4160.00,1.41
4159.00,1.41
4158.00,1.41
4157.00,1.41
4156.00,1.41
4155.00,1.41
4154.00,1.41
4153.00,1.41
4152.00,1.41
4151.00,1.42
4150.00,1.42
4149.00,1.42
4148.00,1.42
4147.00,1.42
4146.00,1.42
4145.00,1.43
4144.00,1.43
4143.00,1.43
4142.00,1.43
4141.00,1.43
4140.00,1.44
4139.00,1.44
4138.00,1.44
4137.00,1.44
4136.00,1.44
4135.00,1.44
4134.00,1.44
4133.00,1.44
4132.00,1.44
4131.00,1.44
4130.00,1.44
4129.00,1.44
4128.00,1.44
4127.00,1.44
4126.00,1.44
4125.00,1.44
4124.00,1.44
4123.00,1.44
4122.00,1.44
4121.00,1.44
4120.00,1.44
4119.00,1.44
4118.00,1.44
4117.00,1.44
4116.00,1.44
4115.00,1.44
4114.00,1.45
4113.00,1.45
4112.00,1.45
4111.00,1.45
4110.00,1.45
4109.00,1.45
4108.00,1.45
4107.00,1.45
4106.00,1.45
4105.00,1.45
4104.00,1.46
4103.00,1.46
4102.00,1.46
4101.00,1.46
4100.00,1.46
4099.00,1.46
4098.00,1.46
4097.00,1.46
4096.00,1.46
4095.00,1.46
4094.00,1.46
4093.00,1.47
4092.00,1.47
4091.00,1.47
4090.00,1.47
4089.00,1.47
4088.00,1.47
4087.00,1.47
4086.00,1.47
4085.00,1.47
4084.00,1.47
4083.00,1.47
4082.00,1.47
4081.00,1.47
4080.00,1.47
4079.00,1.47
4078.00,1.47
4077.00,1.47
4076.00,1.47
4075.00,1.47
4074.00,1.47
4073.00,1.47
4072.00,1.47
4071.00,1.47
4070.00,1.47
4069.00,1.47
4068.00,1.48
4067.00,1.48
4066.00,1.48
4065.00,1.48
4064.00,1.48
4063.00,1.48
4062.00,1.48
4061.00,1.48
4060.00,1.48
4059.00,1.48
4058.00,1.48
4057.00,1.48
4056.00,1.48
4055.00,1.48
4054.00,1.48
4053.00,1.48
4052.00,1.48
4051.00,1.48
4050.00,1.48
4049.00,1.48
4048.00,1.48
4047.00,1.48
4046.00,1.48
4045.00,1.49
4044.00,1.49
4043.00,1.49
4042.00,1.49
4041.00,1.49
4040.00,1.49
4039.00,1.49
4038.00,1.50
4037.00,1.50
4036.00,1.50
4035.00,1.50
4034.00,1.50
4033.00,1.50
4032.00,1.50
4031.00,1.50
4030.00,1.50
4029.00,1.50
4028.00,1.49
4027.00,1.49
4026.00,1.49
4025.00,1.49
4024.00,1.49
4023.00,1.49
4022.00,1.50
4021.00,1.50
4020.00,1.50
4019.00,1.50
4018.00,1.50
4017.00,1.50
4016.00,1.51
4015.00,1.51
4014.00,1.51
4013.00,1.51
4012.00,1.52
4011.00,1.52
4010.00,1.52
4009.00,1.52
4008.00,1.53
4007.00,1.53
4006.00,1.53
4005.00,1.53
4004.00,1.54
4003.00,1.54
4002.00,1.54
4001.00,1.54
4000.00,1.54
