创建为新数据集,样品 034 用户 Administrator 日期 星期三, 十一月 01 2017
cm-1,%T
10000.00,1.34
9999.00,1.34
9998.00,1.34
9997.00,1.34
9996.00,1.34
9995.00,1.34
9994.00,1.34
9993.00,1.34
9992.00,1.34
9991.00,1.34
9990.00,1.34
9989.00,1.34
9988.00,1.34
9987.00,1.34
9986.00,1.34
9985.00,1.34
9984.00,1.34
9983.00,1.34
9982.00,1.33
9981.00,1.33
9980.00,1.33
9979.00,1.33
9978.00,1.33
9977.00,1.33
9976.00,1.33
9975.00,1.33
9974.00,1.33
9973.00,1.33
9972.00,1.33
9971.00,1.33
9970.00,1.33
9969.00,1.33
9968.00,1.33
9967.00,1.33
9966.00,1.33
9965.00,1.33
9964.00,1.33
9963.00,1.33
9962.00,1.33
9961.00,1.33
9960.00,1.33
9959.00,1.33
9958.00,1.33
9957.00,1.33
9956.00,1.32
9955.00,1.32
9954.00,1.32
9953.00,1.32
9952.00,1.32
9951.00,1.32
9950.00,1.32
9949.00,1.32
9948.00,1.32
9947.00,1.32
9946.00,1.32
9945.00,1.32
9944.00,1.32
9943.00,1.32
9942.00,1.33
9941.00,1.33
9940.00,1.33
9939.00,1.33
9938.00,1.33
9937.00,1.33
9936.00,1.33
9935.00,1.33
9934.00,1.33
9933.00,1.33
9932.00,1.33
9931.00,1.32
9930.00,1.32
9929.00,1.32
9928.00,1.32
9927.00,1.32
9926.00,1.32
9925.00,1.32
9924.00,1.32
9923.00,1.31
9922.00,1.31
9921.00,1.31
9920.00,1.31
9919.00,1.31
9918.00,1.31
9917.00,1.31
9916.00,1.31
9915.00,1.32
9914.00,1.32
9913.00,1.32
9912.00,1.32
9911.00,1.32
9910.00,1.32
9909.00,1.32
9908.00,1.32
9907.00,1.33
9906.00,1.33
9905.00,1.33
9904.00,1.33
9903.00,1.33
9902.00,1.33
9901.00,1.33
9900.00,1.33
9899.00,1.33
9898.00,1.33
9897.00,1.33
9896.00,1.33
9895.00,1.33
9894.00,1.33
9893.00,1.33
9892.00,1.33
9891.00,1.33
9890.00,1.33
9889.00,1.33
9888.00,1.33
9887.00,1.33
9886.00,1.33
9885.00,1.32
9884.00,1.32
9883.00,1.32
9882.00,1.32
9881.00,1.32
9880.00,1.32
9879.00,1.31
9878.00,1.31
9877.00,1.31
9876.00,1.31
9875.00,1.31
9874.00,1.31
9873.00,1.31
9872.00,1.31
9871.00,1.31
9870.00,1.31
9869.00,1.31
9868.00,1.32
9867.00,1.32
9866.00,1.32
9865.00,1.32
9864.00,1.32
9863.00,1.32
9862.00,1.32
9861.00,1.32
9860.00,1.32
9859.00,1.32
9858.00,1.32
9857.00,1.32
9856.00,1.32
9855.00,1.32
9854.00,1.32
9853.00,1.31
9852.00,1.31
9851.00,1.31
9850.00,1.31
9849.00,1.31
9848.00,1.31
9847.00,1.31
9846.00,1.31
9845.00,1.31
9844.00,1.31
9843.00,1.31
9842.00,1.32
9841.00,1.32
9840.00,1.32
9839.00,1.32
9838.00,1.32
9837.00,1.33
9836.00,1.33
9835.00,1.33
9834.00,1.33
9833.00,1.33
9832.00,1.33
9831.00,1.33
9830.00,1.33
9829.00,1.34
9828.00,1.34
9827.00,1.34
9826.00,1.33
9825.00,1.33
9824.00,1.33
9823.00,1.33
9822.00,1.33
9821.00,1.33
9820.00,1.33
9819.00,1.33
9818.00,1.32
9817.00,1.32
9816.00,1.32
9815.00,1.32
9814.00,1.32
9813.00,1.31
9812.00,1.31
9811.00,1.31
9810.00,1.31
9809.00,1.31
9808.00,1.31
9807.00,1.31
9806.00,1.31
9805.00,1.31
9804.00,1.31
9803.00,1.31
9802.00,1.32
9801.00,1.32
9800.00,1.32
9799.00,1.32
9798.00,1.32
9797.00,1.33
9796.00,1.33
9795.00,1.33
9794.00,1.33
9793.00,1.33
9792.00,1.33
9791.00,1.33
9790.00,1.33
9789.00,1.33
9788.00,1.33
9787.00,1.33
9786.00,1.33
9785.00,1.33
9784.00,1.32
9783.00,1.32
9782.00,1.32
9781.00,1.32
9780.00,1.32
9779.00,1.32
9778.00,1.32
9777.00,1.31
9776.00,1.31
9775.00,1.31
9774.00,1.31
9773.00,1.31
9772.00,1.31
9771.00,1.31
9770.00,1.31
9769.00,1.30
9768.00,1.30
9767.00,1.30
9766.00,1.30
9765.00,1.30
9764.00,1.30
9763.00,1.31
9762.00,1.31
9761.00,1.31
9760.00,1.31
9759.00,1.31
9758.00,1.31
9757.00,1.32
9756.00,1.32
9755.00,1.32
9754.00,1.32
9753.00,1.33
9752.00,1.33
9751.00,1.33
9750.00,1.33
9749.00,1.34
9748.00,1.34
9747.00,1.34
9746.00,1.34
9745.00,1.34
9744.00,1.34
9743.00,1.34
9742.00,1.34
9741.00,1.34
9740.00,1.34
9739.00,1.34
9738.00,1.34
9737.00,1.34
9736.00,1.33
9735.00,1.33
9734.00,1.33
9733.00,1.33
9732.00,1.33
9731.00,1.32
9730.00,1.32
9729.00,1.32
9728.00,1.32
9727.00,1.32
9726.00,1.32
9725.00,1.32
9724.00,1.32
9723.00,1.32
9722.00,1.32
9721.00,1.32
9720.00,1.32
9719.00,1.32
9718.00,1.33
9717.00,1.33
9716.00,1.33
9715.00,1.33
9714.00,1.32
9713.00,1.32
9712.00,1.32
9711.00,1.32
9710.00,1.32
9709.00,1.32
9708.00,1.31
9707.00,1.31
9706.00,1.31
9705.00,1.30
9704.00,1.30
9703.00,1.30
9702.00,1.30
9701.00,1.30
9700.00,1.29
9699.00,1.29
9698.00,1.29
9697.00,1.29
9696.00,1.29
9695.00,1.29
9694.00,1.30
9693.00,1.30
9692.00,1.30
9691.00,1.30
9690.00,1.30
9689.00,1.30
9688.00,1.30
9687.00,1.30
9686.00,1.30
9685.00,1.30
9684.00,1.30
9683.00,1.30
9682.00,1.30
9681.00,1.30
9680.00,1.29
9679.00,1.29
9678.00,1.29
9677.00,1.29
9676.00,1.29
9675.00,1.28
9674.00,1.28
9673.00,1.28
9672.00,1.28
9671.00,1.28
9670.00,1.28
9669.00,1.28
9668.00,1.28
9667.00,1.28
9666.00,1.28
9665.00,1.29
9664.00,1.29
9663.00,1.29
9662.00,1.29
9661.00,1.29
9660.00,1.30
9659.00,1.30
9658.00,1.30
9657.00,1.30
9656.00,1.30
9655.00,1.30
9654.00,1.30
9653.00,1.30
9652.00,1.30
9651.00,1.30
9650.00,1.30
9649.00,1.30
9648.00,1.29
9647.00,1.29
9646.00,1.29
9645.00,1.29
9644.00,1.29
9643.00,1.29
9642.00,1.29
9641.00,1.29
9640.00,1.29
9639.00,1.30
9638.00,1.30
9637.00,1.30
9636.00,1.30
9635.00,1.31
9634.00,1.31
9633.00,1.31
9632.00,1.31
9631.00,1.32
9630.00,1.32
9629.00,1.32
9628.00,1.32
9627.00,1.32
9626.00,1.32
9625.00,1.32
9624.00,1.32
9623.00,1.32
9622.00,1.32
9621.00,1.32
9620.00,1.32
9619.00,1.32
9618.00,1.32
9617.00,1.32
9616.00,1.32
9615.00,1.32
9614.00,1.32
9613.00,1.33
9612.00,1.33
9611.00,1.33
9610.00,1.33
9609.00,1.33
9608.00,1.33
9607.00,1.34
9606.00,1.34
9605.00,1.34
9604.00,1.34
9603.00,1.34
9602.00,1.34
9601.00,1.34
9600.00,1.34
9599.00,1.34
9598.00,1.34
9597.00,1.34
9596.00,1.34
9595.00,1.34
9594.00,1.34
9593.00,1.34
9592.00,1.34
9591.00,1.33
9590.00,1.33
9589.00,1.33
9588.00,1.33
9587.00,1.33
9586.00,1.33
9585.00,1.33
9584.00,1.33
9583.00,1.33
9582.00,1.33
9581.00,1.33
9580.00,1.33
9579.00,1.33
9578.00,1.33
9577.00,1.33
9576.00,1.33
9575.00,1.33
9574.00,1.33
9573.00,1.33
9572.00,1.32
9571.00,1.32
9570.00,1.32
9569.00,1.32
9568.00,1.32
9567.00,1.32
9566.00,1.32
9565.00,1.32
9564.00,1.32
9563.00,1.32
9562.00,1.32
9561.00,1.32
9560.00,1.32
9559.00,1.32
9558.00,1.32
9557.00,1.32
9556.00,1.32
9555.00,1.32
9554.00,1.32
9553.00,1.32
9552.00,1.32
9551.00,1.32
9550.00,1.32
9549.00,1.32
9548.00,1.31
9547.00,1.31
9546.00,1.32
9545.00,1.32
9544.00,1.32
9543.00,1.32
9542.00,1.32
9541.00,1.32
9540.00,1.32
9539.00,1.32
9538.00,1.32
9537.00,1.32
9536.00,1.32
9535.00,1.32
9534.00,1.32
9533.00,1.32
9532.00,1.32
9531.00,1.32
9530.00,1.32
9529.00,1.31
9528.00,1.31
9527.00,1.31
9526.00,1.31
9525.00,1.31
9524.00,1.31
9523.00,1.31
9522.00,1.31
9521.00,1.31
9520.00,1.31
9519.00,1.31
9518.00,1.31
9517.00,1.31
9516.00,1.31
9515.00,1.31
9514.00,1.31
9513.00,1.31
9512.00,1.31
9511.00,1.32
9510.00,1.32
9509.00,1.32
9508.00,1.32
9507.00,1.32
9506.00,1.32
9505.00,1.32
9504.00,1.32
9503.00,1.32
9502.00,1.33
9501.00,1.33
9500.00,1.33
9499.00,1.33
9498.00,1.33
9497.00,1.33
9496.00,1.33
9495.00,1.33
9494.00,1.32
9493.00,1.32
9492.00,1.32
9491.00,1.32
9490.00,1.32
9489.00,1.32
9488.00,1.32
9487.00,1.32
9486.00,1.32
9485.00,1.32
9484.00,1.32
9483.00,1.32
9482.00,1.32
9481.00,1.32
9480.00,1.32
9479.00,1.33
9478.00,1.33
9477.00,1.33
9476.00,1.33
9475.00,1.33
9474.00,1.33
9473.00,1.33
9472.00,1.33
9471.00,1.33
9470.00,1.33
9469.00,1.33
9468.00,1.33
9467.00,1.33
9466.00,1.33
9465.00,1.33
9464.00,1.33
9463.00,1.33
9462.00,1.33
9461.00,1.33
9460.00,1.33
9459.00,1.33
9458.00,1.33
9457.00,1.33
9456.00,1.33
9455.00,1.33
9454.00,1.33
9453.00,1.33
9452.00,1.33
9451.00,1.33
9450.00,1.33
9449.00,1.33
9448.00,1.33
9447.00,1.32
9446.00,1.32
9445.00,1.32
9444.00,1.32
9443.00,1.32
9442.00,1.32
9441.00,1.32
9440.00,1.32
9439.00,1.32
9438.00,1.32
9437.00,1.32
9436.00,1.33
9435.00,1.33
9434.00,1.33
9433.00,1.33
9432.00,1.33
9431.00,1.33
9430.00,1.33
9429.00,1.33
9428.00,1.33
9427.00,1.33
9426.00,1.33
9425.00,1.33
9424.00,1.33
9423.00,1.33
9422.00,1.33
9421.00,1.33
9420.00,1.33
9419.00,1.33
9418.00,1.33
9417.00,1.33
9416.00,1.33
9415.00,1.33
9414.00,1.33
9413.00,1.34
9412.00,1.34
9411.00,1.34
9410.00,1.34
9409.00,1.34
9408.00,1.34
9407.00,1.34
9406.00,1.34
9405.00,1.34
9404.00,1.34
9403.00,1.34
9402.00,1.34
9401.00,1.34
9400.00,1.33
9399.00,1.33
9398.00,1.33
9397.00,1.33
9396.00,1.33
9395.00,1.32
9394.00,1.32
9393.00,1.32
9392.00,1.32
9391.00,1.32
9390.00,1.31
9389.00,1.31
9388.00,1.31
9387.00,1.31
9386.00,1.31
9385.00,1.31
9384.00,1.31
9383.00,1.31
9382.00,1.31
9381.00,1.31
9380.00,1.31
9379.00,1.31
9378.00,1.31
9377.00,1.31
9376.00,1.31
9375.00,1.31
9374.00,1.31
9373.00,1.31
9372.00,1.31
9371.00,1.32
9370.00,1.32
9369.00,1.32
9368.00,1.32
9367.00,1.32
9366.00,1.32
9365.00,1.32
9364.00,1.32
9363.00,1.32
9362.00,1.32
9361.00,1.32
9360.00,1.32
9359.00,1.32
9358.00,1.32
9357.00,1.32
9356.00,1.32
9355.00,1.32
9354.00,1.32
9353.00,1.32
9352.00,1.32
9351.00,1.32
9350.00,1.32
9349.00,1.32
9348.00,1.32
9347.00,1.32
9346.00,1.32
9345.00,1.32
9344.00,1.32
9343.00,1.32
9342.00,1.32
9341.00,1.32
9340.00,1.32
9339.00,1.33
9338.00,1.33
9337.00,1.33
9336.00,1.33
9335.00,1.33
9334.00,1.33
9333.00,1.33
9332.00,1.33
9331.00,1.33
9330.00,1.33
9329.00,1.33
9328.00,1.33
9327.00,1.33
9326.00,1.33
9325.00,1.33
9324.00,1.33
9323.00,1.33
9322.00,1.33
9321.00,1.33
9320.00,1.33
9319.00,1.33
9318.00,1.33
9317.00,1.33
9316.00,1.33
9315.00,1.33
9314.00,1.33
9313.00,1.34
9312.00,1.34
9311.00,1.34
9310.00,1.34
9309.00,1.34
9308.00,1.34
9307.00,1.34
9306.00,1.34
9305.00,1.34
9304.00,1.34
9303.00,1.34
9302.00,1.34
9301.00,1.34
9300.00,1.34
9299.00,1.34
9298.00,1.34
9297.00,1.34
9296.00,1.34
9295.00,1.34
9294.00,1.34
9293.00,1.33
9292.00,1.33
9291.00,1.33
9290.00,1.33
9289.00,1.33
9288.00,1.33
9287.00,1.33
9286.00,1.33
9285.00,1.33
9284.00,1.33
9283.00,1.33
9282.00,1.33
9281.00,1.33
9280.00,1.33
9279.00,1.33
9278.00,1.33
9277.00,1.33
9276.00,1.33
9275.00,1.33
9274.00,1.33
9273.00,1.33
9272.00,1.33
9271.00,1.33
9270.00,1.33
9269.00,1.33
9268.00,1.33
9267.00,1.33
9266.00,1.33
9265.00,1.33
9264.00,1.33
9263.00,1.33
9262.00,1.33
9261.00,1.33
9260.00,1.33
9259.00,1.33
9258.00,1.33
9257.00,1.33
9256.00,1.33
9255.00,1.33
9254.00,1.33
9253.00,1.33
9252.00,1.33
9251.00,1.33
9250.00,1.33
9249.00,1.33
9248.00,1.34
9247.00,1.34
9246.00,1.34
9245.00,1.34
9244.00,1.34
9243.00,1.34
9242.00,1.34
9241.00,1.34
9240.00,1.34
9239.00,1.34
9238.00,1.34
9237.00,1.34
9236.00,1.34
9235.00,1.34
9234.00,1.34
9233.00,1.34
9232.00,1.34
9231.00,1.34
9230.00,1.34
9229.00,1.34
9228.00,1.34
9227.00,1.34
9226.00,1.34
9225.00,1.34
9224.00,1.34
9223.00,1.34
9222.00,1.33
9221.00,1.33
9220.00,1.33
9219.00,1.33
9218.00,1.33
9217.00,1.33
9216.00,1.33
9215.00,1.33
9214.00,1.33
9213.00,1.33
9212.00,1.33
9211.00,1.33
9210.00,1.33
9209.00,1.33
9208.00,1.33
9207.00,1.33
9206.00,1.33
9205.00,1.33
9204.00,1.33
9203.00,1.33
9202.00,1.33
9201.00,1.33
9200.00,1.33
9199.00,1.33
9198.00,1.33
9197.00,1.33
9196.00,1.33
9195.00,1.33
9194.00,1.33
9193.00,1.33
9192.00,1.33
9191.00,1.33
9190.00,1.33
9189.00,1.33
9188.00,1.33
9187.00,1.32
9186.00,1.32
9185.00,1.32
9184.00,1.32
9183.00,1.32
9182.00,1.32
9181.00,1.32
9180.00,1.32
9179.00,1.32
9178.00,1.32
9177.00,1.32
9176.00,1.32
9175.00,1.32
9174.00,1.32
9173.00,1.32
9172.00,1.32
9171.00,1.32
9170.00,1.32
9169.00,1.32
9168.00,1.32
9167.00,1.32
9166.00,1.32
9165.00,1.32
9164.00,1.32
9163.00,1.32
9162.00,1.32
9161.00,1.32
9160.00,1.32
9159.00,1.32
9158.00,1.32
9157.00,1.32
9156.00,1.32
9155.00,1.32
9154.00,1.32
9153.00,1.32
9152.00,1.32
9151.00,1.32
9150.00,1.32
9149.00,1.32
9148.00,1.32
9147.00,1.32
9146.00,1.32
9145.00,1.32
9144.00,1.32
9143.00,1.32
9142.00,1.32
9141.00,1.31
9140.00,1.31
9139.00,1.31
9138.00,1.31
9137.00,1.31
9136.00,1.31
9135.00,1.31
9134.00,1.31
9133.00,1.31
9132.00,1.31
9131.00,1.31
9130.00,1.31
9129.00,1.31
9128.00,1.31
9127.00,1.31
9126.00,1.31
9125.00,1.31
9124.00,1.32
9123.00,1.32
9122.00,1.32
9121.00,1.32
9120.00,1.32
9119.00,1.32
9118.00,1.33
9117.00,1.33
9116.00,1.33
9115.00,1.33
9114.00,1.33
9113.00,1.33
9112.00,1.34
9111.00,1.34
9110.00,1.34
9109.00,1.34
9108.00,1.34
9107.00,1.34
9106.00,1.34
9105.00,1.34
9104.00,1.34
9103.00,1.34
9102.00,1.34
9101.00,1.34
9100.00,1.34
9099.00,1.34
9098.00,1.34
9097.00,1.34
9096.00,1.34
9095.00,1.34
9094.00,1.34
9093.00,1.34
9092.00,1.34
9091.00,1.34
9090.00,1.34
9089.00,1.34
9088.00,1.34
9087.00,1.33
9086.00,1.33
9085.00,1.33
9084.00,1.33
9083.00,1.33
9082.00,1.33
9081.00,1.33
9080.00,1.33
9079.00,1.33
9078.00,1.33
9077.00,1.33
9076.00,1.33
9075.00,1.33
9074.00,1.33
9073.00,1.33
9072.00,1.33
9071.00,1.33
9070.00,1.33
9069.00,1.33
9068.00,1.33
9067.00,1.33
9066.00,1.33
9065.00,1.33
9064.00,1.33
9063.00,1.33
9062.00,1.33
9061.00,1.33
9060.00,1.33
9059.00,1.33
9058.00,1.33
9057.00,1.33
9056.00,1.33
9055.00,1.33
9054.00,1.33
9053.00,1.33
9052.00,1.33
9051.00,1.33
9050.00,1.33
9049.00,1.33
9048.00,1.33
9047.00,1.33
9046.00,1.33
9045.00,1.33
9044.00,1.33
9043.00,1.33
9042.00,1.33
9041.00,1.32
9040.00,1.32
9039.00,1.32
9038.00,1.33
9037.00,1.33
9036.00,1.33
9035.00,1.33
9034.00,1.33
9033.00,1.33
9032.00,1.33
9031.00,1.33
9030.00,1.33
9029.00,1.33
9028.00,1.33
9027.00,1.33
9026.00,1.33
9025.00,1.33
9024.00,1.33
9023.00,1.33
9022.00,1.33
9021.00,1.33
9020.00,1.33
9019.00,1.33
9018.00,1.33
9017.00,1.33
9016.00,1.33
9015.00,1.34
9014.00,1.34
9013.00,1.34
9012.00,1.34
9011.00,1.34
9010.00,1.34
9009.00,1.34
9008.00,1.34
9007.00,1.34
9006.00,1.34
9005.00,1.34
9004.00,1.34
9003.00,1.34
9002.00,1.34
9001.00,1.34
9000.00,1.34
8999.00,1.33
8998.00,1.33
8997.00,1.33
8996.00,1.33
8995.00,1.33
8994.00,1.32
8993.00,1.32
8992.00,1.32
8991.00,1.32
8990.00,1.32
8989.00,1.32
8988.00,1.31
8987.00,1.31
8986.00,1.31
8985.00,1.31
8984.00,1.31
8983.00,1.31
8982.00,1.31
8981.00,1.32
8980.00,1.32
8979.00,1.32
8978.00,1.32
8977.00,1.32
8976.00,1.32
8975.00,1.32
8974.00,1.33
8973.00,1.33
8972.00,1.33
8971.00,1.33
8970.00,1.33
8969.00,1.33
8968.00,1.33
8967.00,1.33
8966.00,1.33
8965.00,1.33
8964.00,1.33
8963.00,1.33
8962.00,1.33
8961.00,1.33
8960.00,1.33
8959.00,1.33
8958.00,1.33
8957.00,1.33
8956.00,1.33
8955.00,1.33
8954.00,1.33
8953.00,1.33
8952.00,1.32
8951.00,1.32
8950.00,1.32
8949.00,1.32
8948.00,1.32
8947.00,1.32
8946.00,1.32
8945.00,1.32
8944.00,1.32
8943.00,1.32
8942.00,1.32
8941.00,1.32
8940.00,1.33
8939.00,1.33
8938.00,1.33
8937.00,1.33
8936.00,1.33
8935.00,1.33
8934.00,1.33
8933.00,1.33
8932.00,1.33
8931.00,1.33
8930.00,1.33
8929.00,1.33
8928.00,1.33
8927.00,1.33
8926.00,1.33
8925.00,1.33
8924.00,1.33
8923.00,1.33
8922.00,1.33
8921.00,1.33
8920.00,1.33
8919.00,1.33
8918.00,1.33
8917.00,1.33
8916.00,1.33
8915.00,1.33
8914.00,1.33
8913.00,1.33
8912.00,1.33
8911.00,1.34
8910.00,1.34
8909.00,1.34
8908.00,1.34
8907.00,1.34
8906.00,1.34
8905.00,1.34
8904.00,1.34
8903.00,1.34
8902.00,1.34
8901.00,1.34
8900.00,1.34
8899.00,1.34
8898.00,1.34
8897.00,1.34
8896.00,1.34
8895.00,1.34
8894.00,1.34
8893.00,1.34
8892.00,1.34
8891.00,1.34
8890.00,1.34
8889.00,1.34
8888.00,1.34
8887.00,1.34
8886.00,1.34
8885.00,1.33
8884.00,1.33
8883.00,1.33
8882.00,1.32
8881.00,1.32
8880.00,1.32
8879.00,1.32
8878.00,1.31
8877.00,1.31
8876.00,1.31
8875.00,1.31
8874.00,1.30
8873.00,1.30
8872.00,1.30
8871.00,1.30
8870.00,1.30
8869.00,1.30
8868.00,1.30
8867.00,1.30
8866.00,1.30
8865.00,1.30
8864.00,1.30
8863.00,1.30
8862.00,1.30
8861.00,1.30
8860.00,1.30
8859.00,1.30
8858.00,1.31
8857.00,1.31
8856.00,1.31
8855.00,1.31
8854.00,1.31
8853.00,1.31
8852.00,1.31
8851.00,1.31
8850.00,1.31
8849.00,1.31
8848.00,1.31
8847.00,1.31
8846.00,1.31
8845.00,1.31
8844.00,1.31
8843.00,1.31
8842.00,1.31
8841.00,1.32
8840.00,1.32
8839.00,1.32
8838.00,1.32
8837.00,1.32
8836.00,1.32
8835.00,1.32
8834.00,1.32
8833.00,1.32
8832.00,1.32
8831.00,1.32
8830.00,1.32
8829.00,1.32
8828.00,1.32
8827.00,1.32
8826.00,1.32
8825.00,1.32
8824.00,1.32
8823.00,1.32
8822.00,1.32
8821.00,1.32
8820.00,1.32
8819.00,1.32
8818.00,1.32
8817.00,1.32
8816.00,1.32
8815.00,1.32
8814.00,1.32
8813.00,1.32
8812.00,1.32
8811.00,1.31
8810.00,1.31
8809.00,1.31
8808.00,1.31
8807.00,1.31
8806.00,1.31
8805.00,1.31
8804.00,1.31
8803.00,1.31
8802.00,1.31
8801.00,1.31
8800.00,1.31
8799.00,1.31
8798.00,1.31
8797.00,1.31
8796.00,1.30
8795.00,1.30
8794.00,1.30
8793.00,1.30
8792.00,1.30
8791.00,1.30
8790.00,1.30
8789.00,1.30
8788.00,1.30
8787.00,1.30
8786.00,1.30
8785.00,1.30
8784.00,1.30
8783.00,1.30
8782.00,1.30
8781.00,1.30
8780.00,1.30
8779.00,1.30
8778.00,1.30
8777.00,1.30
8776.00,1.30
8775.00,1.30
8774.00,1.30
8773.00,1.30
8772.00,1.30
8771.00,1.30
8770.00,1.30
8769.00,1.30
8768.00,1.30
8767.00,1.30
8766.00,1.30
8765.00,1.30
8764.00,1.30
8763.00,1.30
8762.00,1.30
8761.00,1.30
8760.00,1.29
8759.00,1.29
8758.00,1.29
8757.00,1.29
8756.00,1.29
8755.00,1.29
8754.00,1.29
8753.00,1.29
8752.00,1.29
8751.00,1.28
8750.00,1.28
8749.00,1.28
8748.00,1.28
8747.00,1.28
8746.00,1.28
8745.00,1.28
8744.00,1.28
8743.00,1.28
8742.00,1.28
8741.00,1.28
8740.00,1.28
8739.00,1.28
8738.00,1.28
8737.00,1.28
8736.00,1.28
8735.00,1.28
8734.00,1.28
8733.00,1.28
8732.00,1.28
8731.00,1.28
8730.00,1.28
8729.00,1.28
8728.00,1.28
8727.00,1.28
8726.00,1.28
8725.00,1.28
8724.00,1.28
8723.00,1.28
8722.00,1.28
8721.00,1.28
8720.00,1.28
8719.00,1.28
8718.00,1.28
8717.00,1.28
8716.00,1.28
8715.00,1.28
8714.00,1.28
8713.00,1.28
8712.00,1.28
8711.00,1.28
8710.00,1.29
8709.00,1.29
8708.00,1.29
8707.00,1.29
8706.00,1.29
8705.00,1.29
8704.00,1.29
8703.00,1.29
8702.00,1.29
8701.00,1.29
8700.00,1.29
8699.00,1.29
8698.00,1.29
8697.00,1.29
8696.00,1.29
8695.00,1.28
8694.00,1.28
8693.00,1.28
8692.00,1.28
8691.00,1.28
8690.00,1.28
8689.00,1.28
8688.00,1.28
8687.00,1.28
8686.00,1.28
8685.00,1.28
8684.00,1.28
8683.00,1.28
8682.00,1.28
8681.00,1.28
8680.00,1.28
8679.00,1.28
8678.00,1.28
8677.00,1.28
8676.00,1.28
8675.00,1.28
8674.00,1.28
8673.00,1.28
8672.00,1.28
8671.00,1.28
8670.00,1.28
8669.00,1.28
8668.00,1.28
8667.00,1.28
8666.00,1.28
8665.00,1.28
8664.00,1.28
8663.00,1.28
8662.00,1.28
8661.00,1.28
8660.00,1.28
8659.00,1.28
8658.00,1.28
8657.00,1.28
8656.00,1.28
8655.00,1.28
8654.00,1.28
8653.00,1.28
8652.00,1.28
8651.00,1.28
8650.00,1.27
8649.00,1.27
8648.00,1.27
8647.00,1.27
8646.00,1.27
8645.00,1.27
8644.00,1.27
8643.00,1.28
8642.00,1.28
8641.00,1.28
8640.00,1.28
8639.00,1.28
8638.00,1.28
8637.00,1.28
8636.00,1.28
8635.00,1.28
8634.00,1.28
8633.00,1.28
8632.00,1.28
8631.00,1.28
8630.00,1.28
8629.00,1.28
8628.00,1.28
8627.00,1.28
8626.00,1.28
8625.00,1.28
8624.00,1.27
8623.00,1.27
8622.00,1.27
8621.00,1.27
8620.00,1.27
8619.00,1.27
8618.00,1.27
8617.00,1.27
8616.00,1.27
8615.00,1.26
8614.00,1.26
8613.00,1.26
8612.00,1.26
8611.00,1.26
8610.00,1.26
8609.00,1.26
8608.00,1.26
8607.00,1.26
8606.00,1.26
8605.00,1.26
8604.00,1.26
8603.00,1.26
8602.00,1.26
8601.00,1.26
8600.00,1.26
8599.00,1.25
8598.00,1.25
8597.00,1.25
8596.00,1.25
8595.00,1.25
8594.00,1.25
8593.00,1.25
8592.00,1.24
8591.00,1.24
8590.00,1.24
8589.00,1.24
8588.00,1.24
8587.00,1.24
8586.00,1.24
8585.00,1.24
8584.00,1.24
8583.00,1.24
8582.00,1.24
8581.00,1.24
8580.00,1.24
8579.00,1.24
8578.00,1.24
8577.00,1.24
8576.00,1.24
8575.00,1.24
8574.00,1.24
8573.00,1.24
8572.00,1.24
8571.00,1.24
8570.00,1.24
8569.00,1.24
8568.00,1.24
8567.00,1.24
8566.00,1.24
8565.00,1.24
8564.00,1.24
8563.00,1.24
8562.00,1.24
8561.00,1.25
8560.00,1.25
8559.00,1.25
8558.00,1.25
8557.00,1.25
8556.00,1.25
8555.00,1.25
8554.00,1.25
8553.00,1.25
8552.00,1.25
8551.00,1.25
8550.00,1.25
8549.00,1.25
8548.00,1.25
8547.00,1.25
8546.00,1.25
8545.00,1.25
8544.00,1.25
8543.00,1.24
8542.00,1.24
8541.00,1.24
8540.00,1.24
8539.00,1.24
8538.00,1.24
8537.00,1.24
8536.00,1.23
8535.00,1.23
8534.00,1.23
8533.00,1.23
8532.00,1.23
8531.00,1.23
8530.00,1.23
8529.00,1.23
8528.00,1.23
8527.00,1.23
8526.00,1.23
8525.00,1.23
8524.00,1.23
8523.00,1.23
8522.00,1.23
8521.00,1.23
8520.00,1.23
8519.00,1.23
8518.00,1.23
8517.00,1.23
8516.00,1.23
8515.00,1.23
8514.00,1.23
8513.00,1.23
8512.00,1.23
8511.00,1.23
8510.00,1.23
8509.00,1.22
8508.00,1.22
8507.00,1.22
8506.00,1.22
8505.00,1.22
8504.00,1.22
8503.00,1.22
8502.00,1.22
8501.00,1.21
8500.00,1.21
8499.00,1.21
8498.00,1.21
8497.00,1.21
8496.00,1.21
8495.00,1.21
8494.00,1.21
8493.00,1.21
8492.00,1.21
8491.00,1.21
8490.00,1.21
8489.00,1.21
8488.00,1.21
8487.00,1.21
8486.00,1.21
8485.00,1.21
8484.00,1.21
8483.00,1.21
8482.00,1.21
8481.00,1.21
8480.00,1.21
8479.00,1.21
8478.00,1.21
8477.00,1.21
8476.00,1.21
8475.00,1.21
8474.00,1.21
8473.00,1.21
8472.00,1.21
8471.00,1.20
8470.00,1.20
8469.00,1.20
8468.00,1.20
8467.00,1.20
8466.00,1.20
8465.00,1.20
8464.00,1.20
8463.00,1.20
8462.00,1.20
8461.00,1.20
8460.00,1.20
8459.00,1.20
8458.00,1.20
8457.00,1.20
8456.00,1.20
8455.00,1.20
8454.00,1.19
8453.00,1.19
8452.00,1.19
8451.00,1.19
8450.00,1.19
8449.00,1.19
8448.00,1.19
8447.00,1.19
8446.00,1.19
8445.00,1.19
8444.00,1.19
8443.00,1.19
8442.00,1.19
8441.00,1.19
8440.00,1.19
8439.00,1.19
8438.00,1.19
8437.00,1.19
8436.00,1.19
8435.00,1.19
8434.00,1.19
8433.00,1.19
8432.00,1.19
8431.00,1.19
8430.00,1.19
8429.00,1.19
8428.00,1.19
8427.00,1.19
8426.00,1.19
8425.00,1.19
8424.00,1.19
8423.00,1.19
8422.00,1.19
8421.00,1.20
8420.00,1.20
8419.00,1.20
8418.00,1.20
8417.00,1.20
8416.00,1.20
8415.00,1.20
8414.00,1.20
8413.00,1.20
8412.00,1.20
8411.00,1.20
8410.00,1.20
8409.00,1.20
8408.00,1.20
8407.00,1.20
8406.00,1.20
8405.00,1.20
8404.00,1.20
8403.00,1.20
8402.00,1.21
8401.00,1.21
8400.00,1.21
8399.00,1.21
8398.00,1.21
8397.00,1.21
8396.00,1.21
8395.00,1.21
8394.00,1.21
8393.00,1.21
8392.00,1.22
8391.00,1.22
8390.00,1.22
8389.00,1.22
8388.00,1.22
8387.00,1.22
8386.00,1.22
8385.00,1.22
8384.00,1.22
8383.00,1.22
8382.00,1.22
8381.00,1.23
8380.00,1.23
8379.00,1.23
8378.00,1.23
8377.00,1.23
8376.00,1.23
8375.00,1.23
8374.00,1.23
8373.00,1.23
8372.00,1.23
8371.00,1.22
8370.00,1.22
8369.00,1.22
8368.00,1.22
8367.00,1.22
8366.00,1.22
8365.00,1.22
8364.00,1.22
8363.00,1.22
8362.00,1.22
8361.00,1.22
8360.00,1.22
8359.00,1.22
8358.00,1.22
8357.00,1.22
8356.00,1.22
8355.00,1.22
8354.00,1.22
8353.00,1.22
8352.00,1.22
8351.00,1.22
8350.00,1.22
8349.00,1.22
8348.00,1.22
8347.00,1.22
8346.00,1.22
8345.00,1.22
8344.00,1.22
8343.00,1.22
8342.00,1.22
8341.00,1.22
8340.00,1.22
8339.00,1.22
8338.00,1.22
8337.00,1.22
8336.00,1.22
8335.00,1.22
8334.00,1.22
8333.00,1.22
8332.00,1.22
8331.00,1.22
8330.00,1.22
8329.00,1.22
8328.00,1.23
8327.00,1.23
8326.00,1.23
8325.00,1.23
8324.00,1.23
8323.00,1.23
8322.00,1.23
8321.00,1.23
8320.00,1.23
8319.00,1.23
8318.00,1.23
8317.00,1.23
8316.00,1.23
8315.00,1.23
8314.00,1.23
8313.00,1.23
8312.00,1.23
8311.00,1.23
8310.00,1.23
8309.00,1.23
8308.00,1.23
8307.00,1.23
8306.00,1.23
8305.00,1.23
8304.00,1.23
8303.00,1.23
8302.00,1.23
8301.00,1.23
8300.00,1.23
8299.00,1.23
8298.00,1.23
8297.00,1.23
8296.00,1.23
8295.00,1.23
8294.00,1.23
8293.00,1.23
8292.00,1.23
8291.00,1.23
8290.00,1.23
8289.00,1.23
8288.00,1.23
8287.00,1.24
8286.00,1.24
8285.00,1.24
8284.00,1.24
8283.00,1.24
8282.00,1.24
8281.00,1.24
8280.00,1.24
8279.00,1.24
8278.00,1.24
8277.00,1.24
8276.00,1.24
8275.00,1.24
8274.00,1.24
8273.00,1.24
8272.00,1.24
8271.00,1.24
8270.00,1.24
8269.00,1.24
8268.00,1.24
8267.00,1.24
8266.00,1.24
8265.00,1.24
8264.00,1.24
8263.00,1.24
8262.00,1.24
8261.00,1.24
8260.00,1.24
8259.00,1.24
8258.00,1.24
8257.00,1.24
8256.00,1.24
8255.00,1.24
8254.00,1.24
8253.00,1.24
8252.00,1.24
8251.00,1.24
8250.00,1.24
8249.00,1.24
8248.00,1.24
8247.00,1.24
8246.00,1.24
8245.00,1.24
8244.00,1.24
8243.00,1.24
8242.00,1.24
8241.00,1.24
8240.00,1.24
8239.00,1.24
8238.00,1.24
8237.00,1.24
8236.00,1.24
8235.00,1.24
8234.00,1.24
8233.00,1.24
8232.00,1.24
8231.00,1.24
8230.00,1.24
8229.00,1.24
8228.00,1.24
8227.00,1.24
8226.00,1.24
8225.00,1.24
8224.00,1.25
8223.00,1.25
8222.00,1.25
8221.00,1.25
8220.00,1.25
8219.00,1.26
8218.00,1.26
8217.00,1.26
8216.00,1.26
8215.00,1.26
8214.00,1.26
8213.00,1.27
8212.00,1.27
8211.00,1.27
8210.00,1.27
8209.00,1.27
8208.00,1.27
8207.00,1.27
8206.00,1.27
8205.00,1.27
8204.00,1.27
8203.00,1.27
8202.00,1.27
8201.00,1.27
8200.00,1.27
8199.00,1.27
8198.00,1.27
8197.00,1.27
8196.00,1.27
8195.00,1.27
8194.00,1.27
8193.00,1.27
8192.00,1.27
8191.00,1.27
8190.00,1.27
8189.00,1.27
8188.00,1.27
8187.00,1.27
8186.00,1.27
8185.00,1.27
8184.00,1.27
8183.00,1.27
8182.00,1.27
8181.00,1.27
8180.00,1.27
8179.00,1.27
8178.00,1.27
8177.00,1.27
8176.00,1.27
8175.00,1.27
8174.00,1.28
8173.00,1.28
8172.00,1.28
8171.00,1.28
8170.00,1.28
8169.00,1.28
8168.00,1.28
8167.00,1.28
8166.00,1.28
8165.00,1.28
8164.00,1.28
8163.00,1.28
8162.00,1.28
8161.00,1.28
8160.00,1.28
8159.00,1.28
8158.00,1.28
8157.00,1.28
8156.00,1.28
8155.00,1.28
8154.00,1.28
8153.00,1.28
8152.00,1.28
8151.00,1.28
8150.00,1.28
8149.00,1.28
8148.00,1.28
8147.00,1.28
8146.00,1.28
8145.00,1.28
8144.00,1.28
8143.00,1.28
8142.00,1.28
8141.00,1.28
8140.00,1.28
8139.00,1.28
8138.00,1.28
8137.00,1.28
8136.00,1.27
8135.00,1.27
8134.00,1.27
8133.00,1.27
8132.00,1.27
8131.00,1.27
8130.00,1.27
8129.00,1.27
8128.00,1.27
8127.00,1.27
8126.00,1.27
8125.00,1.27
8124.00,1.27
8123.00,1.27
8122.00,1.27
8121.00,1.27
8120.00,1.27
8119.00,1.27
8118.00,1.27
8117.00,1.27
8116.00,1.27
8115.00,1.27
8114.00,1.27
8113.00,1.27
8112.00,1.27
8111.00,1.27
8110.00,1.27
8109.00,1.27
8108.00,1.27
8107.00,1.27
8106.00,1.27
8105.00,1.27
8104.00,1.28
8103.00,1.28
8102.00,1.28
8101.00,1.28
8100.00,1.28
8099.00,1.28
8098.00,1.28
8097.00,1.29
8096.00,1.29
8095.00,1.29
8094.00,1.29
8093.00,1.29
8092.00,1.29
8091.00,1.29
8090.00,1.30
8089.00,1.30
8088.00,1.30
8087.00,1.30
8086.00,1.30
8085.00,1.30
8084.00,1.30
8083.00,1.29
8082.00,1.29
8081.00,1.29
8080.00,1.29
8079.00,1.29
8078.00,1.29
8077.00,1.29
8076.00,1.29
8075.00,1.29
8074.00,1.29
8073.00,1.29
8072.00,1.29
8071.00,1.29
8070.00,1.29
8069.00,1.29
8068.00,1.29
8067.00,1.29
8066.00,1.30
8065.00,1.30
8064.00,1.30
8063.00,1.30
8062.00,1.30
8061.00,1.30
8060.00,1.30
8059.00,1.30
8058.00,1.30
8057.00,1.31
8056.00,1.31
8055.00,1.31
8054.00,1.31
8053.00,1.31
8052.00,1.31
8051.00,1.31
8050.00,1.31
8049.00,1.31
8048.00,1.31
8047.00,1.31
8046.00,1.31
8045.00,1.31
8044.00,1.31
8043.00,1.31
8042.00,1.31
8041.00,1.31
8040.00,1.31
8039.00,1.31
8038.00,1.31
8037.00,1.31
8036.00,1.31
8035.00,1.31
8034.00,1.31
8033.00,1.31
8032.00,1.31
8031.00,1.31
8030.00,1.31
8029.00,1.31
8028.00,1.31
8027.00,1.31
8026.00,1.31
8025.00,1.31
8024.00,1.31
8023.00,1.31
8022.00,1.31
8021.00,1.31
8020.00,1.31
8019.00,1.31
8018.00,1.31
8017.00,1.32
8016.00,1.32
8015.00,1.32
8014.00,1.32
8013.00,1.32
8012.00,1.32
8011.00,1.32
8010.00,1.32
8009.00,1.32
8008.00,1.32
8007.00,1.32
8006.00,1.32
8005.00,1.32
8004.00,1.32
8003.00,1.32
8002.00,1.32
8001.00,1.32
8000.00,1.32
7999.00,1.32
7998.00,1.32
7997.00,1.32
7996.00,1.32
7995.00,1.32
7994.00,1.32
7993.00,1.32
7992.00,1.32
7991.00,1.32
7990.00,1.32
7989.00,1.32
7988.00,1.32
7987.00,1.32
7986.00,1.32
7985.00,1.32
7984.00,1.32
7983.00,1.32
7982.00,1.31
7981.00,1.31
7980.00,1.31
7979.00,1.31
7978.00,1.31
7977.00,1.31
7976.00,1.31
7975.00,1.31
7974.00,1.31
7973.00,1.31
7972.00,1.31
7971.00,1.31
7970.00,1.31
7969.00,1.31
7968.00,1.31
7967.00,1.31
7966.00,1.31
7965.00,1.31
7964.00,1.31
7963.00,1.31
7962.00,1.31
7961.00,1.31
7960.00,1.31
7959.00,1.31
7958.00,1.31
7957.00,1.31
7956.00,1.31
7955.00,1.32
7954.00,1.32
7953.00,1.32
7952.00,1.32
7951.00,1.32
7950.00,1.32
7949.00,1.32
7948.00,1.32
7947.00,1.32
7946.00,1.32
7945.00,1.32
7944.00,1.32
7943.00,1.32
7942.00,1.32
7941.00,1.32
7940.00,1.32
7939.00,1.32
7938.00,1.32
7937.00,1.32
7936.00,1.32
7935.00,1.32
7934.00,1.32
7933.00,1.32
7932.00,1.32
7931.00,1.32
7930.00,1.32
7929.00,1.32
7928.00,1.32
7927.00,1.32
7926.00,1.32
7925.00,1.32
7924.00,1.32
7923.00,1.32
7922.00,1.32
7921.00,1.32
7920.00,1.32
7919.00,1.32
7918.00,1.32
7917.00,1.32
7916.00,1.32
7915.00,1.32
7914.00,1.32
7913.00,1.32
7912.00,1.32
7911.00,1.32
7910.00,1.32
7909.00,1.32
7908.00,1.32
7907.00,1.32
7906.00,1.32
7905.00,1.32
7904.00,1.32
7903.00,1.32
7902.00,1.32
7901.00,1.32
7900.00,1.32
7899.00,1.32
7898.00,1.32
7897.00,1.32
7896.00,1.32
7895.00,1.32
7894.00,1.32
7893.00,1.32
7892.00,1.32
7891.00,1.32
7890.00,1.32
7889.00,1.32
7888.00,1.32
7887.00,1.32
7886.00,1.32
7885.00,1.32
7884.00,1.32
7883.00,1.32
7882.00,1.32
7881.00,1.32
7880.00,1.32
7879.00,1.32
7878.00,1.32
7877.00,1.32
7876.00,1.32
7875.00,1.32
7874.00,1.32
7873.00,1.32
7872.00,1.32
7871.00,1.32
7870.00,1.32
7869.00,1.32
7868.00,1.32
7867.00,1.32
7866.00,1.32
7865.00,1.32
7864.00,1.32
7863.00,1.32
7862.00,1.32
7861.00,1.32
7860.00,1.32
7859.00,1.33
7858.00,1.33
7857.00,1.33
7856.00,1.33
7855.00,1.33
7854.00,1.33
7853.00,1.33
7852.00,1.33
7851.00,1.33
7850.00,1.33
7849.00,1.33
7848.00,1.33
7847.00,1.33
7846.00,1.33
7845.00,1.33
7844.00,1.34
7843.00,1.34
7842.00,1.34
7841.00,1.34
7840.00,1.34
7839.00,1.34
7838.00,1.34
7837.00,1.34
7836.00,1.34
7835.00,1.34
7834.00,1.34
7833.00,1.34
7832.00,1.34
7831.00,1.34
7830.00,1.34
7829.00,1.34
7828.00,1.34
7827.00,1.34
7826.00,1.34
7825.00,1.34
7824.00,1.34
7823.00,1.34
7822.00,1.33
7821.00,1.33
7820.00,1.33
7819.00,1.33
7818.00,1.33
7817.00,1.33
7816.00,1.33
7815.00,1.33
7814.00,1.33
7813.00,1.33
7812.00,1.33
7811.00,1.33
7810.00,1.33
7809.00,1.33
7808.00,1.34
7807.00,1.34
7806.00,1.34
7805.00,1.34
7804.00,1.34
7803.00,1.34
7802.00,1.34
7801.00,1.34
7800.00,1.34
7799.00,1.34
7798.00,1.34
7797.00,1.34
7796.00,1.34
7795.00,1.34
7794.00,1.34
7793.00,1.34
7792.00,1.34
7791.00,1.34
7790.00,1.33
7789.00,1.33
7788.00,1.33
7787.00,1.33
7786.00,1.33
7785.00,1.33
7784.00,1.33
7783.00,1.33
7782.00,1.33
7781.00,1.33
7780.00,1.33
7779.00,1.33
7778.00,1.33
7777.00,1.33
7776.00,1.33
7775.00,1.33
7774.00,1.33
7773.00,1.33
7772.00,1.33
7771.00,1.33
7770.00,1.33
7769.00,1.33
7768.00,1.33
7767.00,1.33
7766.00,1.33
7765.00,1.33
7764.00,1.33
7763.00,1.33
7762.00,1.33
7761.00,1.33
7760.00,1.33
7759.00,1.33
7758.00,1.34
7757.00,1.34
7756.00,1.34
7755.00,1.34
7754.00,1.34
7753.00,1.34
7752.00,1.34
7751.00,1.34
7750.00,1.34
7749.00,1.34
7748.00,1.34
7747.00,1.34
7746.00,1.34
7745.00,1.34
7744.00,1.34
7743.00,1.34
7742.00,1.34
7741.00,1.34
7740.00,1.34
7739.00,1.34
7738.00,1.34
7737.00,1.34
7736.00,1.34
7735.00,1.34
7734.00,1.34
7733.00,1.34
7732.00,1.34
7731.00,1.34
7730.00,1.34
7729.00,1.34
7728.00,1.34
7727.00,1.34
7726.00,1.34
7725.00,1.34
7724.00,1.34
7723.00,1.34
7722.00,1.34
7721.00,1.34
7720.00,1.34
7719.00,1.34
7718.00,1.34
7717.00,1.34
7716.00,1.34
7715.00,1.34
7714.00,1.33
7713.00,1.33
7712.00,1.33
7711.00,1.33
7710.00,1.33
7709.00,1.33
7708.00,1.34
7707.00,1.34
7706.00,1.34
7705.00,1.34
7704.00,1.34
7703.00,1.34
7702.00,1.34
7701.00,1.34
7700.00,1.34
7699.00,1.34
7698.00,1.34
7697.00,1.34
7696.00,1.34
7695.00,1.34
7694.00,1.34
7693.00,1.34
7692.00,1.34
7691.00,1.34
7690.00,1.34
7689.00,1.34
7688.00,1.34
7687.00,1.34
7686.00,1.34
7685.00,1.34
7684.00,1.34
7683.00,1.34
7682.00,1.34
7681.00,1.34
7680.00,1.34
7679.00,1.34
7678.00,1.34
7677.00,1.34
7676.00,1.34
7675.00,1.34
7674.00,1.34
7673.00,1.34
7672.00,1.34
7671.00,1.34
7670.00,1.34
7669.00,1.34
7668.00,1.34
7667.00,1.34
7666.00,1.34
7665.00,1.34
7664.00,1.34
7663.00,1.34
7662.00,1.34
7661.00,1.34
7660.00,1.34
7659.00,1.34
7658.00,1.34
7657.00,1.34
7656.00,1.34
7655.00,1.34
7654.00,1.34
7653.00,1.34
7652.00,1.34
7651.00,1.34
7650.00,1.34
7649.00,1.34
7648.00,1.34
7647.00,1.34
7646.00,1.34
7645.00,1.34
7644.00,1.34
7643.00,1.34
7642.00,1.34
7641.00,1.34
7640.00,1.34
7639.00,1.34
7638.00,1.34
7637.00,1.34
7636.00,1.34
7635.00,1.34
7634.00,1.34
7633.00,1.34
7632.00,1.34
7631.00,1.34
7630.00,1.34
7629.00,1.34
7628.00,1.34
7627.00,1.34
7626.00,1.34
7625.00,1.34
7624.00,1.34
7623.00,1.34
7622.00,1.34
7621.00,1.34
7620.00,1.34
7619.00,1.34
7618.00,1.34
7617.00,1.34
7616.00,1.34
7615.00,1.34
7614.00,1.34
7613.00,1.34
7612.00,1.34
7611.00,1.34
7610.00,1.34
7609.00,1.34
7608.00,1.34
7607.00,1.34
7606.00,1.34
7605.00,1.34
7604.00,1.34
7603.00,1.34
7602.00,1.34
7601.00,1.34
7600.00,1.34
7599.00,1.34
7598.00,1.34
7597.00,1.34
7596.00,1.34
7595.00,1.34
7594.00,1.34
7593.00,1.34
7592.00,1.34
7591.00,1.34
7590.00,1.34
7589.00,1.34
7588.00,1.34
7587.00,1.34
7586.00,1.34
7585.00,1.34
7584.00,1.34
7583.00,1.34
7582.00,1.34
7581.00,1.34
7580.00,1.34
7579.00,1.34
7578.00,1.34
7577.00,1.34
7576.00,1.34
7575.00,1.34
7574.00,1.34
7573.00,1.34
7572.00,1.34
7571.00,1.34
7570.00,1.34
7569.00,1.34
7568.00,1.33
7567.00,1.33
7566.00,1.33
7565.00,1.33
7564.00,1.33
7563.00,1.33
7562.00,1.33
7561.00,1.33
7560.00,1.33
7559.00,1.33
7558.00,1.33
7557.00,1.33
7556.00,1.33
7555.00,1.33
7554.00,1.34
7553.00,1.34
7552.00,1.34
7551.00,1.34
7550.00,1.34
7549.00,1.34
7548.00,1.34
7547.00,1.34
7546.00,1.34
7545.00,1.33
7544.00,1.33
7543.00,1.33
7542.00,1.33
7541.00,1.33
7540.00,1.33
7539.00,1.33
7538.00,1.33
7537.00,1.33
7536.00,1.33
7535.00,1.34
7534.00,1.34
7533.00,1.34
7532.00,1.34
7531.00,1.34
7530.00,1.34
7529.00,1.34
7528.00,1.34
7527.00,1.34
7526.00,1.34
7525.00,1.34
7524.00,1.34
7523.00,1.34
7522.00,1.34
7521.00,1.34
7520.00,1.34
7519.00,1.33
7518.00,1.33
7517.00,1.33
7516.00,1.33
7515.00,1.33
7514.00,1.33
7513.00,1.33
7512.00,1.33
7511.00,1.33
7510.00,1.33
7509.00,1.33
7508.00,1.33
7507.00,1.33
7506.00,1.33
7505.00,1.33
7504.00,1.33
7503.00,1.32
7502.00,1.32
7501.00,1.32
7500.00,1.32
7499.00,1.32
7498.00,1.32
7497.00,1.32
7496.00,1.32
7495.00,1.32
7494.00,1.32
7493.00,1.32
7492.00,1.32
7491.00,1.32
7490.00,1.32
7489.00,1.31
7488.00,1.31
7487.00,1.31
7486.00,1.31
7485.00,1.31
7484.00,1.31
7483.00,1.31
7482.00,1.31
7481.00,1.31
7480.00,1.31
7479.00,1.31
7478.00,1.31
7477.00,1.31
7476.00,1.31
7475.00,1.31
7474.00,1.31
7473.00,1.30
7472.00,1.30
7471.00,1.30
7470.00,1.30
7469.00,1.30
7468.00,1.30
7467.00,1.30
7466.00,1.30
7465.00,1.30
7464.00,1.30
7463.00,1.30
7462.00,1.30
7461.00,1.30
7460.00,1.30
7459.00,1.30
7458.00,1.30
7457.00,1.30
7456.00,1.30
7455.00,1.30
7454.00,1.30
7453.00,1.30
7452.00,1.30
7451.00,1.30
7450.00,1.30
7449.00,1.30
7448.00,1.30
7447.00,1.30
7446.00,1.30
7445.00,1.30
7444.00,1.30
7443.00,1.30
7442.00,1.30
7441.00,1.30
7440.00,1.30
7439.00,1.30
7438.00,1.30
7437.00,1.30
7436.00,1.30
7435.00,1.30
7434.00,1.30
7433.00,1.30
7432.00,1.30
7431.00,1.30
7430.00,1.30
7429.00,1.29
7428.00,1.29
7427.00,1.29
7426.00,1.29
7425.00,1.29
7424.00,1.29
7423.00,1.29
7422.00,1.29
7421.00,1.29
7420.00,1.28
7419.00,1.28
7418.00,1.28
7417.00,1.28
7416.00,1.28
7415.00,1.28
7414.00,1.28
7413.00,1.28
7412.00,1.28
7411.00,1.28
7410.00,1.28
7409.00,1.28
7408.00,1.28
7407.00,1.27
7406.00,1.27
7405.00,1.27
7404.00,1.27
7403.00,1.27
7402.00,1.27
7401.00,1.27
7400.00,1.27
7399.00,1.27
7398.00,1.26
7397.00,1.26
7396.00,1.26
7395.00,1.26
7394.00,1.26
7393.00,1.26
7392.00,1.26
7391.00,1.25
7390.00,1.25
7389.00,1.25
7388.00,1.25
7387.00,1.25
7386.00,1.25
7385.00,1.25
7384.00,1.25
7383.00,1.25
7382.00,1.25
7381.00,1.25
7380.00,1.25
7379.00,1.25
7378.00,1.24
7377.00,1.24
7376.00,1.24
7375.00,1.24
7374.00,1.24
7373.00,1.24
7372.00,1.24
7371.00,1.24
7370.00,1.24
7369.00,1.24
7368.00,1.24
7367.00,1.24
7366.00,1.24
7365.00,1.24
7364.00,1.24
7363.00,1.24
7362.00,1.24
7361.00,1.24
7360.00,1.24
7359.00,1.24
7358.00,1.24
7357.00,1.24
7356.00,1.24
7355.00,1.24
7354.00,1.24
7353.00,1.24
7352.00,1.24
7351.00,1.24
7350.00,1.24
7349.00,1.24
7348.00,1.24
7347.00,1.24
7346.00,1.24
7345.00,1.24
7344.00,1.24
7343.00,1.24
7342.00,1.24
7341.00,1.24
7340.00,1.24
7339.00,1.24
7338.00,1.23
7337.00,1.23
7336.00,1.23
7335.00,1.23
7334.00,1.23
7333.00,1.23
7332.00,1.23
7331.00,1.23
7330.00,1.23
7329.00,1.23
7328.00,1.23
7327.00,1.23
7326.00,1.23
7325.00,1.23
7324.00,1.23
7323.00,1.23
7322.00,1.23
7321.00,1.23
7320.00,1.23
7319.00,1.23
7318.00,1.23
7317.00,1.23
7316.00,1.23
7315.00,1.23
7314.00,1.23
7313.00,1.23
7312.00,1.23
7311.00,1.23
7310.00,1.23
7309.00,1.22
7308.00,1.22
7307.00,1.22
7306.00,1.22
7305.00,1.22
7304.00,1.22
7303.00,1.22
7302.00,1.22
7301.00,1.22
7300.00,1.21
7299.00,1.21
7298.00,1.21
7297.00,1.21
7296.00,1.21
7295.00,1.21
7294.00,1.21
7293.00,1.21
7292.00,1.21
7291.00,1.21
7290.00,1.21
7289.00,1.21
7288.00,1.21
7287.00,1.20
7286.00,1.20
7285.00,1.20
7284.00,1.20
7283.00,1.20
7282.00,1.20
7281.00,1.20
7280.00,1.20
7279.00,1.20
7278.00,1.20
7277.00,1.19
7276.00,1.19
7275.00,1.19
7274.00,1.19
7273.00,1.19
7272.00,1.19
7271.00,1.19
7270.00,1.19
7269.00,1.19
7268.00,1.19
7267.00,1.18
7266.00,1.18
7265.00,1.18
7264.00,1.18
7263.00,1.18
7262.00,1.18
7261.00,1.18
7260.00,1.18
7259.00,1.18
7258.00,1.18
7257.00,1.18
7256.00,1.18
7255.00,1.17
7254.00,1.17
7253.00,1.17
7252.00,1.17
7251.00,1.17
7250.00,1.16
7249.00,1.16
7248.00,1.16
7247.00,1.16
7246.00,1.16
7245.00,1.15
7244.00,1.15
7243.00,1.15
7242.00,1.15
7241.00,1.14
7240.00,1.14
7239.00,1.14
7238.00,1.14
7237.00,1.13
7236.00,1.13
7235.00,1.13
7234.00,1.13
7233.00,1.12
7232.00,1.12
7231.00,1.12
7230.00,1.11
7229.00,1.11
7228.00,1.11
7227.00,1.10
7226.00,1.10
7225.00,1.10
7224.00,1.09
7223.00,1.09
7222.00,1.09
7221.00,1.08
7220.00,1.08
7219.00,1.08
7218.00,1.08
7217.00,1.07
7216.00,1.07
7215.00,1.07
7214.00,1.06
7213.00,1.06
7212.00,1.06
7211.00,1.06
7210.00,1.06
7209.00,1.05
7208.00,1.05
7207.00,1.05
7206.00,1.05
7205.00,1.04
7204.00,1.04
7203.00,1.04
7202.00,1.04
7201.00,1.04
7200.00,1.03
7199.00,1.03
7198.00,1.03
7197.00,1.02
7196.00,1.02
7195.00,1.02
7194.00,1.02
7193.00,1.01
7192.00,1.01
7191.00,1.00
7190.00,1.00
7189.00,1.00
7188.00,0.99
7187.00,0.99
7186.00,0.99
7185.00,0.98
7184.00,0.98
7183.00,0.98
7182.00,0.97
7181.00,0.97
7180.00,0.97
7179.00,0.97
7178.00,0.96
7177.00,0.96
7176.00,0.96
7175.00,0.96
7174.00,0.95
7173.00,0.95
7172.00,0.95
7171.00,0.95
7170.00,0.95
7169.00,0.94
7168.00,0.94
7167.00,0.94
7166.00,0.94
7165.00,0.94
7164.00,0.93
7163.00,0.93
7162.00,0.93
7161.00,0.93
7160.00,0.92
7159.00,0.92
7158.00,0.92
7157.00,0.92
7156.00,0.92
7155.00,0.91
7154.00,0.91
7153.00,0.91
7152.00,0.91
7151.00,0.90
7150.00,0.90
7149.00,0.90
7148.00,0.90
7147.00,0.90
7146.00,0.89
7145.00,0.89
7144.00,0.89
7143.00,0.88
7142.00,0.88
7141.00,0.88
7140.00,0.88
7139.00,0.88
7138.00,0.87
7137.00,0.87
7136.00,0.87
7135.00,0.87
7134.00,0.86
7133.00,0.86
7132.00,0.86
7131.00,0.86
7130.00,0.86
7129.00,0.85
7128.00,0.85
7127.00,0.85
7126.00,0.85
7125.00,0.85
7124.00,0.85
7123.00,0.84
7122.00,0.84
7121.00,0.84
7120.00,0.84
7119.00,0.84
7118.00,0.83
7117.00,0.83
7116.00,0.83
7115.00,0.83
7114.00,0.83
7113.00,0.82
7112.00,0.82
7111.00,0.82
7110.00,0.82
7109.00,0.82
7108.00,0.81
7107.00,0.81
7106.00,0.81
7105.00,0.81
7104.00,0.81
7103.00,0.80
7102.00,0.80
7101.00,0.80
7100.00,0.80
7099.00,0.80
7098.00,0.80
7097.00,0.79
7096.00,0.79
7095.00,0.79
7094.00,0.79
7093.00,0.79
7092.00,0.78
7091.00,0.78
7090.00,0.78
7089.00,0.78
7088.00,0.78
7087.00,0.77
7086.00,0.77
7085.00,0.77
7084.00,0.77
7083.00,0.77
7082.00,0.76
7081.00,0.76
7080.00,0.76
7079.00,0.76
7078.00,0.76
7077.00,0.76
7076.00,0.75
7075.00,0.75
7074.00,0.75
7073.00,0.75
7072.00,0.75
7071.00,0.75
7070.00,0.74
7069.00,0.74
7068.00,0.74
7067.00,0.74
7066.00,0.74
7065.00,0.74
7064.00,0.74
7063.00,0.74
7062.00,0.74
7061.00,0.74
7060.00,0.73
7059.00,0.73
7058.00,0.73
7057.00,0.73
7056.00,0.73
7055.00,0.73
7054.00,0.73
7053.00,0.73
7052.00,0.73
7051.00,0.73
7050.00,0.72
7049.00,0.72
7048.00,0.72
7047.00,0.72
7046.00,0.72
7045.00,0.72
7044.00,0.72
7043.00,0.72
7042.00,0.72
7041.00,0.72
7040.00,0.72
7039.00,0.71
7038.00,0.71
7037.00,0.71
7036.00,0.71
7035.00,0.71
7034.00,0.71
7033.00,0.71
7032.00,0.71
7031.00,0.71
7030.00,0.71
7029.00,0.71
7028.00,0.71
7027.00,0.71
7026.00,0.70
7025.00,0.70
7024.00,0.70
7023.00,0.70
7022.00,0.70
7021.00,0.70
7020.00,0.70
7019.00,0.70
7018.00,0.70
7017.00,0.70
7016.00,0.70
7015.00,0.70
7014.00,0.70
7013.00,0.70
7012.00,0.69
7011.00,0.69
7010.00,0.69
7009.00,0.69
7008.00,0.69
7007.00,0.69
7006.00,0.69
7005.00,0.69
7004.00,0.68
7003.00,0.68
7002.00,0.68
7001.00,0.68
7000.00,0.68
6999.00,0.68
6998.00,0.68
6997.00,0.68
6996.00,0.68
6995.00,0.68
6994.00,0.68
6993.00,0.68
6992.00,0.68
6991.00,0.68
6990.00,0.68
6989.00,0.68
6988.00,0.68
6987.00,0.68
6986.00,0.68
6985.00,0.68
6984.00,0.68
6983.00,0.68
6982.00,0.68
6981.00,0.68
6980.00,0.67
6979.00,0.67
6978.00,0.67
6977.00,0.67
6976.00,0.67
6975.00,0.67
6974.00,0.67
6973.00,0.67
6972.00,0.67
6971.00,0.67
6970.00,0.67
6969.00,0.67
6968.00,0.67
6967.00,0.67
6966.00,0.66
6965.00,0.66
6964.00,0.66
6963.00,0.66
6962.00,0.66
6961.00,0.66
6960.00,0.66
6959.00,0.66
6958.00,0.66
6957.00,0.66
6956.00,0.66
6955.00,0.66
6954.00,0.66
6953.00,0.66
6952.00,0.66
6951.00,0.66
6950.00,0.66
6949.00,0.66
6948.00,0.66
6947.00,0.66
6946.00,0.66
6945.00,0.66
6944.00,0.66
6943.00,0.66
6942.00,0.66
6941.00,0.66
6940.00,0.66
6939.00,0.66
6938.00,0.66
6937.00,0.66
6936.00,0.66
6935.00,0.66
6934.00,0.66
6933.00,0.66
6932.00,0.66
6931.00,0.66
6930.00,0.66
6929.00,0.66
6928.00,0.66
6927.00,0.66
6926.00,0.66
6925.00,0.66
6924.00,0.66
6923.00,0.66
6922.00,0.66
6921.00,0.66
6920.00,0.66
6919.00,0.66
6918.00,0.66
6917.00,0.66
6916.00,0.66
6915.00,0.65
6914.00,0.65
6913.00,0.65
6912.00,0.65
6911.00,0.65
6910.00,0.65
6909.00,0.65
6908.00,0.65
6907.00,0.65
6906.00,0.65
6905.00,0.65
6904.00,0.65
6903.00,0.65
6902.00,0.65
6901.00,0.65
6900.00,0.65
6899.00,0.65
6898.00,0.65
6897.00,0.65
6896.00,0.65
6895.00,0.65
6894.00,0.65
6893.00,0.65
6892.00,0.65
6891.00,0.65
6890.00,0.65
6889.00,0.65
6888.00,0.65
6887.00,0.65
6886.00,0.65
6885.00,0.65
6884.00,0.65
6883.00,0.65
6882.00,0.65
6881.00,0.65
6880.00,0.65
6879.00,0.65
6878.00,0.65
6877.00,0.65
6876.00,0.65
6875.00,0.65
6874.00,0.65
6873.00,0.65
6872.00,0.65
6871.00,0.65
6870.00,0.65
6869.00,0.65
6868.00,0.65
6867.00,0.65
6866.00,0.65
6865.00,0.65
6864.00,0.65
6863.00,0.65
6862.00,0.64
6861.00,0.64
6860.00,0.64
6859.00,0.64
6858.00,0.64
6857.00,0.64
6856.00,0.65
6855.00,0.65
6854.00,0.65
6853.00,0.65
6852.00,0.65
6851.00,0.65
6850.00,0.65
6849.00,0.65
6848.00,0.65
6847.00,0.65
6846.00,0.65
6845.00,0.65
6844.00,0.65
6843.00,0.65
6842.00,0.65
6841.00,0.65
6840.00,0.65
6839.00,0.65
6838.00,0.65
6837.00,0.65
6836.00,0.65
6835.00,0.65
6834.00,0.65
6833.00,0.65
6832.00,0.65
6831.00,0.65
6830.00,0.65
6829.00,0.65
6828.00,0.65
6827.00,0.66
6826.00,0.66
6825.00,0.66
6824.00,0.66
6823.00,0.66
6822.00,0.66
6821.00,0.66
6820.00,0.66
6819.00,0.66
6818.00,0.66
6817.00,0.66
6816.00,0.66
6815.00,0.66
6814.00,0.66
6813.00,0.66
6812.00,0.66
6811.00,0.66
6810.00,0.66
6809.00,0.66
6808.00,0.66
6807.00,0.66
6806.00,0.66
6805.00,0.66
6804.00,0.66
6803.00,0.66
6802.00,0.66
6801.00,0.66
6800.00,0.66
6799.00,0.66
6798.00,0.66
6797.00,0.66
6796.00,0.66
6795.00,0.66
6794.00,0.66
6793.00,0.66
6792.00,0.66
6791.00,0.66
6790.00,0.66
6789.00,0.66
6788.00,0.66
6787.00,0.66
6786.00,0.66
6785.00,0.66
6784.00,0.66
6783.00,0.67
6782.00,0.67
6781.00,0.67
6780.00,0.67
6779.00,0.67
6778.00,0.67
6777.00,0.67
6776.00,0.67
6775.00,0.67
6774.00,0.67
6773.00,0.67
6772.00,0.68
6771.00,0.68
6770.00,0.68
6769.00,0.68
6768.00,0.68
6767.00,0.68
6766.00,0.68
6765.00,0.68
6764.00,0.68
6763.00,0.68
6762.00,0.68
6761.00,0.68
6760.00,0.68
6759.00,0.68
6758.00,0.68
6757.00,0.68
6756.00,0.68
6755.00,0.68
6754.00,0.68
6753.00,0.68
6752.00,0.69
6751.00,0.69
6750.00,0.69
6749.00,0.69
6748.00,0.69
6747.00,0.69
6746.00,0.69
6745.00,0.69
6744.00,0.69
6743.00,0.69
6742.00,0.69
6741.00,0.69
6740.00,0.69
6739.00,0.69
6738.00,0.69
6737.00,0.69
6736.00,0.69
6735.00,0.69
6734.00,0.69
6733.00,0.70
6732.00,0.70
6731.00,0.70
6730.00,0.70
6729.00,0.70
6728.00,0.70
6727.00,0.70
6726.00,0.70
6725.00,0.70
6724.00,0.70
6723.00,0.70
6722.00,0.70
6721.00,0.70
6720.00,0.70
6719.00,0.70
6718.00,0.70
6717.00,0.70
6716.00,0.70
6715.00,0.70
6714.00,0.70
6713.00,0.70
6712.00,0.70
6711.00,0.71
6710.00,0.71
6709.00,0.71
6708.00,0.71
6707.00,0.71
6706.00,0.71
6705.00,0.71
6704.00,0.71
6703.00,0.71
6702.00,0.72
6701.00,0.72
6700.00,0.72
6699.00,0.72
6698.00,0.72
6697.00,0.72
6696.00,0.72
6695.00,0.72
6694.00,0.72
6693.00,0.72
6692.00,0.72
6691.00,0.72
6690.00,0.72
6689.00,0.72
6688.00,0.72
6687.00,0.72
6686.00,0.72
6685.00,0.72
6684.00,0.72
6683.00,0.73
6682.00,0.73
6681.00,0.73
6680.00,0.73
6679.00,0.73
6678.00,0.73
6677.00,0.73
6676.00,0.73
6675.00,0.73
6674.00,0.73
6673.00,0.74
6672.00,0.74
6671.00,0.74
6670.00,0.74
6669.00,0.74
6668.00,0.74
6667.00,0.74
6666.00,0.75
6665.00,0.75
6664.00,0.75
6663.00,0.75
6662.00,0.75
6661.00,0.75
6660.00,0.75
6659.00,0.76
6658.00,0.76
6657.00,0.76
6656.00,0.76
6655.00,0.76
6654.00,0.76
6653.00,0.76
6652.00,0.76
6651.00,0.76
6650.00,0.77
6649.00,0.77
6648.00,0.77
6647.00,0.77
6646.00,0.77
6645.00,0.77
6644.00,0.77
6643.00,0.77
6642.00,0.77
6641.00,0.77
6640.00,0.77
6639.00,0.77
6638.00,0.77
6637.00,0.77
6636.00,0.77
6635.00,0.77
6634.00,0.77
6633.00,0.77
6632.00,0.77
6631.00,0.77
6630.00,0.77
6629.00,0.77
6628.00,0.77
6627.00,0.77
6626.00,0.78
6625.00,0.78
6624.00,0.78
6623.00,0.78
6622.00,0.78
6621.00,0.78
6620.00,0.78
6619.00,0.78
6618.00,0.78
6617.00,0.78
6616.00,0.78
6615.00,0.79
6614.00,0.79
6613.00,0.79
6612.00,0.79
6611.00,0.79
6610.00,0.79
6609.00,0.79
6608.00,0.79
6607.00,0.79
6606.00,0.79
6605.00,0.79
6604.00,0.79
6603.00,0.79
6602.00,0.79
6601.00,0.79
6600.00,0.80
6599.00,0.80
6598.00,0.80
6597.00,0.80
6596.00,0.80
6595.00,0.80
6594.00,0.80
6593.00,0.80
6592.00,0.80
6591.00,0.80
6590.00,0.80
6589.00,0.81
6588.00,0.81
6587.00,0.81
6586.00,0.81
6585.00,0.81
6584.00,0.81
6583.00,0.81
6582.00,0.82
6581.00,0.82
6580.00,0.82
6579.00,0.82
6578.00,0.82
6577.00,0.82
6576.00,0.82
6575.00,0.83
6574.00,0.83
6573.00,0.83
6572.00,0.83
6571.00,0.83
6570.00,0.83
6569.00,0.83
6568.00,0.83
6567.00,0.83
6566.00,0.83
6565.00,0.83
6564.00,0.83
6563.00,0.84
6562.00,0.84
6561.00,0.84
6560.00,0.84
6559.00,0.84
6558.00,0.84
6557.00,0.84
6556.00,0.84
6555.00,0.84
6554.00,0.84
6553.00,0.84
6552.00,0.84
6551.00,0.84
6550.00,0.84
6549.00,0.84
6548.00,0.84
6547.00,0.84
6546.00,0.84
6545.00,0.84
6544.00,0.84
6543.00,0.84
6542.00,0.84
6541.00,0.84
6540.00,0.84
6539.00,0.85
6538.00,0.85
6537.00,0.85
6536.00,0.85
6535.00,0.85
6534.00,0.85
6533.00,0.85
6532.00,0.85
6531.00,0.86
6530.00,0.86
6529.00,0.86
6528.00,0.86
6527.00,0.86
6526.00,0.86
6525.00,0.86
6524.00,0.86
6523.00,0.86
6522.00,0.87
6521.00,0.87
6520.00,0.87
6519.00,0.87
6518.00,0.87
6517.00,0.87
6516.00,0.87
6515.00,0.87
6514.00,0.87
6513.00,0.87
6512.00,0.87
6511.00,0.87
6510.00,0.87
6509.00,0.87
6508.00,0.87
6507.00,0.87
6506.00,0.87
6505.00,0.87
6504.00,0.87
6503.00,0.87
6502.00,0.87
6501.00,0.87
6500.00,0.87
6499.00,0.87
6498.00,0.87
6497.00,0.87
6496.00,0.87
6495.00,0.87
6494.00,0.88
6493.00,0.88
6492.00,0.88
6491.00,0.88
6490.00,0.88
6489.00,0.88
6488.00,0.88
6487.00,0.88
6486.00,0.88
6485.00,0.88
6484.00,0.88
6483.00,0.88
6482.00,0.88
6481.00,0.89
6480.00,0.89
6479.00,0.89
6478.00,0.89
6477.00,0.89
6476.00,0.89
6475.00,0.89
6474.00,0.89
6473.00,0.89
6472.00,0.89
6471.00,0.89
6470.00,0.89
6469.00,0.89
6468.00,0.89
6467.00,0.89
6466.00,0.89
6465.00,0.89
6464.00,0.89
6463.00,0.89
6462.00,0.89
6461.00,0.89
6460.00,0.89
6459.00,0.89
6458.00,0.89
6457.00,0.89
6456.00,0.89
6455.00,0.89
6454.00,0.89
6453.00,0.89
6452.00,0.90
6451.00,0.90
6450.00,0.90
6449.00,0.90
6448.00,0.90
6447.00,0.90
6446.00,0.90
6445.00,0.90
6444.00,0.90
6443.00,0.90
6442.00,0.90
6441.00,0.90
6440.00,0.91
6439.00,0.91
6438.00,0.91
6437.00,0.91
6436.00,0.91
6435.00,0.91
6434.00,0.91
6433.00,0.91
6432.00,0.91
6431.00,0.91
6430.00,0.91
6429.00,0.91
6428.00,0.91
6427.00,0.92
6426.00,0.92
6425.00,0.92
6424.00,0.92
6423.00,0.92
6422.00,0.92
6421.00,0.92
6420.00,0.92
6419.00,0.92
6418.00,0.92
6417.00,0.92
6416.00,0.92
6415.00,0.92
6414.00,0.92
6413.00,0.92
6412.00,0.92
6411.00,0.92
6410.00,0.92
6409.00,0.92
6408.00,0.92
6407.00,0.92
6406.00,0.92
6405.00,0.92
6404.00,0.92
6403.00,0.92
6402.00,0.92
6401.00,0.92
6400.00,0.92
6399.00,0.92
6398.00,0.92
6397.00,0.92
6396.00,0.92
6395.00,0.92
6394.00,0.92
6393.00,0.92
6392.00,0.93
6391.00,0.93
6390.00,0.93
6389.00,0.93
6388.00,0.93
6387.00,0.93
6386.00,0.93
6385.00,0.93
6384.00,0.93
6383.00,0.93
6382.00,0.93
6381.00,0.93
6380.00,0.93
6379.00,0.94
6378.00,0.94
6377.00,0.94
6376.00,0.94
6375.00,0.94
6374.00,0.94
6373.00,0.94
6372.00,0.94
6371.00,0.94
6370.00,0.94
6369.00,0.94
6368.00,0.94
6367.00,0.94
6366.00,0.94
6365.00,0.94
6364.00,0.94
6363.00,0.95
6362.00,0.95
6361.00,0.95
6360.00,0.95
6359.00,0.95
6358.00,0.95
6357.00,0.95
6356.00,0.95
6355.00,0.95
6354.00,0.95
6353.00,0.95
6352.00,0.95
6351.00,0.96
6350.00,0.96
6349.00,0.96
6348.00,0.96
6347.00,0.96
6346.00,0.96
6345.00,0.96
6344.00,0.96
6343.00,0.96
6342.00,0.96
6341.00,0.96
6340.00,0.96
6339.00,0.96
6338.00,0.97
6337.00,0.97
6336.00,0.97
6335.00,0.97
6334.00,0.97
6333.00,0.97
6332.00,0.97
6331.00,0.97
6330.00,0.97
6329.00,0.97
6328.00,0.97
6327.00,0.97
6326.00,0.97
6325.00,0.97
6324.00,0.98
6323.00,0.98
6322.00,0.98
6321.00,0.98
6320.00,0.98
6319.00,0.98
6318.00,0.98
6317.00,0.98
6316.00,0.98
6315.00,0.98
6314.00,0.99
6313.00,0.99
6312.00,0.99
6311.00,0.99
6310.00,0.99
6309.00,0.99
6308.00,0.99
6307.00,0.99
6306.00,0.99
6305.00,0.99
6304.00,0.99
6303.00,0.99
6302.00,0.99
6301.00,0.99
6300.00,1.00
6299.00,1.00
6298.00,1.00
6297.00,1.00
6296.00,1.00
6295.00,1.00
6294.00,1.00
6293.00,1.00
6292.00,1.00
6291.00,1.00
6290.00,1.00
6289.00,1.01
6288.00,1.01
6287.00,1.01
6286.00,1.01
6285.00,1.01
6284.00,1.01
6283.00,1.01
6282.00,1.01
6281.00,1.01
6280.00,1.01
6279.00,1.01
6278.00,1.01
6277.00,1.02
6276.00,1.02
6275.00,1.02
6274.00,1.02
6273.00,1.02
6272.00,1.02
6271.00,1.02
6270.00,1.02
6269.00,1.02
6268.00,1.02
6267.00,1.03
6266.00,1.03
6265.00,1.03
6264.00,1.03
6263.00,1.03
6262.00,1.03
6261.00,1.03
6260.00,1.03
6259.00,1.03
6258.00,1.04
6257.00,1.04
6256.00,1.04
6255.00,1.04
6254.00,1.04
6253.00,1.04
6252.00,1.04
6251.00,1.04
6250.00,1.04
6249.00,1.05
6248.00,1.05
6247.00,1.05
6246.00,1.05
6245.00,1.05
6244.00,1.05
6243.00,1.05
6242.00,1.05
6241.00,1.05
6240.00,1.05
6239.00,1.06
6238.00,1.06
6237.00,1.06
6236.00,1.06
6235.00,1.06
6234.00,1.06
6233.00,1.06
6232.00,1.06
6231.00,1.06
6230.00,1.06
6229.00,1.06
6228.00,1.07
6227.00,1.07
6226.00,1.07
6225.00,1.07
6224.00,1.07
6223.00,1.07
6222.00,1.07
6221.00,1.07
6220.00,1.07
6219.00,1.07
6218.00,1.07
6217.00,1.08
6216.00,1.08
6215.00,1.08
6214.00,1.08
6213.00,1.08
6212.00,1.08
6211.00,1.08
6210.00,1.08
6209.00,1.08
6208.00,1.09
6207.00,1.09
6206.00,1.09
6205.00,1.09
6204.00,1.09
6203.00,1.09
6202.00,1.09
6201.00,1.10
6200.00,1.10
6199.00,1.10
6198.00,1.10
6197.00,1.10
6196.00,1.10
6195.00,1.10
6194.00,1.10
6193.00,1.11
6192.00,1.11
6191.00,1.11
6190.00,1.11
6189.00,1.11
6188.00,1.11
6187.00,1.11
6186.00,1.11
6185.00,1.12
6184.00,1.12
6183.00,1.12
6182.00,1.12
6181.00,1.12
6180.00,1.12
6179.00,1.12
6178.00,1.12
6177.00,1.12
6176.00,1.13
6175.00,1.13
6174.00,1.13
6173.00,1.13
6172.00,1.13
6171.00,1.13
6170.00,1.13
6169.00,1.13
6168.00,1.13
6167.00,1.14
6166.00,1.14
6165.00,1.14
6164.00,1.14
6163.00,1.14
6162.00,1.14
6161.00,1.14
6160.00,1.14
6159.00,1.14
6158.00,1.15
6157.00,1.15
6156.00,1.15
6155.00,1.15
6154.00,1.15
6153.00,1.15
6152.00,1.15
6151.00,1.15
6150.00,1.16
6149.00,1.16
6148.00,1.16
6147.00,1.16
6146.00,1.16
6145.00,1.16
6144.00,1.16
6143.00,1.16
6142.00,1.16
6141.00,1.17
6140.00,1.17
6139.00,1.17
6138.00,1.17
6137.00,1.17
6136.00,1.17
6135.00,1.17
6134.00,1.17
6133.00,1.17
6132.00,1.17
6131.00,1.17
6130.00,1.18
6129.00,1.18
6128.00,1.18
6127.00,1.18
6126.00,1.18
6125.00,1.18
6124.00,1.18
6123.00,1.18
6122.00,1.18
6121.00,1.19
6120.00,1.19
6119.00,1.19
6118.00,1.19
6117.00,1.19
6116.00,1.19
6115.00,1.19
6114.00,1.20
6113.00,1.20
6112.00,1.20
6111.00,1.20
6110.00,1.20
6109.00,1.20
6108.00,1.20
6107.00,1.20
6106.00,1.20
6105.00,1.20
6104.00,1.21
6103.00,1.21
6102.00,1.21
6101.00,1.21
6100.00,1.21
6099.00,1.21
6098.00,1.21
6097.00,1.21
6096.00,1.21
6095.00,1.22
6094.00,1.22
6093.00,1.22
6092.00,1.22
6091.00,1.22
6090.00,1.22
6089.00,1.22
6088.00,1.22
6087.00,1.22
6086.00,1.23
6085.00,1.23
6084.00,1.23
6083.00,1.23
6082.00,1.23
6081.00,1.23
6080.00,1.23
6079.00,1.23
6078.00,1.23
6077.00,1.23
6076.00,1.23
6075.00,1.23
6074.00,1.23
6073.00,1.24
6072.00,1.24
6071.00,1.24
6070.00,1.24
6069.00,1.24
6068.00,1.24
6067.00,1.24
6066.00,1.24
6065.00,1.24
6064.00,1.24
6063.00,1.25
6062.00,1.25
6061.00,1.25
6060.00,1.25
6059.00,1.25
6058.00,1.25
6057.00,1.25
6056.00,1.25
6055.00,1.25
6054.00,1.25
6053.00,1.25
6052.00,1.25
6051.00,1.25
6050.00,1.25
6049.00,1.25
6048.00,1.25
6047.00,1.25
6046.00,1.25
6045.00,1.25
6044.00,1.26
6043.00,1.26
6042.00,1.26
6041.00,1.26
6040.00,1.26
6039.00,1.26
6038.00,1.26
6037.00,1.26
6036.00,1.26
6035.00,1.26
6034.00,1.26
6033.00,1.26
6032.00,1.26
6031.00,1.26
6030.00,1.26
6029.00,1.26
6028.00,1.26
6027.00,1.26
6026.00,1.26
6025.00,1.26
6024.00,1.26
6023.00,1.27
6022.00,1.27
6021.00,1.27
6020.00,1.27
6019.00,1.27
6018.00,1.27
6017.00,1.27
6016.00,1.27
6015.00,1.27
6014.00,1.27
6013.00,1.27
6012.00,1.27
6011.00,1.27
6010.00,1.27
6009.00,1.27
6008.00,1.27
6007.00,1.27
6006.00,1.27
6005.00,1.27
6004.00,1.27
6003.00,1.27
6002.00,1.26
6001.00,1.26
6000.00,1.26
5999.00,1.26
5998.00,1.26
5997.00,1.26
5996.00,1.26
5995.00,1.26
5994.00,1.26
5993.00,1.26
5992.00,1.26
5991.00,1.25
5990.00,1.25
5989.00,1.25
5988.00,1.25
5987.00,1.25
5986.00,1.25
5985.00,1.24
5984.00,1.24
5983.00,1.24
5982.00,1.24
5981.00,1.24
5980.00,1.23
5979.00,1.23
5978.00,1.23
5977.00,1.23
5976.00,1.22
5975.00,1.22
5974.00,1.21
5973.00,1.21
5972.00,1.21
5971.00,1.20
5970.00,1.20
5969.00,1.19
5968.00,1.19
5967.00,1.18
5966.00,1.18
5965.00,1.17
5964.00,1.16
5963.00,1.16
5962.00,1.15
5961.00,1.15
5960.00,1.14
5959.00,1.13
5958.00,1.13
5957.00,1.12
5956.00,1.12
5955.00,1.11
5954.00,1.11
5953.00,1.10
5952.00,1.10
5951.00,1.09
5950.00,1.09
5949.00,1.08
5948.00,1.08
5947.00,1.08
5946.00,1.07
5945.00,1.07
5944.00,1.07
5943.00,1.07
5942.00,1.06
5941.00,1.06
5940.00,1.06
5939.00,1.06
5938.00,1.06
5937.00,1.06
5936.00,1.06
5935.00,1.05
5934.00,1.05
5933.00,1.05
5932.00,1.05
5931.00,1.05
5930.00,1.05
5929.00,1.05
5928.00,1.05
5927.00,1.05
5926.00,1.05
5925.00,1.04
5924.00,1.04
5923.00,1.04
5922.00,1.04
5921.00,1.04
5920.00,1.04
5919.00,1.04
5918.00,1.03
5917.00,1.03
5916.00,1.03
5915.00,1.03
5914.00,1.03
5913.00,1.02
5912.00,1.02
5911.00,1.02
5910.00,1.02
5909.00,1.02
5908.00,1.02
5907.00,1.02
5906.00,1.01
5905.00,1.01
5904.00,1.01
5903.00,1.01
5902.00,1.01
5901.00,1.01
5900.00,1.01
5899.00,1.01
5898.00,1.01
5897.00,1.02
5896.00,1.02
5895.00,1.02
5894.00,1.02
5893.00,1.02
5892.00,1.02
5891.00,1.03
5890.00,1.03
5889.00,1.03
5888.00,1.03
5887.00,1.03
5886.00,1.04
5885.00,1.04
5884.00,1.04
5883.00,1.04
5882.00,1.05
5881.00,1.05
5880.00,1.05
5879.00,1.05
5878.00,1.06
5877.00,1.06
5876.00,1.06
5875.00,1.06
5874.00,1.07
5873.00,1.07
5872.00,1.07
5871.00,1.07
5870.00,1.07
5869.00,1.08
5868.00,1.08
5867.00,1.08
5866.00,1.08
5865.00,1.08
5864.00,1.08
5863.00,1.08
5862.00,1.08
5861.00,1.09
5860.00,1.09
5859.00,1.09
5858.00,1.09
5857.00,1.09
5856.00,1.09
5855.00,1.09
5854.00,1.09
5853.00,1.09
5852.00,1.09
5851.00,1.09
5850.00,1.09
5849.00,1.09
5848.00,1.09
5847.00,1.09
5846.00,1.09
5845.00,1.09
5844.00,1.09
5843.00,1.09
5842.00,1.09
5841.00,1.09
5840.00,1.09
5839.00,1.09
5838.00,1.09
5837.00,1.09
5836.00,1.09
5835.00,1.09
5834.00,1.09
5833.00,1.09
5832.00,1.09
5831.00,1.09
5830.00,1.09
5829.00,1.09
5828.00,1.09
5827.00,1.10
5826.00,1.10
5825.00,1.10
5824.00,1.10
5823.00,1.10
5822.00,1.10
5821.00,1.10
5820.00,1.10
5819.00,1.10
5818.00,1.10
5817.00,1.10
5816.00,1.10
5815.00,1.10
5814.00,1.10
5813.00,1.10
5812.00,1.10
5811.00,1.10
5810.00,1.10
5809.00,1.10
5808.00,1.10
5807.00,1.10
5806.00,1.09
5805.00,1.09
5804.00,1.09
5803.00,1.09
5802.00,1.09
5801.00,1.09
5800.00,1.09
5799.00,1.09
5798.00,1.09
5797.00,1.09
5796.00,1.09
5795.00,1.08
5794.00,1.08
5793.00,1.08
5792.00,1.08
5791.00,1.08
5790.00,1.08
5789.00,1.07
5788.00,1.07
5787.00,1.07
5786.00,1.07
5785.00,1.07
5784.00,1.07
5783.00,1.06
5782.00,1.06
5781.00,1.06
5780.00,1.06
5779.00,1.06
5778.00,1.06
5777.00,1.05
5776.00,1.05
5775.00,1.05
5774.00,1.05
5773.00,1.05
5772.00,1.05
5771.00,1.05
5770.00,1.05
5769.00,1.05
5768.00,1.05
5767.00,1.05
5766.00,1.06
5765.00,1.06
5764.00,1.06
5763.00,1.06
5762.00,1.06
5761.00,1.06
5760.00,1.07
5759.00,1.07
5758.00,1.07
5757.00,1.08
5756.00,1.08
5755.00,1.08
5754.00,1.08
5753.00,1.09
5752.00,1.09
5751.00,1.09
5750.00,1.10
5749.00,1.10
5748.00,1.10
5747.00,1.10
5746.00,1.11
5745.00,1.11
5744.00,1.11
5743.00,1.12
5742.00,1.12
5741.00,1.12
5740.00,1.12
5739.00,1.12
5738.00,1.13
5737.00,1.13
5736.00,1.13
5735.00,1.13
5734.00,1.13
5733.00,1.13
5732.00,1.14
5731.00,1.14
5730.00,1.14
5729.00,1.14
5728.00,1.14
5727.00,1.14
5726.00,1.14
5725.00,1.14
5724.00,1.14
5723.00,1.14
5722.00,1.15
5721.00,1.15
5720.00,1.15
5719.00,1.15
5718.00,1.15
5717.00,1.15
5716.00,1.15
5715.00,1.15
5714.00,1.15
5713.00,1.15
5712.00,1.15
5711.00,1.14
5710.00,1.14
5709.00,1.14
5708.00,1.14
5707.00,1.14
5706.00,1.14
5705.00,1.14
5704.00,1.14
5703.00,1.14
5702.00,1.14
5701.00,1.14
5700.00,1.13
5699.00,1.13
5698.00,1.13
5697.00,1.13
5696.00,1.13
5695.00,1.13
5694.00,1.13
5693.00,1.13
5692.00,1.12
5691.00,1.12
5690.00,1.12
5689.00,1.12
5688.00,1.12
5687.00,1.12
5686.00,1.12
5685.00,1.12
5684.00,1.11
5683.00,1.11
5682.00,1.11
5681.00,1.11
5680.00,1.11
5679.00,1.11
5678.00,1.11
5677.00,1.11
5676.00,1.11
5675.00,1.11
5674.00,1.11
5673.00,1.11
5672.00,1.11
5671.00,1.11
5670.00,1.11
5669.00,1.11
5668.00,1.11
5667.00,1.11
5666.00,1.11
5665.00,1.12
5664.00,1.12
5663.00,1.12
5662.00,1.12
5661.00,1.12
5660.00,1.12
5659.00,1.12
5658.00,1.12
5657.00,1.12
5656.00,1.12
5655.00,1.13
5654.00,1.13
5653.00,1.13
5652.00,1.13
5651.00,1.13
5650.00,1.13
5649.00,1.13
5648.00,1.14
5647.00,1.14
5646.00,1.14
5645.00,1.14
5644.00,1.14
5643.00,1.14
5642.00,1.15
5641.00,1.15
5640.00,1.15
5639.00,1.15
5638.00,1.15
5637.00,1.15
5636.00,1.15
5635.00,1.15
5634.00,1.16
5633.00,1.16
5632.00,1.16
5631.00,1.16
5630.00,1.16
5629.00,1.16
5628.00,1.16
5627.00,1.16
5626.00,1.16
5625.00,1.16
5624.00,1.16
5623.00,1.17
5622.00,1.17
5621.00,1.17
5620.00,1.17
5619.00,1.17
5618.00,1.17
5617.00,1.17
5616.00,1.17
5615.00,1.17
5614.00,1.18
5613.00,1.18
5612.00,1.18
5611.00,1.18
5610.00,1.18
5609.00,1.18
5608.00,1.19
5607.00,1.19
5606.00,1.19
5605.00,1.19
5604.00,1.19
5603.00,1.20
5602.00,1.20
5601.00,1.20
5600.00,1.20
5599.00,1.20
5598.00,1.20
5597.00,1.21
5596.00,1.21
5595.00,1.21
5594.00,1.21
5593.00,1.21
5592.00,1.21
5591.00,1.21
5590.00,1.22
5589.00,1.22
5588.00,1.22
5587.00,1.22
5586.00,1.22
5585.00,1.22
5584.00,1.22
5583.00,1.22
5582.00,1.23
5581.00,1.23
5580.00,1.23
5579.00,1.23
5578.00,1.23
5577.00,1.23
5576.00,1.23
5575.00,1.23
5574.00,1.23
5573.00,1.23
5572.00,1.23
5571.00,1.24
5570.00,1.24
5569.00,1.24
5568.00,1.24
5567.00,1.24
5566.00,1.24
5565.00,1.24
5564.00,1.24
5563.00,1.25
5562.00,1.25
5561.00,1.25
5560.00,1.25
5559.00,1.25
5558.00,1.25
5557.00,1.25
5556.00,1.25
5555.00,1.26
5554.00,1.26
5553.00,1.26
5552.00,1.26
5551.00,1.26
5550.00,1.26
5549.00,1.26
5548.00,1.26
5547.00,1.27
5546.00,1.27
5545.00,1.27
5544.00,1.27
5543.00,1.27
5542.00,1.27
5541.00,1.27
5540.00,1.27
5539.00,1.27
5538.00,1.27
5537.00,1.28
5536.00,1.28
5535.00,1.28
5534.00,1.28
5533.00,1.28
5532.00,1.28
5531.00,1.28
5530.00,1.28
5529.00,1.28
5528.00,1.28
5527.00,1.28
5526.00,1.28
5525.00,1.28
5524.00,1.28
5523.00,1.29
5522.00,1.29
5521.00,1.29
5520.00,1.29
5519.00,1.29
5518.00,1.29
5517.00,1.29
5516.00,1.29
5515.00,1.29
5514.00,1.29
5513.00,1.29
5512.00,1.29
5511.00,1.29
5510.00,1.29
5509.00,1.29
5508.00,1.29
5507.00,1.29
5506.00,1.29
5505.00,1.29
5504.00,1.29
5503.00,1.29
5502.00,1.29
5501.00,1.29
5500.00,1.29
5499.00,1.29
5498.00,1.29
5497.00,1.29
5496.00,1.29
5495.00,1.29
5494.00,1.29
5493.00,1.30
5492.00,1.30
5491.00,1.30
5490.00,1.30
5489.00,1.30
5488.00,1.30
5487.00,1.30
5486.00,1.30
5485.00,1.30
5484.00,1.31
5483.00,1.31
5482.00,1.31
5481.00,1.31
5480.00,1.31
5479.00,1.31
5478.00,1.31
5477.00,1.32
5476.00,1.32
5475.00,1.32
5474.00,1.32
5473.00,1.32
5472.00,1.32
5471.00,1.32
5470.00,1.32
5469.00,1.32
5468.00,1.32
5467.00,1.32
5466.00,1.33
5465.00,1.33
5464.00,1.33
5463.00,1.33
5462.00,1.33
5461.00,1.33
5460.00,1.33
5459.00,1.33
5458.00,1.33
5457.00,1.33
5456.00,1.33
5455.00,1.33
5454.00,1.33
5453.00,1.33
5452.00,1.33
5451.00,1.33
5450.00,1.33
5449.00,1.33
5448.00,1.33
5447.00,1.33
5446.00,1.33
5445.00,1.33
5444.00,1.33
5443.00,1.33
5442.00,1.33
5441.00,1.33
5440.00,1.33
5439.00,1.34
5438.00,1.34
5437.00,1.34
5436.00,1.34
5435.00,1.34
5434.00,1.34
5433.00,1.34
5432.00,1.34
5431.00,1.34
5430.00,1.34
5429.00,1.34
5428.00,1.34
5427.00,1.34
5426.00,1.34
5425.00,1.34
5424.00,1.34
5423.00,1.34
5422.00,1.34
5421.00,1.34
5420.00,1.34
5419.00,1.34
5418.00,1.34
5417.00,1.34
5416.00,1.34
5415.00,1.34
5414.00,1.34
5413.00,1.34
5412.00,1.34
5411.00,1.34
5410.00,1.34
5409.00,1.34
5408.00,1.34
5407.00,1.34
5406.00,1.34
5405.00,1.34
5404.00,1.34
5403.00,1.34
5402.00,1.34
5401.00,1.34
5400.00,1.33
5399.00,1.33
5398.00,1.33
5397.00,1.33
5396.00,1.33
5395.00,1.33
5394.00,1.33
5393.00,1.33
5392.00,1.33
5391.00,1.32
5390.00,1.32
5389.00,1.32
5388.00,1.32
5387.00,1.32
5386.00,1.31
5385.00,1.31
5384.00,1.31
5383.00,1.31
5382.00,1.30
5381.00,1.30
5380.00,1.30
5379.00,1.30
5378.00,1.29
5377.00,1.29
5376.00,1.29
5375.00,1.29
5374.00,1.28
5373.00,1.28
5372.00,1.28
5371.00,1.27
5370.00,1.27
5369.00,1.27
5368.00,1.26
5367.00,1.26
5366.00,1.25
5365.00,1.25
5364.00,1.24
5363.00,1.24
5362.00,1.23
5361.00,1.23
5360.00,1.22
5359.00,1.22
5358.00,1.21
5357.00,1.21
5356.00,1.20
5355.00,1.19
5354.00,1.19
5353.00,1.18
5352.00,1.17
5351.00,1.16
5350.00,1.16
5349.00,1.15
5348.00,1.14
5347.00,1.13
5346.00,1.12
5345.00,1.12
5344.00,1.11
5343.00,1.10
5342.00,1.09
5341.00,1.08
5340.00,1.07
5339.00,1.07
5338.00,1.06
5337.00,1.05
5336.00,1.04
5335.00,1.03
5334.00,1.03
5333.00,1.02
5332.00,1.01
5331.00,1.00
5330.00,0.99
5329.00,0.99
5328.00,0.98
5327.00,0.97
5326.00,0.96
5325.00,0.96
5324.00,0.95
5323.00,0.94
5322.00,0.93
5321.00,0.92
5320.00,0.92
5319.00,0.91
5318.00,0.90
5317.00,0.89
5316.00,0.88
5315.00,0.88
5314.00,0.87
5313.00,0.86
5312.00,0.85
5311.00,0.85
5310.00,0.84
5309.00,0.83
5308.00,0.82
5307.00,0.82
5306.00,0.81
5305.00,0.81
5304.00,0.80
5303.00,0.80
5302.00,0.79
5301.00,0.79
5300.00,0.78
5299.00,0.78
5298.00,0.78
5297.00,0.77
5296.00,0.77
5295.00,0.77
5294.00,0.77
5293.00,0.76
5292.00,0.76
5291.00,0.76
5290.00,0.76
5289.00,0.76
5288.00,0.75
5287.00,0.75
5286.00,0.75
5285.00,0.75
5284.00,0.75
5283.00,0.75
5282.00,0.74
5281.00,0.74
5280.00,0.74
5279.00,0.74
5278.00,0.74
5277.00,0.74
5276.00,0.74
5275.00,0.73
5274.00,0.73
5273.00,0.73
5272.00,0.73
5271.00,0.73
5270.00,0.73
5269.00,0.73
5268.00,0.73
5267.00,0.73
5266.00,0.73
5265.00,0.73
5264.00,0.73
5263.00,0.72
5262.00,0.72
5261.00,0.72
5260.00,0.72
5259.00,0.72
5258.00,0.72
5257.00,0.72
5256.00,0.72
5255.00,0.72
5254.00,0.72
5253.00,0.72
5252.00,0.72
5251.00,0.72
5250.00,0.72
5249.00,0.72
5248.00,0.72
5247.00,0.72
5246.00,0.72
5245.00,0.72
5244.00,0.72
5243.00,0.72
5242.00,0.72
5241.00,0.73
5240.00,0.73
5239.00,0.73
5238.00,0.73
5237.00,0.73
5236.00,0.73
5235.00,0.73
5234.00,0.73
5233.00,0.73
5232.00,0.73
5231.00,0.73
5230.00,0.73
5229.00,0.73
5228.00,0.73
5227.00,0.73
5226.00,0.73
5225.00,0.73
5224.00,0.73
5223.00,0.73
5222.00,0.73
5221.00,0.73
5220.00,0.73
5219.00,0.73
5218.00,0.73
5217.00,0.73
5216.00,0.73
5215.00,0.73
5214.00,0.73
5213.00,0.73
5212.00,0.73
5211.00,0.73
5210.00,0.73
5209.00,0.73
5208.00,0.73
5207.00,0.73
5206.00,0.73
5205.00,0.74
5204.00,0.74
5203.00,0.74
5202.00,0.74
5201.00,0.74
5200.00,0.74
5199.00,0.74
5198.00,0.74
5197.00,0.74
5196.00,0.74
5195.00,0.74
5194.00,0.74
5193.00,0.74
5192.00,0.74
5191.00,0.74
5190.00,0.74
5189.00,0.74
5188.00,0.74
5187.00,0.74
5186.00,0.74
5185.00,0.74
5184.00,0.74
5183.00,0.74
5182.00,0.74
5181.00,0.74
5180.00,0.75
5179.00,0.75
5178.00,0.75
5177.00,0.75
5176.00,0.75
5175.00,0.75
5174.00,0.75
5173.00,0.75
5172.00,0.75
5171.00,0.75
5170.00,0.75
5169.00,0.75
5168.00,0.75
5167.00,0.75
5166.00,0.75
5165.00,0.75
5164.00,0.75
5163.00,0.75
5162.00,0.75
5161.00,0.75
5160.00,0.75
5159.00,0.75
5158.00,0.75
5157.00,0.75
5156.00,0.76
5155.00,0.76
5154.00,0.76
5153.00,0.76
5152.00,0.76
5151.00,0.76
5150.00,0.76
5149.00,0.76
5148.00,0.76
5147.00,0.76
5146.00,0.76
5145.00,0.76
5144.00,0.76
5143.00,0.76
5142.00,0.77
5141.00,0.77
5140.00,0.77
5139.00,0.77
5138.00,0.77
5137.00,0.77
5136.00,0.77
5135.00,0.77
5134.00,0.77
5133.00,0.77
5132.00,0.77
5131.00,0.77
5130.00,0.77
5129.00,0.77
5128.00,0.77
5127.00,0.77
5126.00,0.77
5125.00,0.77
5124.00,0.77
5123.00,0.77
5122.00,0.77
5121.00,0.77
5120.00,0.77
5119.00,0.77
5118.00,0.77
5117.00,0.77
5116.00,0.77
5115.00,0.77
5114.00,0.77
5113.00,0.77
5112.00,0.77
5111.00,0.78
5110.00,0.78
5109.00,0.78
5108.00,0.78
5107.00,0.78
5106.00,0.78
5105.00,0.78
5104.00,0.78
5103.00,0.78
5102.00,0.78
5101.00,0.78
5100.00,0.78
5099.00,0.78
5098.00,0.78
5097.00,0.78
5096.00,0.78
5095.00,0.78
5094.00,0.78
5093.00,0.78
5092.00,0.78
5091.00,0.78
5090.00,0.78
5089.00,0.78
5088.00,0.78
5087.00,0.79
5086.00,0.79
5085.00,0.79
5084.00,0.79
5083.00,0.79
5082.00,0.79
5081.00,0.79
5080.00,0.79
5079.00,0.79
5078.00,0.79
5077.00,0.79
5076.00,0.79
5075.00,0.79
5074.00,0.79
5073.00,0.80
5072.00,0.80
5071.00,0.80
5070.00,0.80
5069.00,0.80
5068.00,0.80
5067.00,0.80
5066.00,0.80
5065.00,0.80
5064.00,0.80
5063.00,0.80
5062.00,0.80
5061.00,0.80
5060.00,0.80
5059.00,0.80
5058.00,0.80
5057.00,0.80
5056.00,0.80
5055.00,0.80
5054.00,0.80
5053.00,0.80
5052.00,0.80
5051.00,0.80
5050.00,0.81
5049.00,0.81
5048.00,0.81
5047.00,0.81
5046.00,0.81
5045.00,0.81
5044.00,0.81
5043.00,0.81
5042.00,0.81
5041.00,0.81
5040.00,0.81
5039.00,0.81
5038.00,0.81
5037.00,0.81
5036.00,0.81
5035.00,0.81
5034.00,0.81
5033.00,0.81
5032.00,0.82
5031.00,0.82
5030.00,0.82
5029.00,0.82
5028.00,0.82
5027.00,0.82
5026.00,0.82
5025.00,0.82
5024.00,0.82
5023.00,0.82
5022.00,0.82
5021.00,0.83
5020.00,0.83
5019.00,0.83
5018.00,0.83
5017.00,0.83
5016.00,0.83
5015.00,0.83
5014.00,0.83
5013.00,0.83
5012.00,0.83
5011.00,0.83
5010.00,0.83
5009.00,0.83
5008.00,0.84
5007.00,0.84
5006.00,0.84
5005.00,0.84
5004.00,0.84
5003.00,0.84
5002.00,0.84
5001.00,0.84
5000.00,0.84
4999.00,0.84
4998.00,0.84
4997.00,0.84
4996.00,0.84
4995.00,0.84
4994.00,0.84
4993.00,0.84
4992.00,0.84
4991.00,0.84
4990.00,0.84
4989.00,0.84
4988.00,0.84
4987.00,0.84
4986.00,0.84
4985.00,0.84
4984.00,0.84
4983.00,0.85
4982.00,0.85
4981.00,0.85
4980.00,0.85
4979.00,0.85
4978.00,0.85
4977.00,0.85
4976.00,0.85
4975.00,0.85
4974.00,0.85
4973.00,0.85
4972.00,0.85
4971.00,0.85
4970.00,0.86
4969.00,0.86
4968.00,0.86
4967.00,0.86
4966.00,0.86
4965.00,0.86
4964.00,0.86
4963.00,0.86
4962.00,0.86
4961.00,0.86
4960.00,0.86
4959.00,0.86
4958.00,0.87
4957.00,0.87
4956.00,0.87
4955.00,0.87
4954.00,0.87
4953.00,0.87
4952.00,0.87
4951.00,0.87
4950.00,0.88
4949.00,0.88
4948.00,0.88
4947.00,0.88
4946.00,0.88
4945.00,0.88
4944.00,0.88
4943.00,0.88
4942.00,0.88
4941.00,0.88
4940.00,0.89
4939.00,0.89
4938.00,0.89
4937.00,0.89
4936.00,0.89
4935.00,0.89
4934.00,0.89
4933.00,0.89
4932.00,0.89
4931.00,0.89
4930.00,0.89
4929.00,0.89
4928.00,0.89
4927.00,0.89
4926.00,0.89
4925.00,0.89
4924.00,0.90
4923.00,0.90
4922.00,0.90
4921.00,0.90
4920.00,0.90
4919.00,0.90
4918.00,0.90
4917.00,0.90
4916.00,0.90
4915.00,0.90
4914.00,0.90
4913.00,0.90
4912.00,0.90
4911.00,0.90
4910.00,0.90
4909.00,0.90
4908.00,0.90
4907.00,0.90
4906.00,0.91
4905.00,0.91
4904.00,0.91
4903.00,0.91
4902.00,0.91
4901.00,0.91
4900.00,0.91
4899.00,0.91
4898.00,0.91
4897.00,0.91
4896.00,0.91
4895.00,0.91
4894.00,0.91
4893.00,0.91
4892.00,0.91
4891.00,0.91
4890.00,0.91
4889.00,0.91
4888.00,0.91
4887.00,0.91
4886.00,0.91
4885.00,0.91
4884.00,0.91
4883.00,0.91
4882.00,0.92
4881.00,0.92
4880.00,0.92
4879.00,0.92
4878.00,0.92
4877.00,0.92
4876.00,0.92
4875.00,0.92
4874.00,0.92
4873.00,0.92
4872.00,0.92
4871.00,0.92
4870.00,0.92
4869.00,0.92
4868.00,0.92
4867.00,0.92
4866.00,0.92
4865.00,0.92
4864.00,0.92
4863.00,0.92
4862.00,0.93
4861.00,0.93
4860.00,0.93
4859.00,0.93
4858.00,0.93
4857.00,0.93
4856.00,0.93
4855.00,0.93
4854.00,0.93
4853.00,0.93
4852.00,0.93
4851.00,0.94
4850.00,0.94
4849.00,0.94
4848.00,0.94
4847.00,0.94
4846.00,0.94
4845.00,0.94
4844.00,0.94
4843.00,0.94
4842.00,0.94
4841.00,0.94
4840.00,0.94
4839.00,0.94
4838.00,0.95
4837.00,0.95
4836.00,0.95
4835.00,0.95
4834.00,0.95
4833.00,0.95
4832.00,0.95
4831.00,0.95
4830.00,0.95
4829.00,0.95
4828.00,0.95
4827.00,0.95
4826.00,0.95
4825.00,0.95
4824.00,0.95
4823.00,0.95
4822.00,0.95
4821.00,0.95
4820.00,0.95
4819.00,0.95
4818.00,0.95
4817.00,0.95
4816.00,0.95
4815.00,0.95
4814.00,0.96
4813.00,0.96
4812.00,0.96
4811.00,0.96
4810.00,0.96
4809.00,0.96
4808.00,0.96
4807.00,0.96
4806.00,0.96
4805.00,0.97
4804.00,0.97
4803.00,0.97
4802.00,0.97
4801.00,0.97
4800.00,0.97
4799.00,0.97
4798.00,0.97
4797.00,0.97
4796.00,0.98
4795.00,0.98
4794.00,0.98
4793.00,0.98
4792.00,0.98
4791.00,0.98
4790.00,0.98
4789.00,0.98
4788.00,0.98
4787.00,0.98
4786.00,0.98
4785.00,0.98
4784.00,0.98
4783.00,0.98
4782.00,0.99
4781.00,0.99
4780.00,0.99
4779.00,0.99
4778.00,0.99
4777.00,0.99
4776.00,0.99
4775.00,0.99
4774.00,1.00
4773.00,1.00
4772.00,1.00
4771.00,1.00
4770.00,1.00
4769.00,1.01
4768.00,1.01
4767.00,1.01
4766.00,1.01
4765.00,1.01
4764.00,1.01
4763.00,1.02
4762.00,1.02
4761.00,1.02
4760.00,1.02
4759.00,1.02
4758.00,1.02
4757.00,1.02
4756.00,1.02
4755.00,1.02
4754.00,1.02
4753.00,1.02
4752.00,1.03
4751.00,1.03
4750.00,1.03
4749.00,1.03
4748.00,1.03
4747.00,1.03
4746.00,1.03
4745.00,1.03
4744.00,1.03
4743.00,1.04
4742.00,1.04
4741.00,1.04
4740.00,1.04
4739.00,1.04
4738.00,1.04
4737.00,1.04
4736.00,1.05
4735.00,1.05
4734.00,1.05
4733.00,1.05
4732.00,1.05
4731.00,1.05
4730.00,1.06
4729.00,1.06
4728.00,1.06
4727.00,1.06
4726.00,1.06
4725.00,1.07
4724.00,1.07
4723.00,1.07
4722.00,1.07
4721.00,1.07
4720.00,1.07
4719.00,1.08
4718.00,1.08
4717.00,1.08
4716.00,1.08
4715.00,1.08
4714.00,1.08
4713.00,1.08
4712.00,1.09
4711.00,1.09
4710.00,1.09
4709.00,1.09
4708.00,1.09
4707.00,1.09
4706.00,1.09
4705.00,1.09
4704.00,1.09
4703.00,1.10
4702.00,1.10
4701.00,1.10
4700.00,1.10
4699.00,1.10
4698.00,1.10
4697.00,1.10
4696.00,1.10
4695.00,1.10
4694.00,1.10
4693.00,1.11
4692.00,1.11
4691.00,1.11
4690.00,1.11
4689.00,1.11
4688.00,1.11
4687.00,1.11
4686.00,1.11
4685.00,1.11
4684.00,1.11
4683.00,1.12
4682.00,1.12
4681.00,1.12
4680.00,1.12
4679.00,1.12
4678.00,1.12
4677.00,1.12
4676.00,1.12
4675.00,1.12
4674.00,1.12
4673.00,1.12
4672.00,1.13
4671.00,1.13
4670.00,1.13
4669.00,1.13
4668.00,1.13
4667.00,1.13
4666.00,1.14
4665.00,1.14
4664.00,1.14
4663.00,1.14
4662.00,1.14
4661.00,1.15
4660.00,1.15
4659.00,1.15
4658.00,1.15
4657.00,1.15
4656.00,1.15
4655.00,1.16
4654.00,1.16
4653.00,1.16
4652.00,1.16
4651.00,1.16
4650.00,1.16
4649.00,1.17
4648.00,1.17
4647.00,1.17
4646.00,1.17
4645.00,1.17
4644.00,1.17
4643.00,1.17
4642.00,1.17
4641.00,1.17
4640.00,1.17
4639.00,1.18
4638.00,1.18
4637.00,1.18
4636.00,1.18
4635.00,1.18
4634.00,1.18
4633.00,1.18
4632.00,1.18
4631.00,1.18
4630.00,1.18
4629.00,1.18
4628.00,1.18
4627.00,1.18
4626.00,1.18
4625.00,1.18
4624.00,1.19
4623.00,1.19
4622.00,1.19
4621.00,1.19
4620.00,1.19
4619.00,1.19
4618.00,1.19
4617.00,1.19
4616.00,1.20
4615.00,1.20
4614.00,1.20
4613.00,1.20
4612.00,1.20
4611.00,1.20
4610.00,1.20
4609.00,1.20
4608.00,1.21
4607.00,1.21
4606.00,1.21
4605.00,1.21
4604.00,1.21
4603.00,1.21
4602.00,1.21
4601.00,1.21
4600.00,1.21
4599.00,1.21
4598.00,1.21
4597.00,1.21
4596.00,1.21
4595.00,1.22
4594.00,1.22
4593.00,1.22
4592.00,1.22
4591.00,1.22
4590.00,1.22
4589.00,1.22
4588.00,1.22
4587.00,1.23
4586.00,1.23
4585.00,1.23
4584.00,1.23
4583.00,1.23
4582.00,1.23
4581.00,1.23
4580.00,1.23
4579.00,1.23
4578.00,1.23
4577.00,1.23
4576.00,1.23
4575.00,1.23
4574.00,1.23
4573.00,1.23
4572.00,1.23
4571.00,1.24
4570.00,1.24
4569.00,1.24
4568.00,1.24
4567.00,1.24
4566.00,1.24
4565.00,1.24
4564.00,1.24
4563.00,1.24
4562.00,1.24
4561.00,1.25
4560.00,1.25
4559.00,1.25
4558.00,1.25
4557.00,1.25
4556.00,1.25
4555.00,1.25
4554.00,1.25
4553.00,1.25
4552.00,1.26
4551.00,1.26
4550.00,1.26
4549.00,1.26
4548.00,1.26
4547.00,1.26
4546.00,1.26
4545.00,1.26
4544.00,1.26
4543.00,1.26
4542.00,1.27
4541.00,1.27
4540.00,1.27
4539.00,1.27
4538.00,1.27
4537.00,1.27
4536.00,1.27
4535.00,1.27
4534.00,1.27
4533.00,1.27
4532.00,1.27
4531.00,1.27
4530.00,1.27
4529.00,1.27
4528.00,1.27
4527.00,1.28
4526.00,1.28
4525.00,1.28
4524.00,1.28
4523.00,1.28
4522.00,1.28
4521.00,1.28
4520.00,1.28
4519.00,1.28
4518.00,1.28
4517.00,1.28
4516.00,1.28
4515.00,1.28
4514.00,1.28
4513.00,1.28
4512.00,1.28
4511.00,1.28
4510.00,1.28
4509.00,1.28
4508.00,1.28
4507.00,1.28
4506.00,1.28
4505.00,1.28
4504.00,1.28
4503.00,1.28
4502.00,1.28
4501.00,1.28
4500.00,1.28
4499.00,1.28
4498.00,1.28
4497.00,1.28
4496.00,1.28
4495.00,1.28
4494.00,1.28
4493.00,1.28
4492.00,1.28
4491.00,1.27
4490.00,1.27
4489.00,1.27
4488.00,1.27
4487.00,1.27
4486.00,1.27
4485.00,1.27
4484.00,1.27
4483.00,1.26
4482.00,1.26
4481.00,1.26
4480.00,1.26
4479.00,1.26
4478.00,1.25
4477.00,1.25
4476.00,1.25
4475.00,1.25
4474.00,1.24
4473.00,1.24
4472.00,1.24
4471.00,1.24
4470.00,1.23
4469.00,1.23
4468.00,1.23
4467.00,1.23
4466.00,1.22
4465.00,1.22
4464.00,1.22
4463.00,1.22
4462.00,1.21
4461.00,1.21
4460.00,1.21
4459.00,1.21
4458.00,1.20
4457.00,1.20
4456.00,1.20
4455.00,1.20
4454.00,1.19
4453.00,1.19
4452.00,1.19
4451.00,1.19
4450.00,1.19
4449.00,1.18
4448.00,1.18
4447.00,1.18
4446.00,1.17
4445.00,1.17
4444.00,1.17
4443.00,1.17
4442.00,1.16
4441.00,1.16
4440.00,1.15
4439.00,1.15
4438.00,1.15
4437.00,1.14
4436.00,1.14
4435.00,1.14
4434.00,1.13
4433.00,1.13
4432.00,1.13
4431.00,1.12
4430.00,1.12
4429.00,1.12
4428.00,1.11
4427.00,1.11
4426.00,1.11
4425.00,1.11
4424.00,1.10
4423.00,1.10
4422.00,1.10
4421.00,1.10
4420.00,1.10
4419.00,1.10
4418.00,1.10
4417.00,1.10
4416.00,1.10
4415.00,1.10
4414.00,1.10
4413.00,1.10
4412.00,1.10
4411.00,1.10
4410.00,1.10
4409.00,1.11
4408.00,1.11
4407.00,1.11
4406.00,1.11
4405.00,1.11
4404.00,1.11
4403.00,1.11
4402.00,1.12
4401.00,1.12
4400.00,1.12
4399.00,1.12
4398.00,1.12
4397.00,1.12
4396.00,1.12
4395.00,1.12
4394.00,1.12
4393.00,1.12
4392.00,1.12
4391.00,1.12
4390.00,1.12
4389.00,1.12
4388.00,1.12
4387.00,1.12
4386.00,1.12
4385.00,1.13
4384.00,1.13
4383.00,1.13
4382.00,1.13
4381.00,1.13
4380.00,1.13
4379.00,1.13
4378.00,1.13
4377.00,1.13
4376.00,1.13
4375.00,1.13
4374.00,1.13
4373.00,1.13
4372.00,1.13
4371.00,1.13
4370.00,1.13
4369.00,1.13
4368.00,1.13
4367.00,1.13
4366.00,1.13
4365.00,1.13
4364.00,1.13
4363.00,1.13
4362.00,1.13
4361.00,1.13
4360.00,1.14
4359.00,1.14
4358.00,1.14
4357.00,1.14
4356.00,1.14
4355.00,1.14
4354.00,1.14
4353.00,1.14
4352.00,1.14
4351.00,1.14
4350.00,1.14
4349.00,1.14
4348.00,1.14
4347.00,1.14
4346.00,1.14
4345.00,1.14
4344.00,1.14
4343.00,1.14
4342.00,1.14
4341.00,1.14
4340.00,1.15
4339.00,1.15
4338.00,1.15
4337.00,1.15
4336.00,1.15
4335.00,1.15
4334.00,1.15
4333.00,1.15
4332.00,1.15
4331.00,1.15
4330.00,1.15
4329.00,1.15
4328.00,1.15
4327.00,1.16
4326.00,1.16
4325.00,1.16
4324.00,1.16
4323.00,1.16
4322.00,1.16
4321.00,1.16
4320.00,1.16
4319.00,1.16
4318.00,1.17
4317.00,1.17
4316.00,1.17
4315.00,1.17
4314.00,1.17
4313.00,1.17
4312.00,1.17
4311.00,1.18
4310.00,1.18
4309.00,1.18
4308.00,1.18
4307.00,1.18
4306.00,1.18
4305.00,1.19
4304.00,1.19
4303.00,1.19
4302.00,1.19
4301.00,1.19
4300.00,1.19
4299.00,1.19
4298.00,1.20
4297.00,1.20
4296.00,1.20
4295.00,1.20
4294.00,1.20
4293.00,1.20
4292.00,1.20
4291.00,1.20
4290.00,1.20
4289.00,1.21
4288.00,1.21
4287.00,1.21
4286.00,1.21
4285.00,1.21
4284.00,1.21
4283.00,1.21
4282.00,1.21
4281.00,1.21
4280.00,1.21
4279.00,1.21
4278.00,1.21
4277.00,1.21
4276.00,1.21
4275.00,1.21
4274.00,1.21
4273.00,1.21
4272.00,1.21
4271.00,1.21
4270.00,1.21
4269.00,1.21
4268.00,1.21
4267.00,1.20
4266.00,1.20
4265.00,1.20
4264.00,1.20
4263.00,1.20
4262.00,1.20
4261.00,1.20
4260.00,1.20
4259.00,1.20
4258.00,1.20
4257.00,1.20
4256.00,1.20
4255.00,1.20
4254.00,1.20
4253.00,1.20
4252.00,1.20
4251.00,1.20
4250.00,1.20
4249.00,1.20
4248.00,1.21
4247.00,1.21
4246.00,1.21
4245.00,1.21
4244.00,1.21
4243.00,1.21
4242.00,1.21
4241.00,1.22
4240.00,1.22
4239.00,1.22
4238.00,1.22
4237.00,1.22
4236.00,1.22
4235.00,1.22
4234.00,1.23
4233.00,1.23
4232.00,1.23
4231.00,1.23
4230.00,1.23
4229.00,1.23
4228.00,1.23
4227.00,1.23
4226.00,1.24
4225.00,1.24
4224.00,1.24
4223.00,1.24
4222.00,1.24
4221.00,1.24
4220.00,1.25
4219.00,1.25
4218.00,1.25
4217.00,1.25
4216.00,1.25
4215.00,1.25
4214.00,1.25
4213.00,1.26
4212.00,1.26
4211.00,1.26
4210.00,1.26
4209.00,1.26
4208.00,1.26
4207.00,1.26
4206.00,1.26
4205.00,1.26
4204.00,1.26
4203.00,1.26
4202.00,1.26
4201.00,1.26
4200.00,1.26
4199.00,1.26
4198.00,1.26
4197.00,1.26
4196.00,1.27
4195.00,1.27
4194.00,1.27
4193.00,1.27
4192.00,1.27
4191.00,1.27
4190.00,1.27
4189.00,1.27
4188.00,1.27
4187.00,1.27
4186.00,1.27
4185.00,1.27
4184.00,1.27
4183.00,1.27
4182.00,1.27
4181.00,1.27
4180.00,1.27
4179.00,1.27
4178.00,1.26
4177.00,1.26
4176.00,1.26
4175.00,1.26
4174.00,1.26
4173.00,1.26
4172.00,1.26
4171.00,1.26
4170.00,1.26
4169.00,1.26
4168.00,1.26
4167.00,1.26
4166.00,1.26
4165.00,1.26
4164.00,1.26
4163.00,1.26
4162.00,1.26
4161.00,1.26
4160.00,1.26
4159.00,1.25
4158.00,1.25
4157.00,1.25
4156.00,1.25
4155.00,1.26
4154.00,1.26
4153.00,1.26
4152.00,1.26
4151.00,1.26
4150.00,1.26
4149.00,1.26
4148.00,1.26
4147.00,1.26
4146.00,1.26
4145.00,1.26
4144.00,1.26
4143.00,1.27
4142.00,1.27
4141.00,1.27
4140.00,1.27
4139.00,1.27
4138.00,1.27
4137.00,1.27
4136.00,1.27
4135.00,1.27
4134.00,1.27
4133.00,1.28
4132.00,1.28
4131.00,1.28
4130.00,1.28
4129.00,1.28
4128.00,1.28
4127.00,1.28
4126.00,1.28
4125.00,1.29
4124.00,1.29
4123.00,1.29
4122.00,1.29
4121.00,1.29
4120.00,1.29
4119.00,1.29
4118.00,1.29
4117.00,1.29
4116.00,1.29
4115.00,1.29
4114.00,1.29
4113.00,1.29
4112.00,1.29
4111.00,1.29
4110.00,1.29
4109.00,1.29
4108.00,1.29
4107.00,1.29
4106.00,1.29
4105.00,1.29
4104.00,1.28
4103.00,1.28
4102.00,1.28
4101.00,1.28
4100.00,1.28
4099.00,1.28
4098.00,1.28
4097.00,1.28
4096.00,1.28
4095.00,1.28
4094.00,1.28
4093.00,1.28
4092.00,1.29
4091.00,1.29
4090.00,1.29
4089.00,1.29
4088.00,1.29
4087.00,1.29
4086.00,1.29
4085.00,1.29
4084.00,1.29
4083.00,1.29
4082.00,1.29
4081.00,1.29
4080.00,1.30
4079.00,1.30
4078.00,1.30
4077.00,1.30
4076.00,1.30
4075.00,1.30
4074.00,1.30
4073.00,1.30
4072.00,1.30
4071.00,1.30
4070.00,1.30
4069.00,1.30
4068.00,1.30
4067.00,1.30
4066.00,1.30
4065.00,1.30
4064.00,1.30
4063.00,1.30
4062.00,1.30
4061.00,1.30
4060.00,1.31
4059.00,1.31
4058.00,1.31
4057.00,1.31
4056.00,1.31
4055.00,1.31
4054.00,1.31
4053.00,1.31
4052.00,1.31
4051.00,1.31
4050.00,1.31
4049.00,1.31
4048.00,1.31
4047.00,1.32
4046.00,1.32
4045.00,1.32
4044.00,1.32
4043.00,1.32
4042.00,1.32
4041.00,1.32
4040.00,1.32
4039.00,1.32
4038.00,1.32
4037.00,1.32
4036.00,1.32
4035.00,1.33
4034.00,1.33
4033.00,1.33
4032.00,1.33
4031.00,1.33
4030.00,1.33
4029.00,1.33
4028.00,1.33
4027.00,1.33
4026.00,1.34
4025.00,1.34
4024.00,1.34
4023.00,1.34
4022.00,1.34
4021.00,1.34
4020.00,1.34
4019.00,1.34
4018.00,1.34
4017.00,1.34
4016.00,1.34
4015.00,1.34
4014.00,1.34
4013.00,1.34
4012.00,1.34
4011.00,1.34
4010.00,1.34
4009.00,1.34
4008.00,1.34
4007.00,1.34
4006.00,1.34
4005.00,1.34
4004.00,1.34
4003.00,1.34
4002.00,1.34
4001.00,1.34
4000.00,1.34
