创建为新数据集,样品 036 用户 Administrator 日期 星期二, 十月 31 2017
cm-1,%T
10000.00,1.15
9999.00,1.15
9998.00,1.15
9997.00,1.15
9996.00,1.15
9995.00,1.15
9994.00,1.15
9993.00,1.15
9992.00,1.15
9991.00,1.15
9990.00,1.15
9989.00,1.15
9988.00,1.15
9987.00,1.15
9986.00,1.15
9985.00,1.15
9984.00,1.15
9983.00,1.15
9982.00,1.15
9981.00,1.15
9980.00,1.15
9979.00,1.15
9978.00,1.15
9977.00,1.15
9976.00,1.15
9975.00,1.15
9974.00,1.15
9973.00,1.15
9972.00,1.15
9971.00,1.14
9970.00,1.14
9969.00,1.14
9968.00,1.14
9967.00,1.14
9966.00,1.14
9965.00,1.14
9964.00,1.14
9963.00,1.13
9962.00,1.13
9961.00,1.13
9960.00,1.13
9959.00,1.13
9958.00,1.12
9957.00,1.12
9956.00,1.12
9955.00,1.12
9954.00,1.11
9953.00,1.11
9952.00,1.11
9951.00,1.11
9950.00,1.10
9949.00,1.10
9948.00,1.10
9947.00,1.10
9946.00,1.10
9945.00,1.10
9944.00,1.10
9943.00,1.10
9942.00,1.10
9941.00,1.10
9940.00,1.11
9939.00,1.11
9938.00,1.11
9937.00,1.11
9936.00,1.11
9935.00,1.11
9934.00,1.11
9933.00,1.11
9932.00,1.11
9931.00,1.11
9930.00,1.11
9929.00,1.10
9928.00,1.10
9927.00,1.10
9926.00,1.11
9925.00,1.11
9924.00,1.11
9923.00,1.11
9922.00,1.11
9921.00,1.11
9920.00,1.11
9919.00,1.11
9918.00,1.11
9917.00,1.12
9916.00,1.12
9915.00,1.12
9914.00,1.12
9913.00,1.12
9912.00,1.12
9911.00,1.12
9910.00,1.12
9909.00,1.13
9908.00,1.13
9907.00,1.13
9906.00,1.13
9905.00,1.13
9904.00,1.13
9903.00,1.13
9902.00,1.14
9901.00,1.14
9900.00,1.14
9899.00,1.14
9898.00,1.14
9897.00,1.14
9896.00,1.15
9895.00,1.15
9894.00,1.15
9893.00,1.15
9892.00,1.15
9891.00,1.15
9890.00,1.15
9889.00,1.15
9888.00,1.15
9887.00,1.14
9886.00,1.14
9885.00,1.14
9884.00,1.14
9883.00,1.14
9882.00,1.13
9881.00,1.13
9880.00,1.13
9879.00,1.13
9878.00,1.13
9877.00,1.12
9876.00,1.12
9875.00,1.12
9874.00,1.12
9873.00,1.12
9872.00,1.12
9871.00,1.12
9870.00,1.12
9869.00,1.12
9868.00,1.12
9867.00,1.11
9866.00,1.11
9865.00,1.11
9864.00,1.11
9863.00,1.11
9862.00,1.11
9861.00,1.11
9860.00,1.11
9859.00,1.11
9858.00,1.11
9857.00,1.11
9856.00,1.10
9855.00,1.10
9854.00,1.10
9853.00,1.10
9852.00,1.10
9851.00,1.11
9850.00,1.11
9849.00,1.11
9848.00,1.11
9847.00,1.11
9846.00,1.11
9845.00,1.11
9844.00,1.10
9843.00,1.10
9842.00,1.10
9841.00,1.10
9840.00,1.10
9839.00,1.10
9838.00,1.10
9837.00,1.09
9836.00,1.09
9835.00,1.09
9834.00,1.09
9833.00,1.09
9832.00,1.09
9831.00,1.09
9830.00,1.09
9829.00,1.09
9828.00,1.09
9827.00,1.09
9826.00,1.09
9825.00,1.10
9824.00,1.10
9823.00,1.10
9822.00,1.10
9821.00,1.10
9820.00,1.10
9819.00,1.10
9818.00,1.11
9817.00,1.11
9816.00,1.11
9815.00,1.11
9814.00,1.11
9813.00,1.11
9812.00,1.12
9811.00,1.12
9810.00,1.12
9809.00,1.12
9808.00,1.12
9807.00,1.12
9806.00,1.12
9805.00,1.13
9804.00,1.13
9803.00,1.13
9802.00,1.13
9801.00,1.13
9800.00,1.13
9799.00,1.13
9798.00,1.13
9797.00,1.13
9796.00,1.12
9795.00,1.12
9794.00,1.12
9793.00,1.12
9792.00,1.12
9791.00,1.11
9790.00,1.11
9789.00,1.11
9788.00,1.11
9787.00,1.11
9786.00,1.11
9785.00,1.11
9784.00,1.11
9783.00,1.11
9782.00,1.11
9781.00,1.11
9780.00,1.11
9779.00,1.11
9778.00,1.12
9777.00,1.12
9776.00,1.12
9775.00,1.12
9774.00,1.13
9773.00,1.13
9772.00,1.13
9771.00,1.14
9770.00,1.14
9769.00,1.14
9768.00,1.14
9767.00,1.14
9766.00,1.15
9765.00,1.15
9764.00,1.15
9763.00,1.15
9762.00,1.15
9761.00,1.15
9760.00,1.15
9759.00,1.15
9758.00,1.15
9757.00,1.15
9756.00,1.14
9755.00,1.14
9754.00,1.14
9753.00,1.14
9752.00,1.14
9751.00,1.14
9750.00,1.14
9749.00,1.13
9748.00,1.13
9747.00,1.13
9746.00,1.13
9745.00,1.13
9744.00,1.13
9743.00,1.13
9742.00,1.12
9741.00,1.12
9740.00,1.12
9739.00,1.12
9738.00,1.12
9737.00,1.12
9736.00,1.12
9735.00,1.11
9734.00,1.11
9733.00,1.11
9732.00,1.11
9731.00,1.11
9730.00,1.11
9729.00,1.11
9728.00,1.11
9727.00,1.11
9726.00,1.11
9725.00,1.11
9724.00,1.11
9723.00,1.11
9722.00,1.11
9721.00,1.11
9720.00,1.11
9719.00,1.11
9718.00,1.11
9717.00,1.11
9716.00,1.12
9715.00,1.12
9714.00,1.12
9713.00,1.12
9712.00,1.12
9711.00,1.12
9710.00,1.12
9709.00,1.12
9708.00,1.12
9707.00,1.12
9706.00,1.12
9705.00,1.12
9704.00,1.11
9703.00,1.11
9702.00,1.11
9701.00,1.11
9700.00,1.11
9699.00,1.11
9698.00,1.10
9697.00,1.10
9696.00,1.10
9695.00,1.10
9694.00,1.10
9693.00,1.10
9692.00,1.10
9691.00,1.10
9690.00,1.10
9689.00,1.10
9688.00,1.10
9687.00,1.10
9686.00,1.10
9685.00,1.10
9684.00,1.11
9683.00,1.11
9682.00,1.11
9681.00,1.11
9680.00,1.11
9679.00,1.11
9678.00,1.11
9677.00,1.11
9676.00,1.11
9675.00,1.11
9674.00,1.11
9673.00,1.11
9672.00,1.11
9671.00,1.11
9670.00,1.11
9669.00,1.11
9668.00,1.11
9667.00,1.11
9666.00,1.11
9665.00,1.11
9664.00,1.11
9663.00,1.10
9662.00,1.10
9661.00,1.10
9660.00,1.10
9659.00,1.10
9658.00,1.10
9657.00,1.10
9656.00,1.10
9655.00,1.10
9654.00,1.10
9653.00,1.10
9652.00,1.10
9651.00,1.10
9650.00,1.10
9649.00,1.10
9648.00,1.10
9647.00,1.10
9646.00,1.10
9645.00,1.10
9644.00,1.10
9643.00,1.11
9642.00,1.11
9641.00,1.11
9640.00,1.11
9639.00,1.11
9638.00,1.12
9637.00,1.12
9636.00,1.12
9635.00,1.12
9634.00,1.12
9633.00,1.12
9632.00,1.12
9631.00,1.12
9630.00,1.12
9629.00,1.12
9628.00,1.12
9627.00,1.12
9626.00,1.12
9625.00,1.12
9624.00,1.12
9623.00,1.12
9622.00,1.12
9621.00,1.11
9620.00,1.11
9619.00,1.11
9618.00,1.11
9617.00,1.11
9616.00,1.10
9615.00,1.10
9614.00,1.10
9613.00,1.10
9612.00,1.10
9611.00,1.09
9610.00,1.09
9609.00,1.09
9608.00,1.09
9607.00,1.09
9606.00,1.09
9605.00,1.09
9604.00,1.09
9603.00,1.09
9602.00,1.09
9601.00,1.09
9600.00,1.09
9599.00,1.09
9598.00,1.09
9597.00,1.09
9596.00,1.09
9595.00,1.09
9594.00,1.09
9593.00,1.10
9592.00,1.10
9591.00,1.10
9590.00,1.10
9589.00,1.10
9588.00,1.10
9587.00,1.10
9586.00,1.10
9585.00,1.11
9584.00,1.11
9583.00,1.11
9582.00,1.11
9581.00,1.11
9580.00,1.11
9579.00,1.11
9578.00,1.10
9577.00,1.10
9576.00,1.10
9575.00,1.10
9574.00,1.10
9573.00,1.10
9572.00,1.10
9571.00,1.10
9570.00,1.09
9569.00,1.09
9568.00,1.09
9567.00,1.09
9566.00,1.09
9565.00,1.09
9564.00,1.09
9563.00,1.09
9562.00,1.10
9561.00,1.10
9560.00,1.10
9559.00,1.10
9558.00,1.11
9557.00,1.11
9556.00,1.11
9555.00,1.12
9554.00,1.12
9553.00,1.12
9552.00,1.13
9551.00,1.13
9550.00,1.13
9549.00,1.13
9548.00,1.14
9547.00,1.14
9546.00,1.14
9545.00,1.14
9544.00,1.14
9543.00,1.14
9542.00,1.14
9541.00,1.14
9540.00,1.14
9539.00,1.13
9538.00,1.13
9537.00,1.13
9536.00,1.13
9535.00,1.13
9534.00,1.13
9533.00,1.12
9532.00,1.12
9531.00,1.12
9530.00,1.12
9529.00,1.12
9528.00,1.12
9527.00,1.13
9526.00,1.13
9525.00,1.13
9524.00,1.13
9523.00,1.13
9522.00,1.14
9521.00,1.14
9520.00,1.14
9519.00,1.14
9518.00,1.14
9517.00,1.14
9516.00,1.14
9515.00,1.15
9514.00,1.15
9513.00,1.15
9512.00,1.15
9511.00,1.15
9510.00,1.15
9509.00,1.14
9508.00,1.14
9507.00,1.14
9506.00,1.14
9505.00,1.14
9504.00,1.14
9503.00,1.14
9502.00,1.13
9501.00,1.13
9500.00,1.13
9499.00,1.13
9498.00,1.13
9497.00,1.13
9496.00,1.13
9495.00,1.13
9494.00,1.13
9493.00,1.13
9492.00,1.12
9491.00,1.13
9490.00,1.13
9489.00,1.13
9488.00,1.13
9487.00,1.13
9486.00,1.13
9485.00,1.13
9484.00,1.13
9483.00,1.13
9482.00,1.13
9481.00,1.13
9480.00,1.13
9479.00,1.13
9478.00,1.13
9477.00,1.13
9476.00,1.13
9475.00,1.13
9474.00,1.13
9473.00,1.13
9472.00,1.13
9471.00,1.13
9470.00,1.12
9469.00,1.12
9468.00,1.12
9467.00,1.12
9466.00,1.12
9465.00,1.12
9464.00,1.12
9463.00,1.12
9462.00,1.12
9461.00,1.12
9460.00,1.12
9459.00,1.12
9458.00,1.12
9457.00,1.12
9456.00,1.12
9455.00,1.12
9454.00,1.12
9453.00,1.12
9452.00,1.12
9451.00,1.12
9450.00,1.12
9449.00,1.12
9448.00,1.12
9447.00,1.12
9446.00,1.12
9445.00,1.12
9444.00,1.12
9443.00,1.12
9442.00,1.12
9441.00,1.12
9440.00,1.12
9439.00,1.12
9438.00,1.12
9437.00,1.12
9436.00,1.12
9435.00,1.12
9434.00,1.12
9433.00,1.12
9432.00,1.12
9431.00,1.12
9430.00,1.12
9429.00,1.12
9428.00,1.12
9427.00,1.12
9426.00,1.12
9425.00,1.12
9424.00,1.12
9423.00,1.12
9422.00,1.12
9421.00,1.12
9420.00,1.12
9419.00,1.12
9418.00,1.12
9417.00,1.12
9416.00,1.13
9415.00,1.13
9414.00,1.13
9413.00,1.13
9412.00,1.13
9411.00,1.13
9410.00,1.13
9409.00,1.13
9408.00,1.13
9407.00,1.13
9406.00,1.13
9405.00,1.12
9404.00,1.12
9403.00,1.12
9402.00,1.12
9401.00,1.11
9400.00,1.11
9399.00,1.11
9398.00,1.11
9397.00,1.11
9396.00,1.11
9395.00,1.11
9394.00,1.10
9393.00,1.11
9392.00,1.11
9391.00,1.11
9390.00,1.11
9389.00,1.11
9388.00,1.11
9387.00,1.11
9386.00,1.11
9385.00,1.11
9384.00,1.11
9383.00,1.11
9382.00,1.12
9381.00,1.12
9380.00,1.12
9379.00,1.12
9378.00,1.12
9377.00,1.12
9376.00,1.11
9375.00,1.11
9374.00,1.11
9373.00,1.11
9372.00,1.11
9371.00,1.11
9370.00,1.11
9369.00,1.12
9368.00,1.12
9367.00,1.12
9366.00,1.12
9365.00,1.12
9364.00,1.12
9363.00,1.12
9362.00,1.12
9361.00,1.12
9360.00,1.12
9359.00,1.13
9358.00,1.13
9357.00,1.13
9356.00,1.13
9355.00,1.13
9354.00,1.13
9353.00,1.13
9352.00,1.13
9351.00,1.13
9350.00,1.13
9349.00,1.13
9348.00,1.13
9347.00,1.13
9346.00,1.13
9345.00,1.13
9344.00,1.13
9343.00,1.13
9342.00,1.12
9341.00,1.12
9340.00,1.12
9339.00,1.12
9338.00,1.11
9337.00,1.11
9336.00,1.11
9335.00,1.11
9334.00,1.10
9333.00,1.10
9332.00,1.10
9331.00,1.10
9330.00,1.10
9329.00,1.10
9328.00,1.10
9327.00,1.10
9326.00,1.10
9325.00,1.10
9324.00,1.10
9323.00,1.10
9322.00,1.10
9321.00,1.10
9320.00,1.10
9319.00,1.10
9318.00,1.10
9317.00,1.10
9316.00,1.10
9315.00,1.10
9314.00,1.11
9313.00,1.11
9312.00,1.11
9311.00,1.11
9310.00,1.11
9309.00,1.11
9308.00,1.11
9307.00,1.11
9306.00,1.11
9305.00,1.11
9304.00,1.11
9303.00,1.11
9302.00,1.11
9301.00,1.11
9300.00,1.11
9299.00,1.11
9298.00,1.11
9297.00,1.11
9296.00,1.11
9295.00,1.11
9294.00,1.11
9293.00,1.11
9292.00,1.11
9291.00,1.11
9290.00,1.11
9289.00,1.11
9288.00,1.11
9287.00,1.11
9286.00,1.11
9285.00,1.11
9284.00,1.11
9283.00,1.12
9282.00,1.12
9281.00,1.12
9280.00,1.12
9279.00,1.12
9278.00,1.12
9277.00,1.12
9276.00,1.12
9275.00,1.12
9274.00,1.13
9273.00,1.13
9272.00,1.13
9271.00,1.13
9270.00,1.13
9269.00,1.13
9268.00,1.13
9267.00,1.13
9266.00,1.12
9265.00,1.12
9264.00,1.12
9263.00,1.12
9262.00,1.12
9261.00,1.12
9260.00,1.12
9259.00,1.11
9258.00,1.11
9257.00,1.11
9256.00,1.11
9255.00,1.11
9254.00,1.11
9253.00,1.10
9252.00,1.10
9251.00,1.10
9250.00,1.10
9249.00,1.10
9248.00,1.10
9247.00,1.10
9246.00,1.10
9245.00,1.11
9244.00,1.11
9243.00,1.11
9242.00,1.11
9241.00,1.11
9240.00,1.12
9239.00,1.12
9238.00,1.12
9237.00,1.13
9236.00,1.13
9235.00,1.13
9234.00,1.13
9233.00,1.13
9232.00,1.13
9231.00,1.13
9230.00,1.13
9229.00,1.13
9228.00,1.13
9227.00,1.13
9226.00,1.13
9225.00,1.13
9224.00,1.13
9223.00,1.13
9222.00,1.13
9221.00,1.12
9220.00,1.12
9219.00,1.12
9218.00,1.12
9217.00,1.12
9216.00,1.12
9215.00,1.12
9214.00,1.12
9213.00,1.12
9212.00,1.12
9211.00,1.12
9210.00,1.12
9209.00,1.12
9208.00,1.12
9207.00,1.12
9206.00,1.12
9205.00,1.12
9204.00,1.12
9203.00,1.12
9202.00,1.12
9201.00,1.12
9200.00,1.12
9199.00,1.13
9198.00,1.13
9197.00,1.13
9196.00,1.13
9195.00,1.13
9194.00,1.13
9193.00,1.13
9192.00,1.13
9191.00,1.13
9190.00,1.13
9189.00,1.13
9188.00,1.13
9187.00,1.13
9186.00,1.13
9185.00,1.13
9184.00,1.13
9183.00,1.14
9182.00,1.14
9181.00,1.14
9180.00,1.14
9179.00,1.14
9178.00,1.14
9177.00,1.14
9176.00,1.14
9175.00,1.14
9174.00,1.14
9173.00,1.14
9172.00,1.14
9171.00,1.14
9170.00,1.14
9169.00,1.14
9168.00,1.14
9167.00,1.14
9166.00,1.14
9165.00,1.14
9164.00,1.13
9163.00,1.13
9162.00,1.13
9161.00,1.13
9160.00,1.13
9159.00,1.13
9158.00,1.13
9157.00,1.13
9156.00,1.13
9155.00,1.13
9154.00,1.13
9153.00,1.12
9152.00,1.12
9151.00,1.12
9150.00,1.12
9149.00,1.12
9148.00,1.12
9147.00,1.12
9146.00,1.12
9145.00,1.13
9144.00,1.13
9143.00,1.13
9142.00,1.13
9141.00,1.13
9140.00,1.13
9139.00,1.13
9138.00,1.13
9137.00,1.13
9136.00,1.13
9135.00,1.13
9134.00,1.13
9133.00,1.13
9132.00,1.13
9131.00,1.12
9130.00,1.12
9129.00,1.12
9128.00,1.12
9127.00,1.12
9126.00,1.12
9125.00,1.12
9124.00,1.12
9123.00,1.12
9122.00,1.11
9121.00,1.11
9120.00,1.11
9119.00,1.11
9118.00,1.11
9117.00,1.11
9116.00,1.11
9115.00,1.11
9114.00,1.11
9113.00,1.11
9112.00,1.11
9111.00,1.11
9110.00,1.11
9109.00,1.12
9108.00,1.12
9107.00,1.12
9106.00,1.12
9105.00,1.12
9104.00,1.12
9103.00,1.12
9102.00,1.12
9101.00,1.12
9100.00,1.12
9099.00,1.12
9098.00,1.13
9097.00,1.13
9096.00,1.13
9095.00,1.13
9094.00,1.13
9093.00,1.13
9092.00,1.13
9091.00,1.13
9090.00,1.13
9089.00,1.13
9088.00,1.13
9087.00,1.13
9086.00,1.13
9085.00,1.13
9084.00,1.13
9083.00,1.13
9082.00,1.13
9081.00,1.13
9080.00,1.13
9079.00,1.13
9078.00,1.13
9077.00,1.13
9076.00,1.13
9075.00,1.13
9074.00,1.13
9073.00,1.13
9072.00,1.13
9071.00,1.13
9070.00,1.13
9069.00,1.13
9068.00,1.13
9067.00,1.13
9066.00,1.13
9065.00,1.13
9064.00,1.13
9063.00,1.13
9062.00,1.13
9061.00,1.13
9060.00,1.13
9059.00,1.13
9058.00,1.13
9057.00,1.13
9056.00,1.13
9055.00,1.13
9054.00,1.13
9053.00,1.13
9052.00,1.13
9051.00,1.13
9050.00,1.13
9049.00,1.13
9048.00,1.13
9047.00,1.13
9046.00,1.13
9045.00,1.13
9044.00,1.13
9043.00,1.14
9042.00,1.14
9041.00,1.14
9040.00,1.14
9039.00,1.14
9038.00,1.14
9037.00,1.14
9036.00,1.14
9035.00,1.14
9034.00,1.15
9033.00,1.15
9032.00,1.15
9031.00,1.15
9030.00,1.15
9029.00,1.15
9028.00,1.15
9027.00,1.15
9026.00,1.15
9025.00,1.15
9024.00,1.15
9023.00,1.15
9022.00,1.15
9021.00,1.15
9020.00,1.14
9019.00,1.14
9018.00,1.14
9017.00,1.14
9016.00,1.14
9015.00,1.14
9014.00,1.14
9013.00,1.14
9012.00,1.14
9011.00,1.14
9010.00,1.14
9009.00,1.14
9008.00,1.14
9007.00,1.14
9006.00,1.14
9005.00,1.13
9004.00,1.13
9003.00,1.13
9002.00,1.13
9001.00,1.13
9000.00,1.12
8999.00,1.12
8998.00,1.12
8997.00,1.12
8996.00,1.12
8995.00,1.11
8994.00,1.11
8993.00,1.11
8992.00,1.11
8991.00,1.11
8990.00,1.11
8989.00,1.11
8988.00,1.11
8987.00,1.11
8986.00,1.11
8985.00,1.11
8984.00,1.11
8983.00,1.11
8982.00,1.11
8981.00,1.11
8980.00,1.12
8979.00,1.12
8978.00,1.12
8977.00,1.12
8976.00,1.12
8975.00,1.12
8974.00,1.12
8973.00,1.12
8972.00,1.12
8971.00,1.12
8970.00,1.12
8969.00,1.12
8968.00,1.12
8967.00,1.12
8966.00,1.12
8965.00,1.12
8964.00,1.12
8963.00,1.12
8962.00,1.12
8961.00,1.12
8960.00,1.12
8959.00,1.12
8958.00,1.12
8957.00,1.12
8956.00,1.12
8955.00,1.12
8954.00,1.12
8953.00,1.12
8952.00,1.12
8951.00,1.12
8950.00,1.12
8949.00,1.12
8948.00,1.12
8947.00,1.12
8946.00,1.12
8945.00,1.12
8944.00,1.12
8943.00,1.12
8942.00,1.12
8941.00,1.12
8940.00,1.12
8939.00,1.12
8938.00,1.12
8937.00,1.12
8936.00,1.11
8935.00,1.11
8934.00,1.11
8933.00,1.11
8932.00,1.11
8931.00,1.11
8930.00,1.10
8929.00,1.10
8928.00,1.10
8927.00,1.10
8926.00,1.10
8925.00,1.10
8924.00,1.10
8923.00,1.10
8922.00,1.10
8921.00,1.10
8920.00,1.10
8919.00,1.10
8918.00,1.10
8917.00,1.10
8916.00,1.10
8915.00,1.10
8914.00,1.10
8913.00,1.10
8912.00,1.11
8911.00,1.11
8910.00,1.11
8909.00,1.11
8908.00,1.11
8907.00,1.11
8906.00,1.11
8905.00,1.11
8904.00,1.11
8903.00,1.11
8902.00,1.11
8901.00,1.11
8900.00,1.11
8899.00,1.11
8898.00,1.11
8897.00,1.12
8896.00,1.12
8895.00,1.12
8894.00,1.12
8893.00,1.12
8892.00,1.13
8891.00,1.13
8890.00,1.13
8889.00,1.13
8888.00,1.13
8887.00,1.14
8886.00,1.14
8885.00,1.14
8884.00,1.14
8883.00,1.14
8882.00,1.14
8881.00,1.14
8880.00,1.13
8879.00,1.13
8878.00,1.13
8877.00,1.13
8876.00,1.13
8875.00,1.13
8874.00,1.12
8873.00,1.12
8872.00,1.12
8871.00,1.12
8870.00,1.12
8869.00,1.12
8868.00,1.11
8867.00,1.11
8866.00,1.11
8865.00,1.11
8864.00,1.11
8863.00,1.11
8862.00,1.11
8861.00,1.11
8860.00,1.11
8859.00,1.11
8858.00,1.12
8857.00,1.12
8856.00,1.12
8855.00,1.12
8854.00,1.12
8853.00,1.12
8852.00,1.12
8851.00,1.12
8850.00,1.12
8849.00,1.13
8848.00,1.13
8847.00,1.13
8846.00,1.13
8845.00,1.13
8844.00,1.13
8843.00,1.12
8842.00,1.12
8841.00,1.12
8840.00,1.12
8839.00,1.12
8838.00,1.12
8837.00,1.12
8836.00,1.12
8835.00,1.11
8834.00,1.11
8833.00,1.11
8832.00,1.11
8831.00,1.11
8830.00,1.11
8829.00,1.11
8828.00,1.11
8827.00,1.10
8826.00,1.10
8825.00,1.10
8824.00,1.10
8823.00,1.10
8822.00,1.10
8821.00,1.10
8820.00,1.10
8819.00,1.11
8818.00,1.11
8817.00,1.11
8816.00,1.11
8815.00,1.11
8814.00,1.11
8813.00,1.11
8812.00,1.11
8811.00,1.11
8810.00,1.11
8809.00,1.11
8808.00,1.11
8807.00,1.11
8806.00,1.11
8805.00,1.11
8804.00,1.11
8803.00,1.11
8802.00,1.11
8801.00,1.11
8800.00,1.11
8799.00,1.11
8798.00,1.11
8797.00,1.11
8796.00,1.10
8795.00,1.10
8794.00,1.10
8793.00,1.10
8792.00,1.10
8791.00,1.10
8790.00,1.10
8789.00,1.10
8788.00,1.10
8787.00,1.10
8786.00,1.10
8785.00,1.10
8784.00,1.10
8783.00,1.10
8782.00,1.10
8781.00,1.10
8780.00,1.10
8779.00,1.10
8778.00,1.10
8777.00,1.10
8776.00,1.10
8775.00,1.10
8774.00,1.10
8773.00,1.11
8772.00,1.11
8771.00,1.11
8770.00,1.11
8769.00,1.11
8768.00,1.11
8767.00,1.12
8766.00,1.12
8765.00,1.12
8764.00,1.12
8763.00,1.12
8762.00,1.12
8761.00,1.12
8760.00,1.12
8759.00,1.11
8758.00,1.11
8757.00,1.11
8756.00,1.11
8755.00,1.11
8754.00,1.10
8753.00,1.10
8752.00,1.10
8751.00,1.10
8750.00,1.09
8749.00,1.09
8748.00,1.09
8747.00,1.09
8746.00,1.08
8745.00,1.08
8744.00,1.08
8743.00,1.08
8742.00,1.08
8741.00,1.08
8740.00,1.08
8739.00,1.08
8738.00,1.08
8737.00,1.08
8736.00,1.08
8735.00,1.08
8734.00,1.08
8733.00,1.08
8732.00,1.09
8731.00,1.09
8730.00,1.09
8729.00,1.09
8728.00,1.09
8727.00,1.10
8726.00,1.10
8725.00,1.10
8724.00,1.10
8723.00,1.10
8722.00,1.10
8721.00,1.10
8720.00,1.11
8719.00,1.11
8718.00,1.11
8717.00,1.11
8716.00,1.11
8715.00,1.11
8714.00,1.11
8713.00,1.11
8712.00,1.11
8711.00,1.10
8710.00,1.10
8709.00,1.10
8708.00,1.10
8707.00,1.10
8706.00,1.10
8705.00,1.10
8704.00,1.10
8703.00,1.10
8702.00,1.10
8701.00,1.10
8700.00,1.10
8699.00,1.10
8698.00,1.09
8697.00,1.09
8696.00,1.09
8695.00,1.09
8694.00,1.09
8693.00,1.09
8692.00,1.09
8691.00,1.09
8690.00,1.09
8689.00,1.09
8688.00,1.09
8687.00,1.09
8686.00,1.09
8685.00,1.09
8684.00,1.09
8683.00,1.09
8682.00,1.09
8681.00,1.09
8680.00,1.09
8679.00,1.09
8678.00,1.09
8677.00,1.09
8676.00,1.09
8675.00,1.09
8674.00,1.09
8673.00,1.09
8672.00,1.09
8671.00,1.09
8670.00,1.09
8669.00,1.09
8668.00,1.09
8667.00,1.09
8666.00,1.09
8665.00,1.09
8664.00,1.09
8663.00,1.09
8662.00,1.09
8661.00,1.09
8660.00,1.09
8659.00,1.09
8658.00,1.09
8657.00,1.08
8656.00,1.08
8655.00,1.08
8654.00,1.08
8653.00,1.08
8652.00,1.08
8651.00,1.08
8650.00,1.08
8649.00,1.08
8648.00,1.07
8647.00,1.07
8646.00,1.07
8645.00,1.07
8644.00,1.07
8643.00,1.07
8642.00,1.07
8641.00,1.08
8640.00,1.08
8639.00,1.08
8638.00,1.08
8637.00,1.08
8636.00,1.08
8635.00,1.08
8634.00,1.08
8633.00,1.08
8632.00,1.08
8631.00,1.08
8630.00,1.08
8629.00,1.08
8628.00,1.08
8627.00,1.08
8626.00,1.08
8625.00,1.07
8624.00,1.07
8623.00,1.07
8622.00,1.07
8621.00,1.07
8620.00,1.07
8619.00,1.07
8618.00,1.07
8617.00,1.06
8616.00,1.06
8615.00,1.06
8614.00,1.06
8613.00,1.06
8612.00,1.06
8611.00,1.06
8610.00,1.06
8609.00,1.06
8608.00,1.06
8607.00,1.06
8606.00,1.06
8605.00,1.07
8604.00,1.07
8603.00,1.07
8602.00,1.07
8601.00,1.07
8600.00,1.07
8599.00,1.07
8598.00,1.07
8597.00,1.07
8596.00,1.07
8595.00,1.07
8594.00,1.07
8593.00,1.07
8592.00,1.07
8591.00,1.07
8590.00,1.07
8589.00,1.07
8588.00,1.07
8587.00,1.07
8586.00,1.07
8585.00,1.07
8584.00,1.07
8583.00,1.07
8582.00,1.07
8581.00,1.07
8580.00,1.07
8579.00,1.07
8578.00,1.07
8577.00,1.07
8576.00,1.07
8575.00,1.07
8574.00,1.07
8573.00,1.07
8572.00,1.07
8571.00,1.07
8570.00,1.07
8569.00,1.07
8568.00,1.07
8567.00,1.07
8566.00,1.07
8565.00,1.06
8564.00,1.06
8563.00,1.06
8562.00,1.06
8561.00,1.06
8560.00,1.06
8559.00,1.06
8558.00,1.06
8557.00,1.06
8556.00,1.06
8555.00,1.06
8554.00,1.06
8553.00,1.06
8552.00,1.06
8551.00,1.06
8550.00,1.06
8549.00,1.06
8548.00,1.06
8547.00,1.06
8546.00,1.06
8545.00,1.06
8544.00,1.06
8543.00,1.06
8542.00,1.06
8541.00,1.06
8540.00,1.06
8539.00,1.05
8538.00,1.05
8537.00,1.05
8536.00,1.05
8535.00,1.05
8534.00,1.05
8533.00,1.05
8532.00,1.05
8531.00,1.05
8530.00,1.05
8529.00,1.05
8528.00,1.05
8527.00,1.05
8526.00,1.05
8525.00,1.05
8524.00,1.05
8523.00,1.05
8522.00,1.05
8521.00,1.05
8520.00,1.05
8519.00,1.05
8518.00,1.05
8517.00,1.05
8516.00,1.06
8515.00,1.06
8514.00,1.06
8513.00,1.06
8512.00,1.06
8511.00,1.06
8510.00,1.06
8509.00,1.06
8508.00,1.06
8507.00,1.06
8506.00,1.05
8505.00,1.05
8504.00,1.05
8503.00,1.05
8502.00,1.05
8501.00,1.05
8500.00,1.05
8499.00,1.05
8498.00,1.05
8497.00,1.05
8496.00,1.05
8495.00,1.05
8494.00,1.05
8493.00,1.04
8492.00,1.04
8491.00,1.04
8490.00,1.04
8489.00,1.04
8488.00,1.04
8487.00,1.04
8486.00,1.04
8485.00,1.04
8484.00,1.04
8483.00,1.04
8482.00,1.04
8481.00,1.04
8480.00,1.04
8479.00,1.04
8478.00,1.04
8477.00,1.04
8476.00,1.04
8475.00,1.04
8474.00,1.04
8473.00,1.04
8472.00,1.04
8471.00,1.04
8470.00,1.04
8469.00,1.04
8468.00,1.04
8467.00,1.04
8466.00,1.04
8465.00,1.04
8464.00,1.04
8463.00,1.04
8462.00,1.04
8461.00,1.04
8460.00,1.04
8459.00,1.04
8458.00,1.04
8457.00,1.04
8456.00,1.04
8455.00,1.03
8454.00,1.03
8453.00,1.03
8452.00,1.03
8451.00,1.03
8450.00,1.03
8449.00,1.03
8448.00,1.03
8447.00,1.03
8446.00,1.03
8445.00,1.03
8444.00,1.02
8443.00,1.02
8442.00,1.02
8441.00,1.02
8440.00,1.02
8439.00,1.02
8438.00,1.02
8437.00,1.02
8436.00,1.02
8435.00,1.02
8434.00,1.02
8433.00,1.02
8432.00,1.02
8431.00,1.02
8430.00,1.02
8429.00,1.02
8428.00,1.02
8427.00,1.02
8426.00,1.02
8425.00,1.02
8424.00,1.02
8423.00,1.02
8422.00,1.02
8421.00,1.02
8420.00,1.02
8419.00,1.02
8418.00,1.02
8417.00,1.02
8416.00,1.02
8415.00,1.02
8414.00,1.02
8413.00,1.02
8412.00,1.02
8411.00,1.02
8410.00,1.02
8409.00,1.02
8408.00,1.02
8407.00,1.02
8406.00,1.02
8405.00,1.02
8404.00,1.02
8403.00,1.02
8402.00,1.02
8401.00,1.03
8400.00,1.03
8399.00,1.03
8398.00,1.03
8397.00,1.03
8396.00,1.03
8395.00,1.03
8394.00,1.04
8393.00,1.04
8392.00,1.04
8391.00,1.04
8390.00,1.04
8389.00,1.04
8388.00,1.04
8387.00,1.05
8386.00,1.05
8385.00,1.05
8384.00,1.05
8383.00,1.05
8382.00,1.05
8381.00,1.05
8380.00,1.06
8379.00,1.06
8378.00,1.06
8377.00,1.06
8376.00,1.06
8375.00,1.06
8374.00,1.06
8373.00,1.06
8372.00,1.06
8371.00,1.06
8370.00,1.06
8369.00,1.06
8368.00,1.06
8367.00,1.06
8366.00,1.06
8365.00,1.06
8364.00,1.06
8363.00,1.06
8362.00,1.06
8361.00,1.05
8360.00,1.05
8359.00,1.05
8358.00,1.05
8357.00,1.04
8356.00,1.04
8355.00,1.04
8354.00,1.04
8353.00,1.04
8352.00,1.04
8351.00,1.04
8350.00,1.03
8349.00,1.03
8348.00,1.03
8347.00,1.03
8346.00,1.03
8345.00,1.04
8344.00,1.04
8343.00,1.04
8342.00,1.04
8341.00,1.04
8340.00,1.04
8339.00,1.04
8338.00,1.04
8337.00,1.04
8336.00,1.04
8335.00,1.04
8334.00,1.04
8333.00,1.04
8332.00,1.04
8331.00,1.04
8330.00,1.04
8329.00,1.04
8328.00,1.04
8327.00,1.04
8326.00,1.04
8325.00,1.04
8324.00,1.04
8323.00,1.04
8322.00,1.04
8321.00,1.05
8320.00,1.05
8319.00,1.05
8318.00,1.05
8317.00,1.05
8316.00,1.05
8315.00,1.05
8314.00,1.05
8313.00,1.05
8312.00,1.05
8311.00,1.05
8310.00,1.05
8309.00,1.05
8308.00,1.05
8307.00,1.05
8306.00,1.05
8305.00,1.05
8304.00,1.05
8303.00,1.05
8302.00,1.05
8301.00,1.05
8300.00,1.05
8299.00,1.04
8298.00,1.04
8297.00,1.04
8296.00,1.04
8295.00,1.04
8294.00,1.04
8293.00,1.04
8292.00,1.04
8291.00,1.04
8290.00,1.04
8289.00,1.04
8288.00,1.03
8287.00,1.03
8286.00,1.03
8285.00,1.03
8284.00,1.03
8283.00,1.03
8282.00,1.03
8281.00,1.04
8280.00,1.04
8279.00,1.04
8278.00,1.04
8277.00,1.04
8276.00,1.04
8275.00,1.04
8274.00,1.04
8273.00,1.05
8272.00,1.05
8271.00,1.05
8270.00,1.05
8269.00,1.05
8268.00,1.05
8267.00,1.06
8266.00,1.06
8265.00,1.06
8264.00,1.06
8263.00,1.06
8262.00,1.06
8261.00,1.06
8260.00,1.06
8259.00,1.06
8258.00,1.06
8257.00,1.06
8256.00,1.06
8255.00,1.06
8254.00,1.06
8253.00,1.06
8252.00,1.06
8251.00,1.06
8250.00,1.06
8249.00,1.06
8248.00,1.06
8247.00,1.06
8246.00,1.06
8245.00,1.06
8244.00,1.06
8243.00,1.06
8242.00,1.06
8241.00,1.06
8240.00,1.06
8239.00,1.06
8238.00,1.06
8237.00,1.06
8236.00,1.06
8235.00,1.06
8234.00,1.06
8233.00,1.06
8232.00,1.06
8231.00,1.07
8230.00,1.07
8229.00,1.07
8228.00,1.07
8227.00,1.07
8226.00,1.07
8225.00,1.07
8224.00,1.07
8223.00,1.07
8222.00,1.07
8221.00,1.07
8220.00,1.07
8219.00,1.07
8218.00,1.07
8217.00,1.07
8216.00,1.08
8215.00,1.08
8214.00,1.08
8213.00,1.08
8212.00,1.08
8211.00,1.08
8210.00,1.08
8209.00,1.08
8208.00,1.08
8207.00,1.08
8206.00,1.08
8205.00,1.08
8204.00,1.08
8203.00,1.08
8202.00,1.08
8201.00,1.08
8200.00,1.08
8199.00,1.08
8198.00,1.08
8197.00,1.08
8196.00,1.08
8195.00,1.08
8194.00,1.08
8193.00,1.08
8192.00,1.08
8191.00,1.08
8190.00,1.08
8189.00,1.08
8188.00,1.08
8187.00,1.08
8186.00,1.08
8185.00,1.08
8184.00,1.08
8183.00,1.09
8182.00,1.09
8181.00,1.09
8180.00,1.09
8179.00,1.09
8178.00,1.09
8177.00,1.09
8176.00,1.09
8175.00,1.09
8174.00,1.09
8173.00,1.09
8172.00,1.09
8171.00,1.09
8170.00,1.09
8169.00,1.09
8168.00,1.09
8167.00,1.09
8166.00,1.09
8165.00,1.09
8164.00,1.09
8163.00,1.09
8162.00,1.09
8161.00,1.09
8160.00,1.09
8159.00,1.09
8158.00,1.09
8157.00,1.09
8156.00,1.09
8155.00,1.09
8154.00,1.09
8153.00,1.09
8152.00,1.09
8151.00,1.09
8150.00,1.09
8149.00,1.09
8148.00,1.10
8147.00,1.10
8146.00,1.10
8145.00,1.10
8144.00,1.10
8143.00,1.10
8142.00,1.10
8141.00,1.10
8140.00,1.10
8139.00,1.10
8138.00,1.10
8137.00,1.10
8136.00,1.10
8135.00,1.10
8134.00,1.10
8133.00,1.10
8132.00,1.10
8131.00,1.10
8130.00,1.10
8129.00,1.10
8128.00,1.10
8127.00,1.10
8126.00,1.11
8125.00,1.11
8124.00,1.11
8123.00,1.11
8122.00,1.11
8121.00,1.11
8120.00,1.11
8119.00,1.11
8118.00,1.11
8117.00,1.11
8116.00,1.10
8115.00,1.10
8114.00,1.10
8113.00,1.10
8112.00,1.10
8111.00,1.10
8110.00,1.10
8109.00,1.10
8108.00,1.10
8107.00,1.10
8106.00,1.10
8105.00,1.10
8104.00,1.10
8103.00,1.10
8102.00,1.10
8101.00,1.10
8100.00,1.10
8099.00,1.11
8098.00,1.11
8097.00,1.11
8096.00,1.11
8095.00,1.11
8094.00,1.11
8093.00,1.11
8092.00,1.11
8091.00,1.11
8090.00,1.11
8089.00,1.11
8088.00,1.11
8087.00,1.11
8086.00,1.11
8085.00,1.11
8084.00,1.10
8083.00,1.10
8082.00,1.10
8081.00,1.10
8080.00,1.10
8079.00,1.10
8078.00,1.10
8077.00,1.10
8076.00,1.10
8075.00,1.10
8074.00,1.10
8073.00,1.10
8072.00,1.10
8071.00,1.10
8070.00,1.10
8069.00,1.10
8068.00,1.10
8067.00,1.10
8066.00,1.10
8065.00,1.10
8064.00,1.10
8063.00,1.10
8062.00,1.10
8061.00,1.10
8060.00,1.10
8059.00,1.10
8058.00,1.10
8057.00,1.10
8056.00,1.10
8055.00,1.10
8054.00,1.10
8053.00,1.10
8052.00,1.10
8051.00,1.10
8050.00,1.10
8049.00,1.10
8048.00,1.10
8047.00,1.10
8046.00,1.11
8045.00,1.11
8044.00,1.11
8043.00,1.11
8042.00,1.11
8041.00,1.11
8040.00,1.11
8039.00,1.12
8038.00,1.12
8037.00,1.12
8036.00,1.12
8035.00,1.12
8034.00,1.12
8033.00,1.12
8032.00,1.12
8031.00,1.12
8030.00,1.12
8029.00,1.12
8028.00,1.12
8027.00,1.12
8026.00,1.11
8025.00,1.11
8024.00,1.11
8023.00,1.11
8022.00,1.11
8021.00,1.11
8020.00,1.11
8019.00,1.11
8018.00,1.11
8017.00,1.11
8016.00,1.11
8015.00,1.11
8014.00,1.11
8013.00,1.11
8012.00,1.11
8011.00,1.11
8010.00,1.11
8009.00,1.11
8008.00,1.11
8007.00,1.11
8006.00,1.11
8005.00,1.11
8004.00,1.11
8003.00,1.11
8002.00,1.11
8001.00,1.11
8000.00,1.11
7999.00,1.11
7998.00,1.11
7997.00,1.11
7996.00,1.11
7995.00,1.11
7994.00,1.12
7993.00,1.12
7992.00,1.12
7991.00,1.12
7990.00,1.12
7989.00,1.12
7988.00,1.12
7987.00,1.12
7986.00,1.12
7985.00,1.12
7984.00,1.11
7983.00,1.11
7982.00,1.11
7981.00,1.11
7980.00,1.11
7979.00,1.11
7978.00,1.11
7977.00,1.10
7976.00,1.10
7975.00,1.10
7974.00,1.10
7973.00,1.10
7972.00,1.10
7971.00,1.10
7970.00,1.11
7969.00,1.11
7968.00,1.11
7967.00,1.11
7966.00,1.11
7965.00,1.11
7964.00,1.11
7963.00,1.11
7962.00,1.11
7961.00,1.12
7960.00,1.12
7959.00,1.12
7958.00,1.12
7957.00,1.12
7956.00,1.12
7955.00,1.12
7954.00,1.12
7953.00,1.12
7952.00,1.12
7951.00,1.12
7950.00,1.12
7949.00,1.12
7948.00,1.12
7947.00,1.12
7946.00,1.12
7945.00,1.12
7944.00,1.12
7943.00,1.12
7942.00,1.12
7941.00,1.12
7940.00,1.12
7939.00,1.12
7938.00,1.12
7937.00,1.12
7936.00,1.13
7935.00,1.13
7934.00,1.13
7933.00,1.13
7932.00,1.13
7931.00,1.13
7930.00,1.13
7929.00,1.13
7928.00,1.14
7927.00,1.14
7926.00,1.14
7925.00,1.14
7924.00,1.14
7923.00,1.14
7922.00,1.14
7921.00,1.14
7920.00,1.14
7919.00,1.14
7918.00,1.14
7917.00,1.14
7916.00,1.13
7915.00,1.13
7914.00,1.13
7913.00,1.13
7912.00,1.13
7911.00,1.13
7910.00,1.13
7909.00,1.12
7908.00,1.12
7907.00,1.12
7906.00,1.12
7905.00,1.12
7904.00,1.12
7903.00,1.12
7902.00,1.12
7901.00,1.12
7900.00,1.12
7899.00,1.12
7898.00,1.12
7897.00,1.12
7896.00,1.12
7895.00,1.12
7894.00,1.13
7893.00,1.13
7892.00,1.13
7891.00,1.13
7890.00,1.13
7889.00,1.13
7888.00,1.13
7887.00,1.13
7886.00,1.13
7885.00,1.13
7884.00,1.13
7883.00,1.13
7882.00,1.13
7881.00,1.14
7880.00,1.14
7879.00,1.14
7878.00,1.14
7877.00,1.14
7876.00,1.14
7875.00,1.14
7874.00,1.14
7873.00,1.14
7872.00,1.14
7871.00,1.14
7870.00,1.14
7869.00,1.14
7868.00,1.14
7867.00,1.14
7866.00,1.14
7865.00,1.14
7864.00,1.14
7863.00,1.14
7862.00,1.14
7861.00,1.14
7860.00,1.14
7859.00,1.14
7858.00,1.14
7857.00,1.14
7856.00,1.14
7855.00,1.14
7854.00,1.14
7853.00,1.14
7852.00,1.14
7851.00,1.14
7850.00,1.14
7849.00,1.14
7848.00,1.14
7847.00,1.14
7846.00,1.14
7845.00,1.14
7844.00,1.14
7843.00,1.14
7842.00,1.14
7841.00,1.14
7840.00,1.14
7839.00,1.14
7838.00,1.14
7837.00,1.14
7836.00,1.14
7835.00,1.14
7834.00,1.14
7833.00,1.14
7832.00,1.14
7831.00,1.14
7830.00,1.14
7829.00,1.14
7828.00,1.14
7827.00,1.14
7826.00,1.14
7825.00,1.14
7824.00,1.14
7823.00,1.14
7822.00,1.14
7821.00,1.14
7820.00,1.14
7819.00,1.14
7818.00,1.14
7817.00,1.14
7816.00,1.14
7815.00,1.14
7814.00,1.14
7813.00,1.14
7812.00,1.14
7811.00,1.14
7810.00,1.14
7809.00,1.14
7808.00,1.14
7807.00,1.14
7806.00,1.14
7805.00,1.14
7804.00,1.14
7803.00,1.14
7802.00,1.14
7801.00,1.14
7800.00,1.14
7799.00,1.14
7798.00,1.14
7797.00,1.14
7796.00,1.14
7795.00,1.14
7794.00,1.14
7793.00,1.14
7792.00,1.14
7791.00,1.14
7790.00,1.13
7789.00,1.13
7788.00,1.13
7787.00,1.13
7786.00,1.13
7785.00,1.13
7784.00,1.13
7783.00,1.13
7782.00,1.13
7781.00,1.13
7780.00,1.13
7779.00,1.13
7778.00,1.13
7777.00,1.13
7776.00,1.13
7775.00,1.13
7774.00,1.13
7773.00,1.13
7772.00,1.13
7771.00,1.13
7770.00,1.13
7769.00,1.13
7768.00,1.13
7767.00,1.14
7766.00,1.14
7765.00,1.14
7764.00,1.14
7763.00,1.14
7762.00,1.14
7761.00,1.14
7760.00,1.14
7759.00,1.14
7758.00,1.14
7757.00,1.14
7756.00,1.14
7755.00,1.14
7754.00,1.14
7753.00,1.15
7752.00,1.15
7751.00,1.15
7750.00,1.15
7749.00,1.15
7748.00,1.15
7747.00,1.15
7746.00,1.14
7745.00,1.14
7744.00,1.14
7743.00,1.14
7742.00,1.14
7741.00,1.14
7740.00,1.14
7739.00,1.14
7738.00,1.14
7737.00,1.14
7736.00,1.14
7735.00,1.14
7734.00,1.14
7733.00,1.14
7732.00,1.14
7731.00,1.14
7730.00,1.14
7729.00,1.14
7728.00,1.14
7727.00,1.14
7726.00,1.14
7725.00,1.14
7724.00,1.14
7723.00,1.14
7722.00,1.14
7721.00,1.14
7720.00,1.14
7719.00,1.14
7718.00,1.14
7717.00,1.14
7716.00,1.14
7715.00,1.14
7714.00,1.14
7713.00,1.14
7712.00,1.14
7711.00,1.13
7710.00,1.13
7709.00,1.13
7708.00,1.13
7707.00,1.13
7706.00,1.13
7705.00,1.13
7704.00,1.13
7703.00,1.13
7702.00,1.13
7701.00,1.13
7700.00,1.13
7699.00,1.13
7698.00,1.13
7697.00,1.13
7696.00,1.13
7695.00,1.13
7694.00,1.14
7693.00,1.14
7692.00,1.14
7691.00,1.14
7690.00,1.14
7689.00,1.14
7688.00,1.14
7687.00,1.14
7686.00,1.14
7685.00,1.14
7684.00,1.14
7683.00,1.14
7682.00,1.14
7681.00,1.14
7680.00,1.14
7679.00,1.14
7678.00,1.14
7677.00,1.14
7676.00,1.14
7675.00,1.14
7674.00,1.14
7673.00,1.14
7672.00,1.14
7671.00,1.14
7670.00,1.14
7669.00,1.14
7668.00,1.14
7667.00,1.14
7666.00,1.14
7665.00,1.14
7664.00,1.14
7663.00,1.13
7662.00,1.13
7661.00,1.13
7660.00,1.13
7659.00,1.13
7658.00,1.13
7657.00,1.13
7656.00,1.13
7655.00,1.13
7654.00,1.13
7653.00,1.13
7652.00,1.13
7651.00,1.14
7650.00,1.14
7649.00,1.14
7648.00,1.14
7647.00,1.14
7646.00,1.14
7645.00,1.14
7644.00,1.14
7643.00,1.15
7642.00,1.15
7641.00,1.15
7640.00,1.15
7639.00,1.15
7638.00,1.15
7637.00,1.15
7636.00,1.15
7635.00,1.15
7634.00,1.15
7633.00,1.15
7632.00,1.15
7631.00,1.15
7630.00,1.15
7629.00,1.15
7628.00,1.15
7627.00,1.15
7626.00,1.14
7625.00,1.14
7624.00,1.14
7623.00,1.14
7622.00,1.14
7621.00,1.14
7620.00,1.14
7619.00,1.13
7618.00,1.13
7617.00,1.13
7616.00,1.13
7615.00,1.13
7614.00,1.13
7613.00,1.13
7612.00,1.13
7611.00,1.13
7610.00,1.13
7609.00,1.13
7608.00,1.13
7607.00,1.13
7606.00,1.13
7605.00,1.13
7604.00,1.13
7603.00,1.13
7602.00,1.13
7601.00,1.13
7600.00,1.13
7599.00,1.13
7598.00,1.13
7597.00,1.13
7596.00,1.13
7595.00,1.13
7594.00,1.13
7593.00,1.13
7592.00,1.13
7591.00,1.13
7590.00,1.13
7589.00,1.13
7588.00,1.13
7587.00,1.13
7586.00,1.13
7585.00,1.13
7584.00,1.13
7583.00,1.13
7582.00,1.13
7581.00,1.13
7580.00,1.13
7579.00,1.13
7578.00,1.13
7577.00,1.13
7576.00,1.13
7575.00,1.13
7574.00,1.13
7573.00,1.14
7572.00,1.14
7571.00,1.14
7570.00,1.14
7569.00,1.14
7568.00,1.14
7567.00,1.14
7566.00,1.14
7565.00,1.14
7564.00,1.14
7563.00,1.14
7562.00,1.14
7561.00,1.14
7560.00,1.14
7559.00,1.14
7558.00,1.14
7557.00,1.14
7556.00,1.14
7555.00,1.14
7554.00,1.14
7553.00,1.14
7552.00,1.14
7551.00,1.14
7550.00,1.14
7549.00,1.14
7548.00,1.14
7547.00,1.13
7546.00,1.13
7545.00,1.13
7544.00,1.13
7543.00,1.13
7542.00,1.13
7541.00,1.13
7540.00,1.13
7539.00,1.13
7538.00,1.13
7537.00,1.13
7536.00,1.13
7535.00,1.13
7534.00,1.13
7533.00,1.13
7532.00,1.13
7531.00,1.13
7530.00,1.13
7529.00,1.13
7528.00,1.13
7527.00,1.13
7526.00,1.12
7525.00,1.12
7524.00,1.12
7523.00,1.12
7522.00,1.12
7521.00,1.12
7520.00,1.12
7519.00,1.12
7518.00,1.12
7517.00,1.12
7516.00,1.12
7515.00,1.12
7514.00,1.12
7513.00,1.12
7512.00,1.12
7511.00,1.12
7510.00,1.12
7509.00,1.12
7508.00,1.12
7507.00,1.12
7506.00,1.12
7505.00,1.12
7504.00,1.12
7503.00,1.12
7502.00,1.12
7501.00,1.12
7500.00,1.12
7499.00,1.12
7498.00,1.12
7497.00,1.12
7496.00,1.12
7495.00,1.12
7494.00,1.12
7493.00,1.12
7492.00,1.12
7491.00,1.12
7490.00,1.12
7489.00,1.12
7488.00,1.12
7487.00,1.11
7486.00,1.11
7485.00,1.11
7484.00,1.11
7483.00,1.11
7482.00,1.11
7481.00,1.11
7480.00,1.11
7479.00,1.11
7478.00,1.11
7477.00,1.11
7476.00,1.11
7475.00,1.11
7474.00,1.11
7473.00,1.11
7472.00,1.11
7471.00,1.11
7470.00,1.11
7469.00,1.11
7468.00,1.11
7467.00,1.11
7466.00,1.11
7465.00,1.11
7464.00,1.11
7463.00,1.11
7462.00,1.11
7461.00,1.11
7460.00,1.11
7459.00,1.11
7458.00,1.11
7457.00,1.11
7456.00,1.11
7455.00,1.11
7454.00,1.11
7453.00,1.11
7452.00,1.11
7451.00,1.11
7450.00,1.11
7449.00,1.11
7448.00,1.11
7447.00,1.11
7446.00,1.11
7445.00,1.11
7444.00,1.11
7443.00,1.11
7442.00,1.11
7441.00,1.11
7440.00,1.11
7439.00,1.11
7438.00,1.11
7437.00,1.11
7436.00,1.10
7435.00,1.10
7434.00,1.10
7433.00,1.10
7432.00,1.10
7431.00,1.10
7430.00,1.10
7429.00,1.10
7428.00,1.10
7427.00,1.10
7426.00,1.10
7425.00,1.10
7424.00,1.10
7423.00,1.09
7422.00,1.09
7421.00,1.09
7420.00,1.09
7419.00,1.09
7418.00,1.09
7417.00,1.09
7416.00,1.09
7415.00,1.09
7414.00,1.09
7413.00,1.09
7412.00,1.09
7411.00,1.09
7410.00,1.09
7409.00,1.09
7408.00,1.09
7407.00,1.09
7406.00,1.09
7405.00,1.09
7404.00,1.09
7403.00,1.08
7402.00,1.08
7401.00,1.08
7400.00,1.08
7399.00,1.08
7398.00,1.08
7397.00,1.08
7396.00,1.08
7395.00,1.08
7394.00,1.08
7393.00,1.08
7392.00,1.08
7391.00,1.07
7390.00,1.07
7389.00,1.07
7388.00,1.07
7387.00,1.07
7386.00,1.07
7385.00,1.07
7384.00,1.07
7383.00,1.07
7382.00,1.07
7381.00,1.07
7380.00,1.07
7379.00,1.07
7378.00,1.06
7377.00,1.06
7376.00,1.06
7375.00,1.06
7374.00,1.06
7373.00,1.06
7372.00,1.06
7371.00,1.06
7370.00,1.06
7369.00,1.06
7368.00,1.07
7367.00,1.07
7366.00,1.07
7365.00,1.07
7364.00,1.07
7363.00,1.07
7362.00,1.07
7361.00,1.07
7360.00,1.07
7359.00,1.07
7358.00,1.07
7357.00,1.07
7356.00,1.07
7355.00,1.07
7354.00,1.07
7353.00,1.07
7352.00,1.07
7351.00,1.07
7350.00,1.07
7349.00,1.07
7348.00,1.07
7347.00,1.07
7346.00,1.06
7345.00,1.06
7344.00,1.06
7343.00,1.06
7342.00,1.06
7341.00,1.06
7340.00,1.06
7339.00,1.06
7338.00,1.06
7337.00,1.06
7336.00,1.06
7335.00,1.06
7334.00,1.06
7333.00,1.06
7332.00,1.06
7331.00,1.06
7330.00,1.06
7329.00,1.06
7328.00,1.06
7327.00,1.06
7326.00,1.06
7325.00,1.06
7324.00,1.06
7323.00,1.06
7322.00,1.05
7321.00,1.05
7320.00,1.05
7319.00,1.05
7318.00,1.05
7317.00,1.05
7316.00,1.05
7315.00,1.05
7314.00,1.05
7313.00,1.05
7312.00,1.05
7311.00,1.05
7310.00,1.04
7309.00,1.04
7308.00,1.04
7307.00,1.04
7306.00,1.04
7305.00,1.04
7304.00,1.04
7303.00,1.04
7302.00,1.04
7301.00,1.04
7300.00,1.04
7299.00,1.04
7298.00,1.04
7297.00,1.04
7296.00,1.03
7295.00,1.03
7294.00,1.03
7293.00,1.03
7292.00,1.03
7291.00,1.03
7290.00,1.03
7289.00,1.03
7288.00,1.03
7287.00,1.03
7286.00,1.03
7285.00,1.03
7284.00,1.03
7283.00,1.03
7282.00,1.03
7281.00,1.03
7280.00,1.03
7279.00,1.03
7278.00,1.03
7277.00,1.03
7276.00,1.03
7275.00,1.03
7274.00,1.03
7273.00,1.03
7272.00,1.03
7271.00,1.03
7270.00,1.02
7269.00,1.02
7268.00,1.02
7267.00,1.02
7266.00,1.02
7265.00,1.02
7264.00,1.02
7263.00,1.01
7262.00,1.01
7261.00,1.01
7260.00,1.01
7259.00,1.00
7258.00,1.00
7257.00,1.00
7256.00,1.00
7255.00,1.00
7254.00,1.00
7253.00,0.99
7252.00,0.99
7251.00,0.99
7250.00,0.99
7249.00,0.99
7248.00,0.99
7247.00,0.99
7246.00,0.98
7245.00,0.98
7244.00,0.98
7243.00,0.98
7242.00,0.98
7241.00,0.97
7240.00,0.97
7239.00,0.97
7238.00,0.97
7237.00,0.97
7236.00,0.96
7235.00,0.96
7234.00,0.96
7233.00,0.96
7232.00,0.96
7231.00,0.96
7230.00,0.95
7229.00,0.95
7228.00,0.95
7227.00,0.95
7226.00,0.95
7225.00,0.94
7224.00,0.94
7223.00,0.94
7222.00,0.94
7221.00,0.94
7220.00,0.94
7219.00,0.93
7218.00,0.93
7217.00,0.93
7216.00,0.93
7215.00,0.92
7214.00,0.92
7213.00,0.92
7212.00,0.92
7211.00,0.91
7210.00,0.91
7209.00,0.91
7208.00,0.91
7207.00,0.90
7206.00,0.90
7205.00,0.90
7204.00,0.90
7203.00,0.89
7202.00,0.89
7201.00,0.89
7200.00,0.88
7199.00,0.88
7198.00,0.88
7197.00,0.88
7196.00,0.87
7195.00,0.87
7194.00,0.87
7193.00,0.87
7192.00,0.86
7191.00,0.86
7190.00,0.86
7189.00,0.86
7188.00,0.85
7187.00,0.85
7186.00,0.85
7185.00,0.84
7184.00,0.84
7183.00,0.84
7182.00,0.84
7181.00,0.83
7180.00,0.83
7179.00,0.83
7178.00,0.82
7177.00,0.82
7176.00,0.82
7175.00,0.82
7174.00,0.81
7173.00,0.81
7172.00,0.81
7171.00,0.80
7170.00,0.80
7169.00,0.80
7168.00,0.80
7167.00,0.79
7166.00,0.79
7165.00,0.79
7164.00,0.79
7163.00,0.79
7162.00,0.78
7161.00,0.78
7160.00,0.78
7159.00,0.78
7158.00,0.78
7157.00,0.77
7156.00,0.77
7155.00,0.77
7154.00,0.77
7153.00,0.77
7152.00,0.77
7151.00,0.76
7150.00,0.76
7149.00,0.76
7148.00,0.76
7147.00,0.76
7146.00,0.76
7145.00,0.76
7144.00,0.75
7143.00,0.75
7142.00,0.75
7141.00,0.75
7140.00,0.75
7139.00,0.74
7138.00,0.74
7137.00,0.74
7136.00,0.74
7135.00,0.73
7134.00,0.73
7133.00,0.73
7132.00,0.73
7131.00,0.72
7130.00,0.72
7129.00,0.72
7128.00,0.72
7127.00,0.71
7126.00,0.71
7125.00,0.71
7124.00,0.71
7123.00,0.70
7122.00,0.70
7121.00,0.70
7120.00,0.70
7119.00,0.69
7118.00,0.69
7117.00,0.69
7116.00,0.69
7115.00,0.68
7114.00,0.68
7113.00,0.68
7112.00,0.68
7111.00,0.68
7110.00,0.67
7109.00,0.67
7108.00,0.67
7107.00,0.67
7106.00,0.67
7105.00,0.66
7104.00,0.66
7103.00,0.66
7102.00,0.66
7101.00,0.66
7100.00,0.66
7099.00,0.66
7098.00,0.66
7097.00,0.65
7096.00,0.65
7095.00,0.65
7094.00,0.65
7093.00,0.65
7092.00,0.65
7091.00,0.65
7090.00,0.64
7089.00,0.64
7088.00,0.64
7087.00,0.64
7086.00,0.64
7085.00,0.64
7084.00,0.64
7083.00,0.64
7082.00,0.63
7081.00,0.63
7080.00,0.63
7079.00,0.63
7078.00,0.63
7077.00,0.63
7076.00,0.63
7075.00,0.63
7074.00,0.62
7073.00,0.62
7072.00,0.62
7071.00,0.62
7070.00,0.62
7069.00,0.62
7068.00,0.62
7067.00,0.62
7066.00,0.61
7065.00,0.61
7064.00,0.61
7063.00,0.61
7062.00,0.61
7061.00,0.61
7060.00,0.61
7059.00,0.60
7058.00,0.60
7057.00,0.60
7056.00,0.60
7055.00,0.60
7054.00,0.60
7053.00,0.59
7052.00,0.59
7051.00,0.59
7050.00,0.59
7049.00,0.59
7048.00,0.59
7047.00,0.59
7046.00,0.59
7045.00,0.59
7044.00,0.59
7043.00,0.59
7042.00,0.59
7041.00,0.59
7040.00,0.59
7039.00,0.59
7038.00,0.58
7037.00,0.58
7036.00,0.58
7035.00,0.58
7034.00,0.58
7033.00,0.58
7032.00,0.58
7031.00,0.57
7030.00,0.57
7029.00,0.57
7028.00,0.57
7027.00,0.57
7026.00,0.56
7025.00,0.56
7024.00,0.56
7023.00,0.56
7022.00,0.56
7021.00,0.56
7020.00,0.56
7019.00,0.56
7018.00,0.56
7017.00,0.56
7016.00,0.56
7015.00,0.56
7014.00,0.56
7013.00,0.56
7012.00,0.56
7011.00,0.56
7010.00,0.56
7009.00,0.56
7008.00,0.56
7007.00,0.56
7006.00,0.56
7005.00,0.56
7004.00,0.55
7003.00,0.55
7002.00,0.55
7001.00,0.55
7000.00,0.55
6999.00,0.55
6998.00,0.55
6997.00,0.55
6996.00,0.54
6995.00,0.54
6994.00,0.54
6993.00,0.54
6992.00,0.54
6991.00,0.54
6990.00,0.54
6989.00,0.54
6988.00,0.54
6987.00,0.54
6986.00,0.54
6985.00,0.54
6984.00,0.54
6983.00,0.53
6982.00,0.53
6981.00,0.53
6980.00,0.53
6979.00,0.53
6978.00,0.53
6977.00,0.53
6976.00,0.53
6975.00,0.53
6974.00,0.53
6973.00,0.53
6972.00,0.53
6971.00,0.53
6970.00,0.53
6969.00,0.53
6968.00,0.53
6967.00,0.53
6966.00,0.53
6965.00,0.53
6964.00,0.53
6963.00,0.53
6962.00,0.53
6961.00,0.53
6960.00,0.53
6959.00,0.53
6958.00,0.53
6957.00,0.53
6956.00,0.53
6955.00,0.53
6954.00,0.53
6953.00,0.53
6952.00,0.53
6951.00,0.53
6950.00,0.53
6949.00,0.53
6948.00,0.53
6947.00,0.53
6946.00,0.53
6945.00,0.53
6944.00,0.53
6943.00,0.53
6942.00,0.52
6941.00,0.52
6940.00,0.52
6939.00,0.52
6938.00,0.52
6937.00,0.52
6936.00,0.52
6935.00,0.52
6934.00,0.52
6933.00,0.52
6932.00,0.52
6931.00,0.52
6930.00,0.52
6929.00,0.52
6928.00,0.52
6927.00,0.52
6926.00,0.52
6925.00,0.52
6924.00,0.52
6923.00,0.52
6922.00,0.52
6921.00,0.52
6920.00,0.52
6919.00,0.52
6918.00,0.52
6917.00,0.52
6916.00,0.52
6915.00,0.52
6914.00,0.52
6913.00,0.52
6912.00,0.52
6911.00,0.52
6910.00,0.52
6909.00,0.52
6908.00,0.52
6907.00,0.52
6906.00,0.52
6905.00,0.52
6904.00,0.52
6903.00,0.52
6902.00,0.52
6901.00,0.52
6900.00,0.52
6899.00,0.52
6898.00,0.52
6897.00,0.52
6896.00,0.52
6895.00,0.51
6894.00,0.51
6893.00,0.51
6892.00,0.51
6891.00,0.51
6890.00,0.51
6889.00,0.51
6888.00,0.51
6887.00,0.51
6886.00,0.51
6885.00,0.51
6884.00,0.51
6883.00,0.51
6882.00,0.51
6881.00,0.51
6880.00,0.51
6879.00,0.51
6878.00,0.51
6877.00,0.51
6876.00,0.51
6875.00,0.51
6874.00,0.51
6873.00,0.51
6872.00,0.51
6871.00,0.51
6870.00,0.51
6869.00,0.51
6868.00,0.51
6867.00,0.51
6866.00,0.51
6865.00,0.51
6864.00,0.51
6863.00,0.51
6862.00,0.51
6861.00,0.51
6860.00,0.51
6859.00,0.51
6858.00,0.51
6857.00,0.51
6856.00,0.51
6855.00,0.51
6854.00,0.51
6853.00,0.51
6852.00,0.51
6851.00,0.51
6850.00,0.51
6849.00,0.51
6848.00,0.51
6847.00,0.51
6846.00,0.51
6845.00,0.51
6844.00,0.51
6843.00,0.51
6842.00,0.51
6841.00,0.51
6840.00,0.51
6839.00,0.51
6838.00,0.51
6837.00,0.51
6836.00,0.51
6835.00,0.51
6834.00,0.51
6833.00,0.51
6832.00,0.51
6831.00,0.51
6830.00,0.52
6829.00,0.52
6828.00,0.52
6827.00,0.52
6826.00,0.52
6825.00,0.52
6824.00,0.52
6823.00,0.52
6822.00,0.52
6821.00,0.52
6820.00,0.52
6819.00,0.52
6818.00,0.52
6817.00,0.52
6816.00,0.52
6815.00,0.52
6814.00,0.52
6813.00,0.52
6812.00,0.52
6811.00,0.52
6810.00,0.52
6809.00,0.52
6808.00,0.52
6807.00,0.52
6806.00,0.52
6805.00,0.52
6804.00,0.53
6803.00,0.53
6802.00,0.53
6801.00,0.53
6800.00,0.53
6799.00,0.53
6798.00,0.53
6797.00,0.53
6796.00,0.53
6795.00,0.53
6794.00,0.53
6793.00,0.53
6792.00,0.53
6791.00,0.53
6790.00,0.53
6789.00,0.53
6788.00,0.53
6787.00,0.53
6786.00,0.53
6785.00,0.53
6784.00,0.53
6783.00,0.53
6782.00,0.53
6781.00,0.53
6780.00,0.53
6779.00,0.53
6778.00,0.53
6777.00,0.54
6776.00,0.54
6775.00,0.54
6774.00,0.54
6773.00,0.54
6772.00,0.54
6771.00,0.54
6770.00,0.54
6769.00,0.54
6768.00,0.54
6767.00,0.54
6766.00,0.54
6765.00,0.54
6764.00,0.54
6763.00,0.54
6762.00,0.54
6761.00,0.54
6760.00,0.54
6759.00,0.54
6758.00,0.54
6757.00,0.54
6756.00,0.54
6755.00,0.54
6754.00,0.54
6753.00,0.54
6752.00,0.54
6751.00,0.54
6750.00,0.54
6749.00,0.54
6748.00,0.54
6747.00,0.54
6746.00,0.54
6745.00,0.54
6744.00,0.55
6743.00,0.55
6742.00,0.55
6741.00,0.55
6740.00,0.55
6739.00,0.55
6738.00,0.55
6737.00,0.55
6736.00,0.55
6735.00,0.55
6734.00,0.56
6733.00,0.56
6732.00,0.56
6731.00,0.56
6730.00,0.56
6729.00,0.56
6728.00,0.56
6727.00,0.56
6726.00,0.56
6725.00,0.56
6724.00,0.56
6723.00,0.56
6722.00,0.56
6721.00,0.56
6720.00,0.57
6719.00,0.57
6718.00,0.57
6717.00,0.57
6716.00,0.57
6715.00,0.57
6714.00,0.57
6713.00,0.57
6712.00,0.57
6711.00,0.57
6710.00,0.57
6709.00,0.57
6708.00,0.58
6707.00,0.58
6706.00,0.58
6705.00,0.58
6704.00,0.58
6703.00,0.58
6702.00,0.58
6701.00,0.58
6700.00,0.58
6699.00,0.58
6698.00,0.58
6697.00,0.58
6696.00,0.58
6695.00,0.58
6694.00,0.59
6693.00,0.59
6692.00,0.59
6691.00,0.59
6690.00,0.59
6689.00,0.59
6688.00,0.59
6687.00,0.59
6686.00,0.59
6685.00,0.59
6684.00,0.59
6683.00,0.60
6682.00,0.60
6681.00,0.60
6680.00,0.60
6679.00,0.60
6678.00,0.60
6677.00,0.60
6676.00,0.60
6675.00,0.60
6674.00,0.60
6673.00,0.60
6672.00,0.60
6671.00,0.60
6670.00,0.60
6669.00,0.60
6668.00,0.60
6667.00,0.60
6666.00,0.60
6665.00,0.60
6664.00,0.60
6663.00,0.60
6662.00,0.60
6661.00,0.60
6660.00,0.60
6659.00,0.60
6658.00,0.60
6657.00,0.61
6656.00,0.61
6655.00,0.61
6654.00,0.61
6653.00,0.61
6652.00,0.61
6651.00,0.61
6650.00,0.62
6649.00,0.62
6648.00,0.62
6647.00,0.62
6646.00,0.62
6645.00,0.63
6644.00,0.63
6643.00,0.63
6642.00,0.63
6641.00,0.63
6640.00,0.63
6639.00,0.63
6638.00,0.63
6637.00,0.63
6636.00,0.64
6635.00,0.64
6634.00,0.64
6633.00,0.64
6632.00,0.64
6631.00,0.64
6630.00,0.64
6629.00,0.64
6628.00,0.64
6627.00,0.64
6626.00,0.64
6625.00,0.64
6624.00,0.64
6623.00,0.64
6622.00,0.64
6621.00,0.64
6620.00,0.64
6619.00,0.64
6618.00,0.64
6617.00,0.64
6616.00,0.65
6615.00,0.65
6614.00,0.65
6613.00,0.65
6612.00,0.65
6611.00,0.65
6610.00,0.65
6609.00,0.65
6608.00,0.66
6607.00,0.66
6606.00,0.66
6605.00,0.66
6604.00,0.66
6603.00,0.66
6602.00,0.66
6601.00,0.66
6600.00,0.67
6599.00,0.67
6598.00,0.67
6597.00,0.67
6596.00,0.67
6595.00,0.67
6594.00,0.67
6593.00,0.67
6592.00,0.67
6591.00,0.67
6590.00,0.67
6589.00,0.67
6588.00,0.67
6587.00,0.67
6586.00,0.67
6585.00,0.67
6584.00,0.67
6583.00,0.67
6582.00,0.67
6581.00,0.67
6580.00,0.67
6579.00,0.67
6578.00,0.68
6577.00,0.68
6576.00,0.68
6575.00,0.68
6574.00,0.68
6573.00,0.68
6572.00,0.69
6571.00,0.69
6570.00,0.69
6569.00,0.69
6568.00,0.69
6567.00,0.70
6566.00,0.70
6565.00,0.70
6564.00,0.70
6563.00,0.70
6562.00,0.70
6561.00,0.70
6560.00,0.70
6559.00,0.70
6558.00,0.70
6557.00,0.70
6556.00,0.70
6555.00,0.71
6554.00,0.71
6553.00,0.71
6552.00,0.71
6551.00,0.71
6550.00,0.71
6549.00,0.71
6548.00,0.71
6547.00,0.71
6546.00,0.71
6545.00,0.71
6544.00,0.71
6543.00,0.71
6542.00,0.71
6541.00,0.71
6540.00,0.71
6539.00,0.71
6538.00,0.71
6537.00,0.71
6536.00,0.71
6535.00,0.71
6534.00,0.71
6533.00,0.71
6532.00,0.71
6531.00,0.71
6530.00,0.72
6529.00,0.72
6528.00,0.72
6527.00,0.72
6526.00,0.72
6525.00,0.72
6524.00,0.72
6523.00,0.72
6522.00,0.72
6521.00,0.72
6520.00,0.72
6519.00,0.72
6518.00,0.73
6517.00,0.73
6516.00,0.73
6515.00,0.73
6514.00,0.73
6513.00,0.73
6512.00,0.73
6511.00,0.73
6510.00,0.73
6509.00,0.73
6508.00,0.73
6507.00,0.73
6506.00,0.73
6505.00,0.73
6504.00,0.74
6503.00,0.74
6502.00,0.74
6501.00,0.74
6500.00,0.74
6499.00,0.74
6498.00,0.74
6497.00,0.74
6496.00,0.74
6495.00,0.74
6494.00,0.74
6493.00,0.74
6492.00,0.74
6491.00,0.74
6490.00,0.75
6489.00,0.75
6488.00,0.75
6487.00,0.75
6486.00,0.75
6485.00,0.75
6484.00,0.75
6483.00,0.75
6482.00,0.75
6481.00,0.75
6480.00,0.75
6479.00,0.75
6478.00,0.75
6477.00,0.76
6476.00,0.76
6475.00,0.76
6474.00,0.76
6473.00,0.76
6472.00,0.76
6471.00,0.76
6470.00,0.76
6469.00,0.76
6468.00,0.76
6467.00,0.76
6466.00,0.76
6465.00,0.76
6464.00,0.76
6463.00,0.76
6462.00,0.76
6461.00,0.76
6460.00,0.76
6459.00,0.76
6458.00,0.76
6457.00,0.76
6456.00,0.76
6455.00,0.76
6454.00,0.76
6453.00,0.76
6452.00,0.77
6451.00,0.77
6450.00,0.77
6449.00,0.77
6448.00,0.77
6447.00,0.77
6446.00,0.77
6445.00,0.77
6444.00,0.77
6443.00,0.77
6442.00,0.77
6441.00,0.77
6440.00,0.77
6439.00,0.77
6438.00,0.77
6437.00,0.78
6436.00,0.78
6435.00,0.78
6434.00,0.78
6433.00,0.78
6432.00,0.78
6431.00,0.78
6430.00,0.78
6429.00,0.78
6428.00,0.78
6427.00,0.78
6426.00,0.78
6425.00,0.78
6424.00,0.78
6423.00,0.78
6422.00,0.78
6421.00,0.78
6420.00,0.78
6419.00,0.78
6418.00,0.78
6417.00,0.78
6416.00,0.78
6415.00,0.78
6414.00,0.78
6413.00,0.78
6412.00,0.78
6411.00,0.78
6410.00,0.78
6409.00,0.78
6408.00,0.78
6407.00,0.78
6406.00,0.79
6405.00,0.79
6404.00,0.79
6403.00,0.79
6402.00,0.79
6401.00,0.79
6400.00,0.79
6399.00,0.79
6398.00,0.79
6397.00,0.80
6396.00,0.80
6395.00,0.80
6394.00,0.80
6393.00,0.80
6392.00,0.80
6391.00,0.80
6390.00,0.80
6389.00,0.80
6388.00,0.80
6387.00,0.80
6386.00,0.80
6385.00,0.80
6384.00,0.80
6383.00,0.80
6382.00,0.80
6381.00,0.80
6380.00,0.80
6379.00,0.80
6378.00,0.80
6377.00,0.80
6376.00,0.80
6375.00,0.81
6374.00,0.81
6373.00,0.81
6372.00,0.81
6371.00,0.81
6370.00,0.81
6369.00,0.81
6368.00,0.81
6367.00,0.81
6366.00,0.81
6365.00,0.81
6364.00,0.81
6363.00,0.81
6362.00,0.82
6361.00,0.82
6360.00,0.82
6359.00,0.82
6358.00,0.82
6357.00,0.82
6356.00,0.82
6355.00,0.82
6354.00,0.82
6353.00,0.82
6352.00,0.82
6351.00,0.83
6350.00,0.83
6349.00,0.83
6348.00,0.83
6347.00,0.83
6346.00,0.83
6345.00,0.83
6344.00,0.83
6343.00,0.83
6342.00,0.83
6341.00,0.83
6340.00,0.83
6339.00,0.83
6338.00,0.83
6337.00,0.84
6336.00,0.84
6335.00,0.84
6334.00,0.84
6333.00,0.84
6332.00,0.84
6331.00,0.84
6330.00,0.84
6329.00,0.84
6328.00,0.84
6327.00,0.84
6326.00,0.84
6325.00,0.84
6324.00,0.84
6323.00,0.84
6322.00,0.84
6321.00,0.84
6320.00,0.85
6319.00,0.85
6318.00,0.85
6317.00,0.85
6316.00,0.85
6315.00,0.85
6314.00,0.85
6313.00,0.85
6312.00,0.85
6311.00,0.85
6310.00,0.85
6309.00,0.85
6308.00,0.85
6307.00,0.85
6306.00,0.85
6305.00,0.85
6304.00,0.86
6303.00,0.86
6302.00,0.86
6301.00,0.86
6300.00,0.86
6299.00,0.86
6298.00,0.86
6297.00,0.86
6296.00,0.86
6295.00,0.87
6294.00,0.87
6293.00,0.87
6292.00,0.87
6291.00,0.87
6290.00,0.87
6289.00,0.87
6288.00,0.87
6287.00,0.87
6286.00,0.87
6285.00,0.87
6284.00,0.87
6283.00,0.87
6282.00,0.87
6281.00,0.88
6280.00,0.88
6279.00,0.88
6278.00,0.88
6277.00,0.88
6276.00,0.88
6275.00,0.88
6274.00,0.88
6273.00,0.88
6272.00,0.89
6271.00,0.89
6270.00,0.89
6269.00,0.89
6268.00,0.89
6267.00,0.89
6266.00,0.89
6265.00,0.89
6264.00,0.89
6263.00,0.90
6262.00,0.90
6261.00,0.90
6260.00,0.90
6259.00,0.90
6258.00,0.90
6257.00,0.90
6256.00,0.90
6255.00,0.90
6254.00,0.90
6253.00,0.90
6252.00,0.90
6251.00,0.91
6250.00,0.91
6249.00,0.91
6248.00,0.91
6247.00,0.91
6246.00,0.91
6245.00,0.91
6244.00,0.91
6243.00,0.91
6242.00,0.91
6241.00,0.91
6240.00,0.91
6239.00,0.92
6238.00,0.92
6237.00,0.92
6236.00,0.92
6235.00,0.92
6234.00,0.92
6233.00,0.92
6232.00,0.92
6231.00,0.92
6230.00,0.92
6229.00,0.93
6228.00,0.93
6227.00,0.93
6226.00,0.93
6225.00,0.93
6224.00,0.93
6223.00,0.93
6222.00,0.93
6221.00,0.93
6220.00,0.93
6219.00,0.94
6218.00,0.94
6217.00,0.94
6216.00,0.94
6215.00,0.94
6214.00,0.94
6213.00,0.94
6212.00,0.94
6211.00,0.94
6210.00,0.94
6209.00,0.94
6208.00,0.94
6207.00,0.94
6206.00,0.94
6205.00,0.94
6204.00,0.94
6203.00,0.94
6202.00,0.94
6201.00,0.94
6200.00,0.95
6199.00,0.95
6198.00,0.95
6197.00,0.95
6196.00,0.95
6195.00,0.95
6194.00,0.95
6193.00,0.95
6192.00,0.95
6191.00,0.95
6190.00,0.95
6189.00,0.95
6188.00,0.95
6187.00,0.96
6186.00,0.96
6185.00,0.96
6184.00,0.96
6183.00,0.96
6182.00,0.96
6181.00,0.96
6180.00,0.97
6179.00,0.97
6178.00,0.97
6177.00,0.97
6176.00,0.97
6175.00,0.97
6174.00,0.97
6173.00,0.98
6172.00,0.98
6171.00,0.98
6170.00,0.98
6169.00,0.98
6168.00,0.98
6167.00,0.98
6166.00,0.99
6165.00,0.99
6164.00,0.99
6163.00,0.99
6162.00,0.99
6161.00,0.99
6160.00,0.99
6159.00,0.99
6158.00,0.99
6157.00,1.00
6156.00,1.00
6155.00,1.00
6154.00,1.00
6153.00,1.00
6152.00,1.00
6151.00,1.00
6150.00,1.00
6149.00,1.00
6148.00,1.00
6147.00,1.00
6146.00,1.00
6145.00,1.00
6144.00,1.00
6143.00,1.00
6142.00,1.00
6141.00,1.00
6140.00,1.00
6139.00,1.01
6138.00,1.01
6137.00,1.01
6136.00,1.01
6135.00,1.01
6134.00,1.01
6133.00,1.01
6132.00,1.01
6131.00,1.01
6130.00,1.01
6129.00,1.01
6128.00,1.02
6127.00,1.02
6126.00,1.02
6125.00,1.02
6124.00,1.02
6123.00,1.02
6122.00,1.03
6121.00,1.03
6120.00,1.03
6119.00,1.03
6118.00,1.03
6117.00,1.03
6116.00,1.03
6115.00,1.04
6114.00,1.04
6113.00,1.04
6112.00,1.04
6111.00,1.04
6110.00,1.04
6109.00,1.04
6108.00,1.04
6107.00,1.04
6106.00,1.04
6105.00,1.04
6104.00,1.04
6103.00,1.04
6102.00,1.04
6101.00,1.04
6100.00,1.05
6099.00,1.05
6098.00,1.05
6097.00,1.05
6096.00,1.05
6095.00,1.05
6094.00,1.05
6093.00,1.05
6092.00,1.05
6091.00,1.05
6090.00,1.05
6089.00,1.05
6088.00,1.05
6087.00,1.06
6086.00,1.06
6085.00,1.06
6084.00,1.06
6083.00,1.06
6082.00,1.06
6081.00,1.06
6080.00,1.06
6079.00,1.06
6078.00,1.06
6077.00,1.06
6076.00,1.07
6075.00,1.07
6074.00,1.07
6073.00,1.07
6072.00,1.07
6071.00,1.07
6070.00,1.07
6069.00,1.07
6068.00,1.07
6067.00,1.07
6066.00,1.07
6065.00,1.07
6064.00,1.08
6063.00,1.08
6062.00,1.08
6061.00,1.08
6060.00,1.08
6059.00,1.08
6058.00,1.08
6057.00,1.08
6056.00,1.08
6055.00,1.08
6054.00,1.08
6053.00,1.09
6052.00,1.09
6051.00,1.09
6050.00,1.09
6049.00,1.09
6048.00,1.09
6047.00,1.09
6046.00,1.09
6045.00,1.09
6044.00,1.09
6043.00,1.09
6042.00,1.09
6041.00,1.09
6040.00,1.09
6039.00,1.09
6038.00,1.09
6037.00,1.09
6036.00,1.09
6035.00,1.09
6034.00,1.09
6033.00,1.09
6032.00,1.09
6031.00,1.09
6030.00,1.09
6029.00,1.09
6028.00,1.09
6027.00,1.10
6026.00,1.10
6025.00,1.10
6024.00,1.10
6023.00,1.10
6022.00,1.10
6021.00,1.10
6020.00,1.10
6019.00,1.09
6018.00,1.09
6017.00,1.09
6016.00,1.09
6015.00,1.09
6014.00,1.09
6013.00,1.09
6012.00,1.09
6011.00,1.09
6010.00,1.09
6009.00,1.09
6008.00,1.09
6007.00,1.09
6006.00,1.09
6005.00,1.09
6004.00,1.09
6003.00,1.09
6002.00,1.09
6001.00,1.09
6000.00,1.09
5999.00,1.09
5998.00,1.09
5997.00,1.09
5996.00,1.09
5995.00,1.09
5994.00,1.09
5993.00,1.09
5992.00,1.09
5991.00,1.09
5990.00,1.09
5989.00,1.08
5988.00,1.08
5987.00,1.08
5986.00,1.08
5985.00,1.08
5984.00,1.08
5983.00,1.07
5982.00,1.07
5981.00,1.07
5980.00,1.07
5979.00,1.06
5978.00,1.06
5977.00,1.06
5976.00,1.06
5975.00,1.05
5974.00,1.05
5973.00,1.05
5972.00,1.04
5971.00,1.04
5970.00,1.03
5969.00,1.03
5968.00,1.03
5967.00,1.02
5966.00,1.02
5965.00,1.01
5964.00,1.01
5963.00,1.00
5962.00,1.00
5961.00,0.99
5960.00,0.99
5959.00,0.98
5958.00,0.98
5957.00,0.98
5956.00,0.97
5955.00,0.97
5954.00,0.96
5953.00,0.96
5952.00,0.96
5951.00,0.95
5950.00,0.95
5949.00,0.95
5948.00,0.94
5947.00,0.94
5946.00,0.94
5945.00,0.94
5944.00,0.94
5943.00,0.93
5942.00,0.93
5941.00,0.93
5940.00,0.93
5939.00,0.93
5938.00,0.93
5937.00,0.93
5936.00,0.93
5935.00,0.93
5934.00,0.93
5933.00,0.93
5932.00,0.92
5931.00,0.92
5930.00,0.92
5929.00,0.92
5928.00,0.92
5927.00,0.92
5926.00,0.92
5925.00,0.92
5924.00,0.92
5923.00,0.92
5922.00,0.92
5921.00,0.91
5920.00,0.91
5919.00,0.91
5918.00,0.91
5917.00,0.91
5916.00,0.90
5915.00,0.90
5914.00,0.90
5913.00,0.90
5912.00,0.90
5911.00,0.90
5910.00,0.89
5909.00,0.89
5908.00,0.89
5907.00,0.89
5906.00,0.89
5905.00,0.89
5904.00,0.89
5903.00,0.89
5902.00,0.89
5901.00,0.89
5900.00,0.89
5899.00,0.89
5898.00,0.89
5897.00,0.89
5896.00,0.89
5895.00,0.90
5894.00,0.90
5893.00,0.90
5892.00,0.90
5891.00,0.90
5890.00,0.90
5889.00,0.91
5888.00,0.91
5887.00,0.91
5886.00,0.91
5885.00,0.91
5884.00,0.92
5883.00,0.92
5882.00,0.92
5881.00,0.92
5880.00,0.92
5879.00,0.92
5878.00,0.93
5877.00,0.93
5876.00,0.93
5875.00,0.93
5874.00,0.93
5873.00,0.93
5872.00,0.94
5871.00,0.94
5870.00,0.94
5869.00,0.94
5868.00,0.94
5867.00,0.94
5866.00,0.95
5865.00,0.95
5864.00,0.95
5863.00,0.95
5862.00,0.95
5861.00,0.95
5860.00,0.96
5859.00,0.96
5858.00,0.96
5857.00,0.96
5856.00,0.96
5855.00,0.96
5854.00,0.96
5853.00,0.97
5852.00,0.97
5851.00,0.97
5850.00,0.97
5849.00,0.97
5848.00,0.97
5847.00,0.97
5846.00,0.97
5845.00,0.97
5844.00,0.97
5843.00,0.97
5842.00,0.97
5841.00,0.97
5840.00,0.97
5839.00,0.97
5838.00,0.97
5837.00,0.97
5836.00,0.97
5835.00,0.97
5834.00,0.97
5833.00,0.97
5832.00,0.97
5831.00,0.97
5830.00,0.96
5829.00,0.96
5828.00,0.96
5827.00,0.96
5826.00,0.96
5825.00,0.96
5824.00,0.96
5823.00,0.96
5822.00,0.96
5821.00,0.96
5820.00,0.96
5819.00,0.96
5818.00,0.96
5817.00,0.96
5816.00,0.96
5815.00,0.96
5814.00,0.96
5813.00,0.96
5812.00,0.96
5811.00,0.96
5810.00,0.96
5809.00,0.96
5808.00,0.96
5807.00,0.96
5806.00,0.96
5805.00,0.96
5804.00,0.96
5803.00,0.96
5802.00,0.96
5801.00,0.96
5800.00,0.96
5799.00,0.95
5798.00,0.95
5797.00,0.95
5796.00,0.95
5795.00,0.95
5794.00,0.95
5793.00,0.95
5792.00,0.95
5791.00,0.94
5790.00,0.94
5789.00,0.94
5788.00,0.94
5787.00,0.94
5786.00,0.94
5785.00,0.94
5784.00,0.94
5783.00,0.93
5782.00,0.93
5781.00,0.93
5780.00,0.93
5779.00,0.93
5778.00,0.93
5777.00,0.93
5776.00,0.93
5775.00,0.93
5774.00,0.93
5773.00,0.93
5772.00,0.93
5771.00,0.93
5770.00,0.93
5769.00,0.93
5768.00,0.93
5767.00,0.93
5766.00,0.93
5765.00,0.93
5764.00,0.93
5763.00,0.93
5762.00,0.94
5761.00,0.94
5760.00,0.94
5759.00,0.94
5758.00,0.95
5757.00,0.95
5756.00,0.95
5755.00,0.95
5754.00,0.96
5753.00,0.96
5752.00,0.96
5751.00,0.96
5750.00,0.96
5749.00,0.97
5748.00,0.97
5747.00,0.97
5746.00,0.97
5745.00,0.98
5744.00,0.98
5743.00,0.98
5742.00,0.98
5741.00,0.98
5740.00,0.98
5739.00,0.98
5738.00,0.99
5737.00,0.99
5736.00,0.99
5735.00,0.99
5734.00,0.99
5733.00,0.99
5732.00,0.99
5731.00,0.99
5730.00,0.99
5729.00,0.99
5728.00,1.00
5727.00,1.00
5726.00,1.00
5725.00,1.00
5724.00,1.00
5723.00,1.00
5722.00,1.00
5721.00,1.00
5720.00,1.00
5719.00,1.00
5718.00,1.00
5717.00,1.00
5716.00,1.00
5715.00,1.00
5714.00,1.00
5713.00,1.00
5712.00,1.00
5711.00,1.00
5710.00,1.00
5709.00,0.99
5708.00,0.99
5707.00,0.99
5706.00,0.99
5705.00,0.99
5704.00,0.99
5703.00,0.99
5702.00,0.99
5701.00,0.99
5700.00,0.99
5699.00,0.99
5698.00,0.99
5697.00,0.99
5696.00,0.99
5695.00,0.99
5694.00,0.99
5693.00,0.98
5692.00,0.98
5691.00,0.98
5690.00,0.98
5689.00,0.98
5688.00,0.98
5687.00,0.98
5686.00,0.98
5685.00,0.97
5684.00,0.97
5683.00,0.97
5682.00,0.97
5681.00,0.97
5680.00,0.97
5679.00,0.97
5678.00,0.97
5677.00,0.97
5676.00,0.97
5675.00,0.97
5674.00,0.97
5673.00,0.97
5672.00,0.97
5671.00,0.97
5670.00,0.97
5669.00,0.97
5668.00,0.97
5667.00,0.97
5666.00,0.97
5665.00,0.97
5664.00,0.97
5663.00,0.97
5662.00,0.97
5661.00,0.97
5660.00,0.98
5659.00,0.98
5658.00,0.98
5657.00,0.98
5656.00,0.98
5655.00,0.98
5654.00,0.98
5653.00,0.98
5652.00,0.98
5651.00,0.99
5650.00,0.99
5649.00,0.99
5648.00,0.99
5647.00,0.99
5646.00,0.99
5645.00,0.99
5644.00,0.99
5643.00,0.99
5642.00,1.00
5641.00,1.00
5640.00,1.00
5639.00,1.00
5638.00,1.00
5637.00,1.00
5636.00,1.00
5635.00,1.00
5634.00,1.00
5633.00,1.00
5632.00,1.00
5631.00,1.01
5630.00,1.01
5629.00,1.01
5628.00,1.01
5627.00,1.01
5626.00,1.01
5625.00,1.01
5624.00,1.01
5623.00,1.01
5622.00,1.01
5621.00,1.01
5620.00,1.02
5619.00,1.02
5618.00,1.02
5617.00,1.02
5616.00,1.02
5615.00,1.02
5614.00,1.02
5613.00,1.03
5612.00,1.03
5611.00,1.03
5610.00,1.03
5609.00,1.03
5608.00,1.03
5607.00,1.03
5606.00,1.04
5605.00,1.04
5604.00,1.04
5603.00,1.04
5602.00,1.04
5601.00,1.04
5600.00,1.04
5599.00,1.04
5598.00,1.04
5597.00,1.05
5596.00,1.05
5595.00,1.05
5594.00,1.05
5593.00,1.05
5592.00,1.05
5591.00,1.05
5590.00,1.05
5589.00,1.05
5588.00,1.05
5587.00,1.05
5586.00,1.05
5585.00,1.06
5584.00,1.06
5583.00,1.06
5582.00,1.06
5581.00,1.06
5580.00,1.06
5579.00,1.06
5578.00,1.06
5577.00,1.06
5576.00,1.06
5575.00,1.06
5574.00,1.06
5573.00,1.06
5572.00,1.07
5571.00,1.07
5570.00,1.07
5569.00,1.07
5568.00,1.07
5567.00,1.07
5566.00,1.07
5565.00,1.07
5564.00,1.07
5563.00,1.07
5562.00,1.07
5561.00,1.08
5560.00,1.08
5559.00,1.08
5558.00,1.08
5557.00,1.08
5556.00,1.08
5555.00,1.08
5554.00,1.08
5553.00,1.08
5552.00,1.09
5551.00,1.09
5550.00,1.09
5549.00,1.09
5548.00,1.09
5547.00,1.09
5546.00,1.09
5545.00,1.09
5544.00,1.09
5543.00,1.10
5542.00,1.10
5541.00,1.10
5540.00,1.10
5539.00,1.10
5538.00,1.10
5537.00,1.10
5536.00,1.10
5535.00,1.10
5534.00,1.11
5533.00,1.11
5532.00,1.11
5531.00,1.11
5530.00,1.11
5529.00,1.11
5528.00,1.11
5527.00,1.11
5526.00,1.11
5525.00,1.11
5524.00,1.11
5523.00,1.11
5522.00,1.11
5521.00,1.11
5520.00,1.11
5519.00,1.11
5518.00,1.11
5517.00,1.11
5516.00,1.11
5515.00,1.11
5514.00,1.11
5513.00,1.11
5512.00,1.11
5511.00,1.12
5510.00,1.12
5509.00,1.12
5508.00,1.12
5507.00,1.12
5506.00,1.12
5505.00,1.12
5504.00,1.12
5503.00,1.12
5502.00,1.12
5501.00,1.12
5500.00,1.12
5499.00,1.12
5498.00,1.12
5497.00,1.12
5496.00,1.12
5495.00,1.12
5494.00,1.12
5493.00,1.12
5492.00,1.12
5491.00,1.12
5490.00,1.12
5489.00,1.12
5488.00,1.12
5487.00,1.12
5486.00,1.12
5485.00,1.13
5484.00,1.13
5483.00,1.13
5482.00,1.13
5481.00,1.13
5480.00,1.13
5479.00,1.13
5478.00,1.13
5477.00,1.13
5476.00,1.13
5475.00,1.13
5474.00,1.13
5473.00,1.13
5472.00,1.13
5471.00,1.13
5470.00,1.14
5469.00,1.14
5468.00,1.14
5467.00,1.14
5466.00,1.14
5465.00,1.14
5464.00,1.14
5463.00,1.14
5462.00,1.14
5461.00,1.14
5460.00,1.14
5459.00,1.14
5458.00,1.14
5457.00,1.14
5456.00,1.14
5455.00,1.14
5454.00,1.14
5453.00,1.14
5452.00,1.15
5451.00,1.15
5450.00,1.15
5449.00,1.15
5448.00,1.15
5447.00,1.15
5446.00,1.15
5445.00,1.15
5444.00,1.15
5443.00,1.15
5442.00,1.15
5441.00,1.15
5440.00,1.15
5439.00,1.15
5438.00,1.15
5437.00,1.15
5436.00,1.15
5435.00,1.15
5434.00,1.15
5433.00,1.15
5432.00,1.15
5431.00,1.15
5430.00,1.15
5429.00,1.15
5428.00,1.15
5427.00,1.15
5426.00,1.15
5425.00,1.15
5424.00,1.15
5423.00,1.15
5422.00,1.15
5421.00,1.15
5420.00,1.15
5419.00,1.15
5418.00,1.15
5417.00,1.15
5416.00,1.15
5415.00,1.15
5414.00,1.15
5413.00,1.15
5412.00,1.15
5411.00,1.15
5410.00,1.15
5409.00,1.15
5408.00,1.15
5407.00,1.15
5406.00,1.15
5405.00,1.15
5404.00,1.15
5403.00,1.15
5402.00,1.15
5401.00,1.15
5400.00,1.15
5399.00,1.15
5398.00,1.14
5397.00,1.14
5396.00,1.14
5395.00,1.14
5394.00,1.14
5393.00,1.14
5392.00,1.14
5391.00,1.14
5390.00,1.14
5389.00,1.13
5388.00,1.13
5387.00,1.13
5386.00,1.13
5385.00,1.13
5384.00,1.13
5383.00,1.12
5382.00,1.12
5381.00,1.12
5380.00,1.12
5379.00,1.11
5378.00,1.11
5377.00,1.11
5376.00,1.11
5375.00,1.10
5374.00,1.10
5373.00,1.10
5372.00,1.09
5371.00,1.09
5370.00,1.09
5369.00,1.08
5368.00,1.08
5367.00,1.08
5366.00,1.07
5365.00,1.07
5364.00,1.06
5363.00,1.06
5362.00,1.05
5361.00,1.05
5360.00,1.04
5359.00,1.04
5358.00,1.03
5357.00,1.03
5356.00,1.02
5355.00,1.02
5354.00,1.01
5353.00,1.00
5352.00,1.00
5351.00,0.99
5350.00,0.98
5349.00,0.98
5348.00,0.97
5347.00,0.96
5346.00,0.96
5345.00,0.95
5344.00,0.94
5343.00,0.93
5342.00,0.93
5341.00,0.92
5340.00,0.91
5339.00,0.90
5338.00,0.90
5337.00,0.89
5336.00,0.88
5335.00,0.87
5334.00,0.86
5333.00,0.85
5332.00,0.85
5331.00,0.84
5330.00,0.83
5329.00,0.82
5328.00,0.81
5327.00,0.80
5326.00,0.79
5325.00,0.78
5324.00,0.78
5323.00,0.77
5322.00,0.76
5321.00,0.75
5320.00,0.74
5319.00,0.74
5318.00,0.73
5317.00,0.72
5316.00,0.71
5315.00,0.71
5314.00,0.70
5313.00,0.69
5312.00,0.68
5311.00,0.68
5310.00,0.67
5309.00,0.66
5308.00,0.66
5307.00,0.65
5306.00,0.64
5305.00,0.64
5304.00,0.63
5303.00,0.63
5302.00,0.62
5301.00,0.62
5300.00,0.61
5299.00,0.61
5298.00,0.60
5297.00,0.60
5296.00,0.60
5295.00,0.59
5294.00,0.59
5293.00,0.59
5292.00,0.58
5291.00,0.58
5290.00,0.58
5289.00,0.57
5288.00,0.57
5287.00,0.57
5286.00,0.57
5285.00,0.56
5284.00,0.56
5283.00,0.56
5282.00,0.56
5281.00,0.56
5280.00,0.55
5279.00,0.55
5278.00,0.55
5277.00,0.55
5276.00,0.55
5275.00,0.55
5274.00,0.54
5273.00,0.54
5272.00,0.54
5271.00,0.54
5270.00,0.54
5269.00,0.54
5268.00,0.54
5267.00,0.54
5266.00,0.54
5265.00,0.54
5264.00,0.53
5263.00,0.53
5262.00,0.53
5261.00,0.53
5260.00,0.53
5259.00,0.53
5258.00,0.53
5257.00,0.53
5256.00,0.53
5255.00,0.53
5254.00,0.53
5253.00,0.53
5252.00,0.53
5251.00,0.53
5250.00,0.53
5249.00,0.53
5248.00,0.53
5247.00,0.53
5246.00,0.53
5245.00,0.53
5244.00,0.53
5243.00,0.53
5242.00,0.53
5241.00,0.53
5240.00,0.53
5239.00,0.53
5238.00,0.53
5237.00,0.53
5236.00,0.53
5235.00,0.53
5234.00,0.53
5233.00,0.53
5232.00,0.53
5231.00,0.53
5230.00,0.53
5229.00,0.53
5228.00,0.53
5227.00,0.53
5226.00,0.53
5225.00,0.53
5224.00,0.53
5223.00,0.53
5222.00,0.53
5221.00,0.53
5220.00,0.53
5219.00,0.53
5218.00,0.53
5217.00,0.53
5216.00,0.54
5215.00,0.54
5214.00,0.54
5213.00,0.54
5212.00,0.54
5211.00,0.54
5210.00,0.54
5209.00,0.54
5208.00,0.54
5207.00,0.54
5206.00,0.54
5205.00,0.54
5204.00,0.54
5203.00,0.55
5202.00,0.55
5201.00,0.55
5200.00,0.55
5199.00,0.55
5198.00,0.55
5197.00,0.55
5196.00,0.55
5195.00,0.55
5194.00,0.55
5193.00,0.55
5192.00,0.55
5191.00,0.55
5190.00,0.55
5189.00,0.55
5188.00,0.55
5187.00,0.55
5186.00,0.55
5185.00,0.55
5184.00,0.55
5183.00,0.55
5182.00,0.55
5181.00,0.55
5180.00,0.55
5179.00,0.55
5178.00,0.55
5177.00,0.55
5176.00,0.55
5175.00,0.55
5174.00,0.55
5173.00,0.55
5172.00,0.55
5171.00,0.55
5170.00,0.55
5169.00,0.55
5168.00,0.55
5167.00,0.55
5166.00,0.55
5165.00,0.55
5164.00,0.55
5163.00,0.55
5162.00,0.55
5161.00,0.55
5160.00,0.55
5159.00,0.55
5158.00,0.55
5157.00,0.55
5156.00,0.55
5155.00,0.55
5154.00,0.55
5153.00,0.55
5152.00,0.55
5151.00,0.55
5150.00,0.55
5149.00,0.55
5148.00,0.56
5147.00,0.56
5146.00,0.56
5145.00,0.56
5144.00,0.56
5143.00,0.56
5142.00,0.56
5141.00,0.56
5140.00,0.56
5139.00,0.56
5138.00,0.56
5137.00,0.56
5136.00,0.56
5135.00,0.56
5134.00,0.56
5133.00,0.56
5132.00,0.56
5131.00,0.56
5130.00,0.56
5129.00,0.56
5128.00,0.57
5127.00,0.57
5126.00,0.57
5125.00,0.57
5124.00,0.57
5123.00,0.57
5122.00,0.57
5121.00,0.57
5120.00,0.57
5119.00,0.57
5118.00,0.57
5117.00,0.57
5116.00,0.57
5115.00,0.57
5114.00,0.57
5113.00,0.57
5112.00,0.57
5111.00,0.57
5110.00,0.57
5109.00,0.57
5108.00,0.58
5107.00,0.58
5106.00,0.58
5105.00,0.58
5104.00,0.58
5103.00,0.58
5102.00,0.58
5101.00,0.58
5100.00,0.58
5099.00,0.58
5098.00,0.58
5097.00,0.58
5096.00,0.58
5095.00,0.58
5094.00,0.58
5093.00,0.58
5092.00,0.58
5091.00,0.58
5090.00,0.58
5089.00,0.59
5088.00,0.59
5087.00,0.59
5086.00,0.59
5085.00,0.59
5084.00,0.59
5083.00,0.59
5082.00,0.59
5081.00,0.59
5080.00,0.59
5079.00,0.59
5078.00,0.59
5077.00,0.59
5076.00,0.59
5075.00,0.59
5074.00,0.59
5073.00,0.59
5072.00,0.59
5071.00,0.59
5070.00,0.59
5069.00,0.59
5068.00,0.59
5067.00,0.59
5066.00,0.59
5065.00,0.59
5064.00,0.60
5063.00,0.60
5062.00,0.60
5061.00,0.60
5060.00,0.60
5059.00,0.60
5058.00,0.60
5057.00,0.60
5056.00,0.60
5055.00,0.60
5054.00,0.60
5053.00,0.60
5052.00,0.60
5051.00,0.61
5050.00,0.61
5049.00,0.61
5048.00,0.61
5047.00,0.61
5046.00,0.61
5045.00,0.61
5044.00,0.61
5043.00,0.61
5042.00,0.61
5041.00,0.61
5040.00,0.62
5039.00,0.62
5038.00,0.62
5037.00,0.62
5036.00,0.62
5035.00,0.62
5034.00,0.62
5033.00,0.62
5032.00,0.62
5031.00,0.62
5030.00,0.62
5029.00,0.62
5028.00,0.62
5027.00,0.62
5026.00,0.63
5025.00,0.63
5024.00,0.63
5023.00,0.63
5022.00,0.63
5021.00,0.63
5020.00,0.63
5019.00,0.63
5018.00,0.63
5017.00,0.63
5016.00,0.63
5015.00,0.63
5014.00,0.63
5013.00,0.63
5012.00,0.63
5011.00,0.63
5010.00,0.63
5009.00,0.63
5008.00,0.63
5007.00,0.63
5006.00,0.63
5005.00,0.63
5004.00,0.63
5003.00,0.63
5002.00,0.64
5001.00,0.64
5000.00,0.64
4999.00,0.64
4998.00,0.64
4997.00,0.64
4996.00,0.64
4995.00,0.64
4994.00,0.64
4993.00,0.64
4992.00,0.64
4991.00,0.64
4990.00,0.65
4989.00,0.65
4988.00,0.65
4987.00,0.65
4986.00,0.65
4985.00,0.65
4984.00,0.65
4983.00,0.65
4982.00,0.65
4981.00,0.66
4980.00,0.66
4979.00,0.66
4978.00,0.66
4977.00,0.66
4976.00,0.66
4975.00,0.66
4974.00,0.66
4973.00,0.66
4972.00,0.66
4971.00,0.66
4970.00,0.67
4969.00,0.67
4968.00,0.67
4967.00,0.67
4966.00,0.67
4965.00,0.67
4964.00,0.67
4963.00,0.67
4962.00,0.67
4961.00,0.68
4960.00,0.68
4959.00,0.68
4958.00,0.68
4957.00,0.68
4956.00,0.68
4955.00,0.68
4954.00,0.68
4953.00,0.69
4952.00,0.69
4951.00,0.69
4950.00,0.69
4949.00,0.69
4948.00,0.69
4947.00,0.69
4946.00,0.69
4945.00,0.69
4944.00,0.69
4943.00,0.69
4942.00,0.69
4941.00,0.69
4940.00,0.69
4939.00,0.69
4938.00,0.69
4937.00,0.69
4936.00,0.70
4935.00,0.70
4934.00,0.70
4933.00,0.70
4932.00,0.70
4931.00,0.70
4930.00,0.70
4929.00,0.70
4928.00,0.70
4927.00,0.70
4926.00,0.70
4925.00,0.70
4924.00,0.70
4923.00,0.71
4922.00,0.71
4921.00,0.71
4920.00,0.71
4919.00,0.71
4918.00,0.71
4917.00,0.71
4916.00,0.71
4915.00,0.71
4914.00,0.71
4913.00,0.71
4912.00,0.71
4911.00,0.71
4910.00,0.72
4909.00,0.72
4908.00,0.72
4907.00,0.72
4906.00,0.72
4905.00,0.72
4904.00,0.72
4903.00,0.72
4902.00,0.72
4901.00,0.72
4900.00,0.72
4899.00,0.72
4898.00,0.72
4897.00,0.72
4896.00,0.72
4895.00,0.72
4894.00,0.72
4893.00,0.72
4892.00,0.72
4891.00,0.73
4890.00,0.73
4889.00,0.73
4888.00,0.73
4887.00,0.73
4886.00,0.73
4885.00,0.73
4884.00,0.73
4883.00,0.73
4882.00,0.73
4881.00,0.73
4880.00,0.73
4879.00,0.73
4878.00,0.73
4877.00,0.73
4876.00,0.73
4875.00,0.73
4874.00,0.73
4873.00,0.74
4872.00,0.74
4871.00,0.74
4870.00,0.74
4869.00,0.74
4868.00,0.74
4867.00,0.74
4866.00,0.74
4865.00,0.74
4864.00,0.74
4863.00,0.74
4862.00,0.74
4861.00,0.74
4860.00,0.74
4859.00,0.75
4858.00,0.75
4857.00,0.75
4856.00,0.75
4855.00,0.75
4854.00,0.75
4853.00,0.75
4852.00,0.75
4851.00,0.75
4850.00,0.75
4849.00,0.75
4848.00,0.75
4847.00,0.75
4846.00,0.75
4845.00,0.75
4844.00,0.75
4843.00,0.75
4842.00,0.75
4841.00,0.75
4840.00,0.75
4839.00,0.75
4838.00,0.75
4837.00,0.75
4836.00,0.75
4835.00,0.75
4834.00,0.75
4833.00,0.76
4832.00,0.76
4831.00,0.76
4830.00,0.76
4829.00,0.76
4828.00,0.76
4827.00,0.76
4826.00,0.76
4825.00,0.76
4824.00,0.76
4823.00,0.76
4822.00,0.76
4821.00,0.76
4820.00,0.77
4819.00,0.77
4818.00,0.77
4817.00,0.77
4816.00,0.77
4815.00,0.77
4814.00,0.77
4813.00,0.77
4812.00,0.78
4811.00,0.78
4810.00,0.78
4809.00,0.78
4808.00,0.78
4807.00,0.78
4806.00,0.79
4805.00,0.79
4804.00,0.79
4803.00,0.79
4802.00,0.79
4801.00,0.79
4800.00,0.79
4799.00,0.79
4798.00,0.80
4797.00,0.80
4796.00,0.80
4795.00,0.80
4794.00,0.80
4793.00,0.80
4792.00,0.80
4791.00,0.80
4790.00,0.80
4789.00,0.81
4788.00,0.81
4787.00,0.81
4786.00,0.81
4785.00,0.81
4784.00,0.81
4783.00,0.81
4782.00,0.82
4781.00,0.82
4780.00,0.82
4779.00,0.82
4778.00,0.82
4777.00,0.83
4776.00,0.83
4775.00,0.83
4774.00,0.83
4773.00,0.83
4772.00,0.83
4771.00,0.83
4770.00,0.83
4769.00,0.84
4768.00,0.84
4767.00,0.84
4766.00,0.84
4765.00,0.84
4764.00,0.84
4763.00,0.84
4762.00,0.84
4761.00,0.84
4760.00,0.84
4759.00,0.84
4758.00,0.85
4757.00,0.85
4756.00,0.85
4755.00,0.85
4754.00,0.85
4753.00,0.85
4752.00,0.85
4751.00,0.85
4750.00,0.86
4749.00,0.86
4748.00,0.86
4747.00,0.86
4746.00,0.86
4745.00,0.86
4744.00,0.86
4743.00,0.86
4742.00,0.86
4741.00,0.87
4740.00,0.87
4739.00,0.87
4738.00,0.87
4737.00,0.87
4736.00,0.87
4735.00,0.87
4734.00,0.88
4733.00,0.88
4732.00,0.88
4731.00,0.88
4730.00,0.88
4729.00,0.89
4728.00,0.89
4727.00,0.89
4726.00,0.89
4725.00,0.89
4724.00,0.90
4723.00,0.90
4722.00,0.90
4721.00,0.90
4720.00,0.90
4719.00,0.91
4718.00,0.91
4717.00,0.91
4716.00,0.91
4715.00,0.91
4714.00,0.92
4713.00,0.92
4712.00,0.92
4711.00,0.92
4710.00,0.92
4709.00,0.92
4708.00,0.92
4707.00,0.93
4706.00,0.93
4705.00,0.93
4704.00,0.93
4703.00,0.93
4702.00,0.93
4701.00,0.94
4700.00,0.94
4699.00,0.94
4698.00,0.94
4697.00,0.94
4696.00,0.94
4695.00,0.95
4694.00,0.95
4693.00,0.95
4692.00,0.95
4691.00,0.95
4690.00,0.95
4689.00,0.96
4688.00,0.96
4687.00,0.96
4686.00,0.96
4685.00,0.96
4684.00,0.96
4683.00,0.96
4682.00,0.96
4681.00,0.97
4680.00,0.97
4679.00,0.97
4678.00,0.97
4677.00,0.97
4676.00,0.97
4675.00,0.97
4674.00,0.97
4673.00,0.97
4672.00,0.97
4671.00,0.98
4670.00,0.98
4669.00,0.98
4668.00,0.98
4667.00,0.98
4666.00,0.98
4665.00,0.98
4664.00,0.98
4663.00,0.98
4662.00,0.98
4661.00,0.98
4660.00,0.98
4659.00,0.98
4658.00,0.99
4657.00,0.99
4656.00,0.99
4655.00,0.99
4654.00,0.99
4653.00,1.00
4652.00,1.00
4651.00,1.00
4650.00,1.00
4649.00,1.00
4648.00,1.01
4647.00,1.01
4646.00,1.01
4645.00,1.01
4644.00,1.01
4643.00,1.01
4642.00,1.02
4641.00,1.02
4640.00,1.02
4639.00,1.02
4638.00,1.02
4637.00,1.02
4636.00,1.02
4635.00,1.02
4634.00,1.02
4633.00,1.02
4632.00,1.02
4631.00,1.02
4630.00,1.02
4629.00,1.02
4628.00,1.02
4627.00,1.02
4626.00,1.03
4625.00,1.03
4624.00,1.03
4623.00,1.03
4622.00,1.03
4621.00,1.03
4620.00,1.03
4619.00,1.03
4618.00,1.04
4617.00,1.04
4616.00,1.04
4615.00,1.04
4614.00,1.04
4613.00,1.04
4612.00,1.04
4611.00,1.05
4610.00,1.05
4609.00,1.05
4608.00,1.05
4607.00,1.05
4606.00,1.05
4605.00,1.06
4604.00,1.06
4603.00,1.06
4602.00,1.06
4601.00,1.06
4600.00,1.06
4599.00,1.07
4598.00,1.07
4597.00,1.07
4596.00,1.07
4595.00,1.07
4594.00,1.07
4593.00,1.07
4592.00,1.07
4591.00,1.07
4590.00,1.07
4589.00,1.07
4588.00,1.07
4587.00,1.07
4586.00,1.07
4585.00,1.07
4584.00,1.07
4583.00,1.07
4582.00,1.07
4581.00,1.07
4580.00,1.08
4579.00,1.08
4578.00,1.08
4577.00,1.08
4576.00,1.08
4575.00,1.08
4574.00,1.08
4573.00,1.08
4572.00,1.08
4571.00,1.08
4570.00,1.08
4569.00,1.08
4568.00,1.08
4567.00,1.09
4566.00,1.09
4565.00,1.09
4564.00,1.09
4563.00,1.09
4562.00,1.09
4561.00,1.09
4560.00,1.09
4559.00,1.09
4558.00,1.09
4557.00,1.09
4556.00,1.09
4555.00,1.09
4554.00,1.09
4553.00,1.09
4552.00,1.09
4551.00,1.09
4550.00,1.09
4549.00,1.10
4548.00,1.10
4547.00,1.10
4546.00,1.10
4545.00,1.10
4544.00,1.10
4543.00,1.10
4542.00,1.11
4541.00,1.11
4540.00,1.11
4539.00,1.11
4538.00,1.11
4537.00,1.11
4536.00,1.11
4535.00,1.12
4534.00,1.12
4533.00,1.12
4532.00,1.12
4531.00,1.12
4530.00,1.12
4529.00,1.12
4528.00,1.12
4527.00,1.12
4526.00,1.12
4525.00,1.12
4524.00,1.12
4523.00,1.12
4522.00,1.12
4521.00,1.12
4520.00,1.12
4519.00,1.12
4518.00,1.12
4517.00,1.12
4516.00,1.12
4515.00,1.12
4514.00,1.12
4513.00,1.12
4512.00,1.12
4511.00,1.13
4510.00,1.13
4509.00,1.13
4508.00,1.13
4507.00,1.13
4506.00,1.13
4505.00,1.13
4504.00,1.13
4503.00,1.13
4502.00,1.13
4501.00,1.13
4500.00,1.13
4499.00,1.13
4498.00,1.13
4497.00,1.13
4496.00,1.13
4495.00,1.13
4494.00,1.13
4493.00,1.13
4492.00,1.13
4491.00,1.12
4490.00,1.12
4489.00,1.12
4488.00,1.12
4487.00,1.12
4486.00,1.12
4485.00,1.12
4484.00,1.12
4483.00,1.11
4482.00,1.11
4481.00,1.11
4480.00,1.11
4479.00,1.11
4478.00,1.11
4477.00,1.11
4476.00,1.10
4475.00,1.10
4474.00,1.10
4473.00,1.10
4472.00,1.10
4471.00,1.09
4470.00,1.09
4469.00,1.09
4468.00,1.09
4467.00,1.08
4466.00,1.08
4465.00,1.08
4464.00,1.08
4463.00,1.07
4462.00,1.07
4461.00,1.07
4460.00,1.06
4459.00,1.06
4458.00,1.06
4457.00,1.05
4456.00,1.05
4455.00,1.05
4454.00,1.04
4453.00,1.04
4452.00,1.04
4451.00,1.03
4450.00,1.03
4449.00,1.03
4448.00,1.02
4447.00,1.02
4446.00,1.01
4445.00,1.01
4444.00,1.01
4443.00,1.00
4442.00,1.00
4441.00,0.99
4440.00,0.99
4439.00,0.98
4438.00,0.98
4437.00,0.97
4436.00,0.97
4435.00,0.97
4434.00,0.96
4433.00,0.96
4432.00,0.95
4431.00,0.95
4430.00,0.94
4429.00,0.94
4428.00,0.93
4427.00,0.93
4426.00,0.93
4425.00,0.92
4424.00,0.92
4423.00,0.92
4422.00,0.91
4421.00,0.91
4420.00,0.91
4419.00,0.91
4418.00,0.90
4417.00,0.90
4416.00,0.90
4415.00,0.90
4414.00,0.90
4413.00,0.90
4412.00,0.90
4411.00,0.90
4410.00,0.90
4409.00,0.90
4408.00,0.90
4407.00,0.90
4406.00,0.90
4405.00,0.90
4404.00,0.90
4403.00,0.90
4402.00,0.90
4401.00,0.90
4400.00,0.90
4399.00,0.90
4398.00,0.91
4397.00,0.91
4396.00,0.91
4395.00,0.91
4394.00,0.92
4393.00,0.92
4392.00,0.92
4391.00,0.93
4390.00,0.93
4389.00,0.93
4388.00,0.94
4387.00,0.94
4386.00,0.94
4385.00,0.95
4384.00,0.95
4383.00,0.95
4382.00,0.95
4381.00,0.95
4380.00,0.95
4379.00,0.96
4378.00,0.96
4377.00,0.96
4376.00,0.96
4375.00,0.96
4374.00,0.96
4373.00,0.96
4372.00,0.96
4371.00,0.95
4370.00,0.95
4369.00,0.95
4368.00,0.95
4367.00,0.95
4366.00,0.95
4365.00,0.95
4364.00,0.95
4363.00,0.95
4362.00,0.95
4361.00,0.95
4360.00,0.94
4359.00,0.94
4358.00,0.94
4357.00,0.94
4356.00,0.94
4355.00,0.94
4354.00,0.94
4353.00,0.94
4352.00,0.94
4351.00,0.94
4350.00,0.93
4349.00,0.93
4348.00,0.93
4347.00,0.93
4346.00,0.93
4345.00,0.93
4344.00,0.93
4343.00,0.93
4342.00,0.93
4341.00,0.93
4340.00,0.93
4339.00,0.93
4338.00,0.93
4337.00,0.93
4336.00,0.93
4335.00,0.93
4334.00,0.93
4333.00,0.93
4332.00,0.93
4331.00,0.93
4330.00,0.94
4329.00,0.94
4328.00,0.94
4327.00,0.94
4326.00,0.95
4325.00,0.95
4324.00,0.95
4323.00,0.96
4322.00,0.96
4321.00,0.96
4320.00,0.97
4319.00,0.97
4318.00,0.97
4317.00,0.97
4316.00,0.97
4315.00,0.98
4314.00,0.98
4313.00,0.98
4312.00,0.98
4311.00,0.98
4310.00,0.99
4309.00,0.99
4308.00,0.99
4307.00,0.99
4306.00,1.00
4305.00,1.00
4304.00,1.00
4303.00,1.00
4302.00,1.01
4301.00,1.01
4300.00,1.01
4299.00,1.02
4298.00,1.02
4297.00,1.02
4296.00,1.02
4295.00,1.03
4294.00,1.03
4293.00,1.03
4292.00,1.03
4291.00,1.03
4290.00,1.03
4289.00,1.03
4288.00,1.03
4287.00,1.03
4286.00,1.03
4285.00,1.03
4284.00,1.03
4283.00,1.03
4282.00,1.03
4281.00,1.03
4280.00,1.03
4279.00,1.03
4278.00,1.02
4277.00,1.02
4276.00,1.02
4275.00,1.02
4274.00,1.02
4273.00,1.02
4272.00,1.02
4271.00,1.02
4270.00,1.02
4269.00,1.01
4268.00,1.01
4267.00,1.01
4266.00,1.01
4265.00,1.01
4264.00,1.01
4263.00,1.01
4262.00,1.01
4261.00,1.01
4260.00,1.01
4259.00,1.01
4258.00,1.01
4257.00,1.01
4256.00,1.01
4255.00,1.01
4254.00,1.01
4253.00,1.01
4252.00,1.01
4251.00,1.01
4250.00,1.01
4249.00,1.01
4248.00,1.01
4247.00,1.01
4246.00,1.02
4245.00,1.02
4244.00,1.02
4243.00,1.02
4242.00,1.02
4241.00,1.02
4240.00,1.02
4239.00,1.02
4238.00,1.02
4237.00,1.02
4236.00,1.02
4235.00,1.02
4234.00,1.02
4233.00,1.03
4232.00,1.03
4231.00,1.03
4230.00,1.03
4229.00,1.03
4228.00,1.03
4227.00,1.03
4226.00,1.03
4225.00,1.03
4224.00,1.04
4223.00,1.04
4222.00,1.04
4221.00,1.04
4220.00,1.04
4219.00,1.04
4218.00,1.04
4217.00,1.04
4216.00,1.05
4215.00,1.05
4214.00,1.05
4213.00,1.05
4212.00,1.05
4211.00,1.05
4210.00,1.05
4209.00,1.05
4208.00,1.05
4207.00,1.05
4206.00,1.05
4205.00,1.05
4204.00,1.05
4203.00,1.05
4202.00,1.05
4201.00,1.05
4200.00,1.05
4199.00,1.05
4198.00,1.05
4197.00,1.05
4196.00,1.05
4195.00,1.05
4194.00,1.05
4193.00,1.05
4192.00,1.05
4191.00,1.05
4190.00,1.05
4189.00,1.05
4188.00,1.05
4187.00,1.05
4186.00,1.05
4185.00,1.05
4184.00,1.05
4183.00,1.05
4182.00,1.05
4181.00,1.05
4180.00,1.05
4179.00,1.05
4178.00,1.05
4177.00,1.05
4176.00,1.05
4175.00,1.05
4174.00,1.06
4173.00,1.06
4172.00,1.06
4171.00,1.06
4170.00,1.06
4169.00,1.06
4168.00,1.06
4167.00,1.06
4166.00,1.06
4165.00,1.06
4164.00,1.07
4163.00,1.07
4162.00,1.07
4161.00,1.07
4160.00,1.07
4159.00,1.07
4158.00,1.07
4157.00,1.07
4156.00,1.07
4155.00,1.07
4154.00,1.07
4153.00,1.07
4152.00,1.07
4151.00,1.07
4150.00,1.07
4149.00,1.07
4148.00,1.07
4147.00,1.07
4146.00,1.07
4145.00,1.07
4144.00,1.07
4143.00,1.07
4142.00,1.07
4141.00,1.07
4140.00,1.07
4139.00,1.07
4138.00,1.07
4137.00,1.07
4136.00,1.07
4135.00,1.07
4134.00,1.07
4133.00,1.07
4132.00,1.07
4131.00,1.07
4130.00,1.07
4129.00,1.07
4128.00,1.07
4127.00,1.07
4126.00,1.07
4125.00,1.07
4124.00,1.07
4123.00,1.07
4122.00,1.07
4121.00,1.08
4120.00,1.08
4119.00,1.08
4118.00,1.08
4117.00,1.08
4116.00,1.08
4115.00,1.08
4114.00,1.08
4113.00,1.08
4112.00,1.08
4111.00,1.08
4110.00,1.08
4109.00,1.09
4108.00,1.09
4107.00,1.09
4106.00,1.09
4105.00,1.09
4104.00,1.09
4103.00,1.09
4102.00,1.10
4101.00,1.10
4100.00,1.10
4099.00,1.10
4098.00,1.10
4097.00,1.10
4096.00,1.10
4095.00,1.10
4094.00,1.10
4093.00,1.10
4092.00,1.10
4091.00,1.10
4090.00,1.10
4089.00,1.10
4088.00,1.10
4087.00,1.10
4086.00,1.10
4085.00,1.10
4084.00,1.10
4083.00,1.10
4082.00,1.10
4081.00,1.10
4080.00,1.10
4079.00,1.10
4078.00,1.10
4077.00,1.10
4076.00,1.10
4075.00,1.10
4074.00,1.09
4073.00,1.09
4072.00,1.09
4071.00,1.09
4070.00,1.09
4069.00,1.09
4068.00,1.09
4067.00,1.09
4066.00,1.09
4065.00,1.09
4064.00,1.09
4063.00,1.09
4062.00,1.09
4061.00,1.09
4060.00,1.09
4059.00,1.09
4058.00,1.09
4057.00,1.09
4056.00,1.09
4055.00,1.09
4054.00,1.09
4053.00,1.09
4052.00,1.09
4051.00,1.09
4050.00,1.09
4049.00,1.10
4048.00,1.10
4047.00,1.10
4046.00,1.10
4045.00,1.11
4044.00,1.11
4043.00,1.11
4042.00,1.12
4041.00,1.12
4040.00,1.12
4039.00,1.12
4038.00,1.12
4037.00,1.12
4036.00,1.13
4035.00,1.13
4034.00,1.13
4033.00,1.13
4032.00,1.13
4031.00,1.13
4030.00,1.12
4029.00,1.12
4028.00,1.12
4027.00,1.12
4026.00,1.12
4025.00,1.12
4024.00,1.12
4023.00,1.12
4022.00,1.12
4021.00,1.12
4020.00,1.12
4019.00,1.12
4018.00,1.12
4017.00,1.13
4016.00,1.13
4015.00,1.13
4014.00,1.13
4013.00,1.13
4012.00,1.14
4011.00,1.14
4010.00,1.14
4009.00,1.14
4008.00,1.14
4007.00,1.14
4006.00,1.15
4005.00,1.15
4004.00,1.15
4003.00,1.15
4002.00,1.15
4001.00,1.15
4000.00,1.15
