创建为新数据集,样品 047 用户 Administrator 日期 星期三, 十一月 01 2017
cm-1,%T
10000.00,1.30
9999.00,1.30
9998.00,1.30
9997.00,1.30
9996.00,1.30
9995.00,1.30
9994.00,1.29
9993.00,1.29
9992.00,1.29
9991.00,1.29
9990.00,1.29
9989.00,1.29
9988.00,1.29
9987.00,1.29
9986.00,1.29
9985.00,1.29
9984.00,1.29
9983.00,1.29
9982.00,1.29
9981.00,1.29
9980.00,1.29
9979.00,1.29
9978.00,1.29
9977.00,1.29
9976.00,1.29
9975.00,1.29
9974.00,1.29
9973.00,1.29
9972.00,1.29
9971.00,1.28
9970.00,1.28
9969.00,1.28
9968.00,1.28
9967.00,1.28
9966.00,1.28
9965.00,1.28
9964.00,1.28
9963.00,1.28
9962.00,1.28
9961.00,1.28
9960.00,1.28
9959.00,1.28
9958.00,1.28
9957.00,1.28
9956.00,1.28
9955.00,1.28
9954.00,1.28
9953.00,1.28
9952.00,1.28
9951.00,1.28
9950.00,1.28
9949.00,1.28
9948.00,1.28
9947.00,1.28
9946.00,1.28
9945.00,1.28
9944.00,1.28
9943.00,1.28
9942.00,1.29
9941.00,1.29
9940.00,1.29
9939.00,1.29
9938.00,1.29
9937.00,1.29
9936.00,1.29
9935.00,1.29
9934.00,1.29
9933.00,1.29
9932.00,1.29
9931.00,1.29
9930.00,1.29
9929.00,1.29
9928.00,1.29
9927.00,1.29
9926.00,1.29
9925.00,1.28
9924.00,1.28
9923.00,1.28
9922.00,1.28
9921.00,1.28
9920.00,1.28
9919.00,1.28
9918.00,1.28
9917.00,1.27
9916.00,1.27
9915.00,1.27
9914.00,1.27
9913.00,1.27
9912.00,1.27
9911.00,1.27
9910.00,1.27
9909.00,1.27
9908.00,1.27
9907.00,1.27
9906.00,1.27
9905.00,1.27
9904.00,1.27
9903.00,1.27
9902.00,1.27
9901.00,1.27
9900.00,1.27
9899.00,1.28
9898.00,1.28
9897.00,1.28
9896.00,1.28
9895.00,1.28
9894.00,1.28
9893.00,1.28
9892.00,1.28
9891.00,1.28
9890.00,1.28
9889.00,1.28
9888.00,1.28
9887.00,1.28
9886.00,1.28
9885.00,1.28
9884.00,1.28
9883.00,1.28
9882.00,1.28
9881.00,1.28
9880.00,1.27
9879.00,1.27
9878.00,1.27
9877.00,1.27
9876.00,1.27
9875.00,1.27
9874.00,1.27
9873.00,1.27
9872.00,1.27
9871.00,1.27
9870.00,1.27
9869.00,1.27
9868.00,1.27
9867.00,1.27
9866.00,1.27
9865.00,1.27
9864.00,1.27
9863.00,1.27
9862.00,1.27
9861.00,1.27
9860.00,1.27
9859.00,1.27
9858.00,1.27
9857.00,1.27
9856.00,1.27
9855.00,1.27
9854.00,1.27
9853.00,1.27
9852.00,1.26
9851.00,1.26
9850.00,1.26
9849.00,1.26
9848.00,1.26
9847.00,1.26
9846.00,1.26
9845.00,1.26
9844.00,1.26
9843.00,1.26
9842.00,1.26
9841.00,1.26
9840.00,1.26
9839.00,1.26
9838.00,1.26
9837.00,1.26
9836.00,1.26
9835.00,1.26
9834.00,1.26
9833.00,1.27
9832.00,1.27
9831.00,1.27
9830.00,1.27
9829.00,1.27
9828.00,1.28
9827.00,1.28
9826.00,1.28
9825.00,1.28
9824.00,1.28
9823.00,1.29
9822.00,1.29
9821.00,1.29
9820.00,1.29
9819.00,1.29
9818.00,1.30
9817.00,1.30
9816.00,1.30
9815.00,1.30
9814.00,1.30
9813.00,1.30
9812.00,1.30
9811.00,1.30
9810.00,1.30
9809.00,1.29
9808.00,1.29
9807.00,1.29
9806.00,1.29
9805.00,1.28
9804.00,1.28
9803.00,1.28
9802.00,1.27
9801.00,1.27
9800.00,1.27
9799.00,1.26
9798.00,1.26
9797.00,1.26
9796.00,1.26
9795.00,1.26
9794.00,1.26
9793.00,1.26
9792.00,1.26
9791.00,1.26
9790.00,1.26
9789.00,1.26
9788.00,1.26
9787.00,1.26
9786.00,1.26
9785.00,1.26
9784.00,1.26
9783.00,1.26
9782.00,1.26
9781.00,1.27
9780.00,1.27
9779.00,1.27
9778.00,1.27
9777.00,1.27
9776.00,1.27
9775.00,1.27
9774.00,1.27
9773.00,1.28
9772.00,1.28
9771.00,1.28
9770.00,1.28
9769.00,1.28
9768.00,1.28
9767.00,1.28
9766.00,1.28
9765.00,1.28
9764.00,1.28
9763.00,1.28
9762.00,1.28
9761.00,1.27
9760.00,1.27
9759.00,1.27
9758.00,1.27
9757.00,1.27
9756.00,1.27
9755.00,1.27
9754.00,1.27
9753.00,1.26
9752.00,1.26
9751.00,1.26
9750.00,1.27
9749.00,1.27
9748.00,1.27
9747.00,1.27
9746.00,1.27
9745.00,1.27
9744.00,1.28
9743.00,1.28
9742.00,1.28
9741.00,1.28
9740.00,1.29
9739.00,1.29
9738.00,1.29
9737.00,1.29
9736.00,1.30
9735.00,1.30
9734.00,1.30
9733.00,1.30
9732.00,1.30
9731.00,1.30
9730.00,1.30
9729.00,1.30
9728.00,1.30
9727.00,1.30
9726.00,1.30
9725.00,1.30
9724.00,1.30
9723.00,1.29
9722.00,1.29
9721.00,1.29
9720.00,1.29
9719.00,1.29
9718.00,1.29
9717.00,1.29
9716.00,1.29
9715.00,1.29
9714.00,1.29
9713.00,1.29
9712.00,1.29
9711.00,1.29
9710.00,1.29
9709.00,1.29
9708.00,1.28
9707.00,1.28
9706.00,1.28
9705.00,1.28
9704.00,1.28
9703.00,1.28
9702.00,1.28
9701.00,1.28
9700.00,1.28
9699.00,1.28
9698.00,1.27
9697.00,1.27
9696.00,1.27
9695.00,1.27
9694.00,1.27
9693.00,1.27
9692.00,1.27
9691.00,1.27
9690.00,1.27
9689.00,1.27
9688.00,1.27
9687.00,1.27
9686.00,1.27
9685.00,1.27
9684.00,1.27
9683.00,1.27
9682.00,1.27
9681.00,1.27
9680.00,1.27
9679.00,1.27
9678.00,1.27
9677.00,1.27
9676.00,1.27
9675.00,1.27
9674.00,1.27
9673.00,1.27
9672.00,1.27
9671.00,1.27
9670.00,1.27
9669.00,1.27
9668.00,1.28
9667.00,1.28
9666.00,1.28
9665.00,1.28
9664.00,1.28
9663.00,1.29
9662.00,1.29
9661.00,1.29
9660.00,1.29
9659.00,1.29
9658.00,1.29
9657.00,1.29
9656.00,1.29
9655.00,1.29
9654.00,1.29
9653.00,1.29
9652.00,1.29
9651.00,1.29
9650.00,1.29
9649.00,1.29
9648.00,1.29
9647.00,1.28
9646.00,1.28
9645.00,1.28
9644.00,1.28
9643.00,1.27
9642.00,1.27
9641.00,1.27
9640.00,1.27
9639.00,1.27
9638.00,1.27
9637.00,1.26
9636.00,1.26
9635.00,1.26
9634.00,1.26
9633.00,1.26
9632.00,1.26
9631.00,1.26
9630.00,1.26
9629.00,1.26
9628.00,1.26
9627.00,1.26
9626.00,1.26
9625.00,1.26
9624.00,1.25
9623.00,1.25
9622.00,1.25
9621.00,1.25
9620.00,1.25
9619.00,1.25
9618.00,1.25
9617.00,1.25
9616.00,1.25
9615.00,1.25
9614.00,1.25
9613.00,1.25
9612.00,1.25
9611.00,1.25
9610.00,1.25
9609.00,1.25
9608.00,1.26
9607.00,1.26
9606.00,1.26
9605.00,1.26
9604.00,1.26
9603.00,1.26
9602.00,1.26
9601.00,1.26
9600.00,1.27
9599.00,1.27
9598.00,1.27
9597.00,1.27
9596.00,1.27
9595.00,1.28
9594.00,1.28
9593.00,1.28
9592.00,1.28
9591.00,1.28
9590.00,1.28
9589.00,1.28
9588.00,1.28
9587.00,1.28
9586.00,1.28
9585.00,1.28
9584.00,1.28
9583.00,1.28
9582.00,1.28
9581.00,1.29
9580.00,1.29
9579.00,1.29
9578.00,1.29
9577.00,1.29
9576.00,1.28
9575.00,1.28
9574.00,1.28
9573.00,1.28
9572.00,1.28
9571.00,1.28
9570.00,1.28
9569.00,1.28
9568.00,1.27
9567.00,1.27
9566.00,1.27
9565.00,1.27
9564.00,1.26
9563.00,1.26
9562.00,1.26
9561.00,1.26
9560.00,1.26
9559.00,1.26
9558.00,1.25
9557.00,1.25
9556.00,1.25
9555.00,1.25
9554.00,1.26
9553.00,1.26
9552.00,1.26
9551.00,1.26
9550.00,1.26
9549.00,1.26
9548.00,1.26
9547.00,1.27
9546.00,1.27
9545.00,1.27
9544.00,1.27
9543.00,1.28
9542.00,1.28
9541.00,1.28
9540.00,1.28
9539.00,1.28
9538.00,1.29
9537.00,1.29
9536.00,1.29
9535.00,1.29
9534.00,1.29
9533.00,1.29
9532.00,1.29
9531.00,1.29
9530.00,1.29
9529.00,1.29
9528.00,1.29
9527.00,1.29
9526.00,1.29
9525.00,1.29
9524.00,1.29
9523.00,1.28
9522.00,1.28
9521.00,1.28
9520.00,1.28
9519.00,1.28
9518.00,1.28
9517.00,1.28
9516.00,1.28
9515.00,1.28
9514.00,1.28
9513.00,1.28
9512.00,1.28
9511.00,1.28
9510.00,1.28
9509.00,1.28
9508.00,1.28
9507.00,1.28
9506.00,1.28
9505.00,1.28
9504.00,1.28
9503.00,1.28
9502.00,1.28
9501.00,1.28
9500.00,1.28
9499.00,1.27
9498.00,1.27
9497.00,1.27
9496.00,1.27
9495.00,1.27
9494.00,1.27
9493.00,1.27
9492.00,1.27
9491.00,1.27
9490.00,1.27
9489.00,1.27
9488.00,1.27
9487.00,1.27
9486.00,1.28
9485.00,1.28
9484.00,1.28
9483.00,1.28
9482.00,1.28
9481.00,1.28
9480.00,1.28
9479.00,1.28
9478.00,1.28
9477.00,1.28
9476.00,1.28
9475.00,1.28
9474.00,1.28
9473.00,1.28
9472.00,1.28
9471.00,1.28
9470.00,1.28
9469.00,1.28
9468.00,1.28
9467.00,1.28
9466.00,1.28
9465.00,1.28
9464.00,1.28
9463.00,1.27
9462.00,1.27
9461.00,1.27
9460.00,1.27
9459.00,1.27
9458.00,1.27
9457.00,1.27
9456.00,1.27
9455.00,1.27
9454.00,1.27
9453.00,1.27
9452.00,1.27
9451.00,1.27
9450.00,1.27
9449.00,1.27
9448.00,1.27
9447.00,1.27
9446.00,1.27
9445.00,1.27
9444.00,1.27
9443.00,1.27
9442.00,1.27
9441.00,1.26
9440.00,1.26
9439.00,1.26
9438.00,1.26
9437.00,1.26
9436.00,1.26
9435.00,1.26
9434.00,1.26
9433.00,1.25
9432.00,1.25
9431.00,1.25
9430.00,1.25
9429.00,1.25
9428.00,1.25
9427.00,1.25
9426.00,1.25
9425.00,1.25
9424.00,1.25
9423.00,1.25
9422.00,1.25
9421.00,1.25
9420.00,1.25
9419.00,1.26
9418.00,1.26
9417.00,1.26
9416.00,1.26
9415.00,1.26
9414.00,1.26
9413.00,1.26
9412.00,1.27
9411.00,1.27
9410.00,1.27
9409.00,1.27
9408.00,1.27
9407.00,1.27
9406.00,1.27
9405.00,1.27
9404.00,1.27
9403.00,1.27
9402.00,1.27
9401.00,1.27
9400.00,1.27
9399.00,1.27
9398.00,1.27
9397.00,1.27
9396.00,1.27
9395.00,1.27
9394.00,1.26
9393.00,1.26
9392.00,1.26
9391.00,1.26
9390.00,1.26
9389.00,1.26
9388.00,1.26
9387.00,1.26
9386.00,1.26
9385.00,1.26
9384.00,1.25
9383.00,1.25
9382.00,1.25
9381.00,1.25
9380.00,1.25
9379.00,1.25
9378.00,1.25
9377.00,1.25
9376.00,1.25
9375.00,1.25
9374.00,1.25
9373.00,1.25
9372.00,1.25
9371.00,1.25
9370.00,1.25
9369.00,1.25
9368.00,1.25
9367.00,1.25
9366.00,1.25
9365.00,1.26
9364.00,1.26
9363.00,1.26
9362.00,1.26
9361.00,1.26
9360.00,1.26
9359.00,1.26
9358.00,1.26
9357.00,1.26
9356.00,1.26
9355.00,1.26
9354.00,1.26
9353.00,1.26
9352.00,1.26
9351.00,1.26
9350.00,1.26
9349.00,1.26
9348.00,1.26
9347.00,1.26
9346.00,1.26
9345.00,1.26
9344.00,1.27
9343.00,1.27
9342.00,1.27
9341.00,1.27
9340.00,1.27
9339.00,1.27
9338.00,1.27
9337.00,1.28
9336.00,1.28
9335.00,1.28
9334.00,1.28
9333.00,1.28
9332.00,1.28
9331.00,1.28
9330.00,1.28
9329.00,1.28
9328.00,1.28
9327.00,1.28
9326.00,1.28
9325.00,1.28
9324.00,1.28
9323.00,1.28
9322.00,1.28
9321.00,1.28
9320.00,1.28
9319.00,1.28
9318.00,1.28
9317.00,1.28
9316.00,1.27
9315.00,1.27
9314.00,1.27
9313.00,1.27
9312.00,1.27
9311.00,1.27
9310.00,1.27
9309.00,1.27
9308.00,1.27
9307.00,1.27
9306.00,1.26
9305.00,1.26
9304.00,1.26
9303.00,1.26
9302.00,1.27
9301.00,1.27
9300.00,1.27
9299.00,1.27
9298.00,1.27
9297.00,1.27
9296.00,1.27
9295.00,1.27
9294.00,1.27
9293.00,1.27
9292.00,1.28
9291.00,1.28
9290.00,1.28
9289.00,1.28
9288.00,1.28
9287.00,1.28
9286.00,1.28
9285.00,1.28
9284.00,1.28
9283.00,1.28
9282.00,1.27
9281.00,1.27
9280.00,1.27
9279.00,1.27
9278.00,1.27
9277.00,1.27
9276.00,1.27
9275.00,1.26
9274.00,1.26
9273.00,1.26
9272.00,1.26
9271.00,1.26
9270.00,1.26
9269.00,1.25
9268.00,1.25
9267.00,1.25
9266.00,1.25
9265.00,1.25
9264.00,1.25
9263.00,1.24
9262.00,1.24
9261.00,1.24
9260.00,1.24
9259.00,1.24
9258.00,1.24
9257.00,1.24
9256.00,1.24
9255.00,1.24
9254.00,1.24
9253.00,1.24
9252.00,1.24
9251.00,1.24
9250.00,1.24
9249.00,1.24
9248.00,1.24
9247.00,1.24
9246.00,1.24
9245.00,1.24
9244.00,1.24
9243.00,1.24
9242.00,1.24
9241.00,1.25
9240.00,1.25
9239.00,1.25
9238.00,1.25
9237.00,1.25
9236.00,1.25
9235.00,1.26
9234.00,1.26
9233.00,1.26
9232.00,1.26
9231.00,1.27
9230.00,1.27
9229.00,1.27
9228.00,1.27
9227.00,1.28
9226.00,1.28
9225.00,1.28
9224.00,1.28
9223.00,1.29
9222.00,1.29
9221.00,1.29
9220.00,1.29
9219.00,1.30
9218.00,1.30
9217.00,1.30
9216.00,1.30
9215.00,1.30
9214.00,1.30
9213.00,1.30
9212.00,1.30
9211.00,1.30
9210.00,1.30
9209.00,1.30
9208.00,1.30
9207.00,1.29
9206.00,1.29
9205.00,1.29
9204.00,1.29
9203.00,1.29
9202.00,1.28
9201.00,1.28
9200.00,1.28
9199.00,1.28
9198.00,1.27
9197.00,1.27
9196.00,1.27
9195.00,1.27
9194.00,1.27
9193.00,1.27
9192.00,1.27
9191.00,1.27
9190.00,1.27
9189.00,1.27
9188.00,1.27
9187.00,1.27
9186.00,1.27
9185.00,1.27
9184.00,1.27
9183.00,1.27
9182.00,1.27
9181.00,1.27
9180.00,1.27
9179.00,1.27
9178.00,1.27
9177.00,1.27
9176.00,1.27
9175.00,1.27
9174.00,1.27
9173.00,1.27
9172.00,1.27
9171.00,1.27
9170.00,1.27
9169.00,1.26
9168.00,1.26
9167.00,1.26
9166.00,1.26
9165.00,1.26
9164.00,1.26
9163.00,1.26
9162.00,1.26
9161.00,1.26
9160.00,1.26
9159.00,1.26
9158.00,1.26
9157.00,1.27
9156.00,1.27
9155.00,1.27
9154.00,1.27
9153.00,1.27
9152.00,1.27
9151.00,1.27
9150.00,1.27
9149.00,1.27
9148.00,1.27
9147.00,1.27
9146.00,1.27
9145.00,1.27
9144.00,1.27
9143.00,1.27
9142.00,1.28
9141.00,1.28
9140.00,1.28
9139.00,1.28
9138.00,1.28
9137.00,1.28
9136.00,1.28
9135.00,1.28
9134.00,1.28
9133.00,1.27
9132.00,1.27
9131.00,1.27
9130.00,1.27
9129.00,1.27
9128.00,1.27
9127.00,1.27
9126.00,1.27
9125.00,1.27
9124.00,1.27
9123.00,1.27
9122.00,1.27
9121.00,1.27
9120.00,1.27
9119.00,1.27
9118.00,1.27
9117.00,1.27
9116.00,1.27
9115.00,1.27
9114.00,1.27
9113.00,1.27
9112.00,1.27
9111.00,1.27
9110.00,1.27
9109.00,1.28
9108.00,1.28
9107.00,1.28
9106.00,1.28
9105.00,1.28
9104.00,1.28
9103.00,1.28
9102.00,1.28
9101.00,1.28
9100.00,1.28
9099.00,1.28
9098.00,1.28
9097.00,1.28
9096.00,1.28
9095.00,1.28
9094.00,1.28
9093.00,1.28
9092.00,1.28
9091.00,1.28
9090.00,1.28
9089.00,1.28
9088.00,1.28
9087.00,1.28
9086.00,1.28
9085.00,1.28
9084.00,1.28
9083.00,1.28
9082.00,1.28
9081.00,1.27
9080.00,1.27
9079.00,1.27
9078.00,1.27
9077.00,1.27
9076.00,1.27
9075.00,1.27
9074.00,1.27
9073.00,1.27
9072.00,1.26
9071.00,1.26
9070.00,1.26
9069.00,1.26
9068.00,1.26
9067.00,1.26
9066.00,1.26
9065.00,1.26
9064.00,1.26
9063.00,1.26
9062.00,1.26
9061.00,1.26
9060.00,1.26
9059.00,1.26
9058.00,1.27
9057.00,1.27
9056.00,1.27
9055.00,1.27
9054.00,1.27
9053.00,1.27
9052.00,1.27
9051.00,1.27
9050.00,1.27
9049.00,1.27
9048.00,1.27
9047.00,1.27
9046.00,1.27
9045.00,1.27
9044.00,1.27
9043.00,1.27
9042.00,1.27
9041.00,1.27
9040.00,1.27
9039.00,1.27
9038.00,1.27
9037.00,1.27
9036.00,1.27
9035.00,1.27
9034.00,1.27
9033.00,1.27
9032.00,1.27
9031.00,1.27
9030.00,1.27
9029.00,1.27
9028.00,1.27
9027.00,1.27
9026.00,1.27
9025.00,1.27
9024.00,1.27
9023.00,1.27
9022.00,1.27
9021.00,1.27
9020.00,1.27
9019.00,1.27
9018.00,1.27
9017.00,1.27
9016.00,1.27
9015.00,1.27
9014.00,1.27
9013.00,1.27
9012.00,1.27
9011.00,1.27
9010.00,1.27
9009.00,1.28
9008.00,1.28
9007.00,1.28
9006.00,1.28
9005.00,1.28
9004.00,1.28
9003.00,1.28
9002.00,1.28
9001.00,1.28
9000.00,1.29
8999.00,1.29
8998.00,1.29
8997.00,1.29
8996.00,1.29
8995.00,1.29
8994.00,1.29
8993.00,1.29
8992.00,1.29
8991.00,1.29
8990.00,1.29
8989.00,1.29
8988.00,1.29
8987.00,1.29
8986.00,1.29
8985.00,1.29
8984.00,1.29
8983.00,1.28
8982.00,1.28
8981.00,1.28
8980.00,1.28
8979.00,1.28
8978.00,1.28
8977.00,1.28
8976.00,1.28
8975.00,1.28
8974.00,1.28
8973.00,1.27
8972.00,1.27
8971.00,1.27
8970.00,1.27
8969.00,1.27
8968.00,1.27
8967.00,1.27
8966.00,1.27
8965.00,1.27
8964.00,1.27
8963.00,1.27
8962.00,1.26
8961.00,1.26
8960.00,1.26
8959.00,1.26
8958.00,1.26
8957.00,1.26
8956.00,1.26
8955.00,1.26
8954.00,1.26
8953.00,1.26
8952.00,1.26
8951.00,1.26
8950.00,1.26
8949.00,1.26
8948.00,1.26
8947.00,1.26
8946.00,1.26
8945.00,1.26
8944.00,1.26
8943.00,1.26
8942.00,1.26
8941.00,1.27
8940.00,1.27
8939.00,1.27
8938.00,1.27
8937.00,1.27
8936.00,1.27
8935.00,1.27
8934.00,1.27
8933.00,1.27
8932.00,1.27
8931.00,1.27
8930.00,1.27
8929.00,1.27
8928.00,1.28
8927.00,1.27
8926.00,1.27
8925.00,1.27
8924.00,1.27
8923.00,1.27
8922.00,1.27
8921.00,1.27
8920.00,1.27
8919.00,1.27
8918.00,1.27
8917.00,1.27
8916.00,1.27
8915.00,1.27
8914.00,1.27
8913.00,1.27
8912.00,1.28
8911.00,1.28
8910.00,1.28
8909.00,1.28
8908.00,1.28
8907.00,1.28
8906.00,1.28
8905.00,1.28
8904.00,1.28
8903.00,1.28
8902.00,1.28
8901.00,1.28
8900.00,1.28
8899.00,1.28
8898.00,1.28
8897.00,1.28
8896.00,1.27
8895.00,1.27
8894.00,1.27
8893.00,1.27
8892.00,1.27
8891.00,1.27
8890.00,1.27
8889.00,1.27
8888.00,1.27
8887.00,1.27
8886.00,1.27
8885.00,1.27
8884.00,1.27
8883.00,1.27
8882.00,1.27
8881.00,1.27
8880.00,1.27
8879.00,1.27
8878.00,1.27
8877.00,1.27
8876.00,1.26
8875.00,1.26
8874.00,1.26
8873.00,1.26
8872.00,1.26
8871.00,1.26
8870.00,1.26
8869.00,1.26
8868.00,1.26
8867.00,1.26
8866.00,1.27
8865.00,1.27
8864.00,1.27
8863.00,1.27
8862.00,1.27
8861.00,1.27
8860.00,1.27
8859.00,1.27
8858.00,1.27
8857.00,1.27
8856.00,1.27
8855.00,1.27
8854.00,1.27
8853.00,1.27
8852.00,1.27
8851.00,1.27
8850.00,1.27
8849.00,1.27
8848.00,1.27
8847.00,1.27
8846.00,1.28
8845.00,1.28
8844.00,1.28
8843.00,1.28
8842.00,1.28
8841.00,1.28
8840.00,1.28
8839.00,1.28
8838.00,1.28
8837.00,1.28
8836.00,1.28
8835.00,1.28
8834.00,1.28
8833.00,1.28
8832.00,1.28
8831.00,1.28
8830.00,1.28
8829.00,1.28
8828.00,1.28
8827.00,1.27
8826.00,1.27
8825.00,1.27
8824.00,1.27
8823.00,1.27
8822.00,1.27
8821.00,1.27
8820.00,1.27
8819.00,1.27
8818.00,1.26
8817.00,1.26
8816.00,1.26
8815.00,1.26
8814.00,1.26
8813.00,1.26
8812.00,1.26
8811.00,1.26
8810.00,1.26
8809.00,1.26
8808.00,1.26
8807.00,1.26
8806.00,1.26
8805.00,1.26
8804.00,1.26
8803.00,1.26
8802.00,1.26
8801.00,1.26
8800.00,1.26
8799.00,1.26
8798.00,1.26
8797.00,1.26
8796.00,1.26
8795.00,1.26
8794.00,1.26
8793.00,1.25
8792.00,1.25
8791.00,1.25
8790.00,1.25
8789.00,1.25
8788.00,1.25
8787.00,1.25
8786.00,1.25
8785.00,1.25
8784.00,1.25
8783.00,1.25
8782.00,1.25
8781.00,1.25
8780.00,1.25
8779.00,1.26
8778.00,1.26
8777.00,1.26
8776.00,1.26
8775.00,1.26
8774.00,1.26
8773.00,1.26
8772.00,1.26
8771.00,1.26
8770.00,1.25
8769.00,1.25
8768.00,1.25
8767.00,1.25
8766.00,1.25
8765.00,1.24
8764.00,1.24
8763.00,1.24
8762.00,1.24
8761.00,1.24
8760.00,1.24
8759.00,1.23
8758.00,1.23
8757.00,1.23
8756.00,1.23
8755.00,1.23
8754.00,1.23
8753.00,1.23
8752.00,1.23
8751.00,1.24
8750.00,1.24
8749.00,1.24
8748.00,1.24
8747.00,1.23
8746.00,1.23
8745.00,1.23
8744.00,1.23
8743.00,1.23
8742.00,1.23
8741.00,1.23
8740.00,1.23
8739.00,1.23
8738.00,1.23
8737.00,1.22
8736.00,1.22
8735.00,1.22
8734.00,1.22
8733.00,1.22
8732.00,1.22
8731.00,1.22
8730.00,1.22
8729.00,1.23
8728.00,1.23
8727.00,1.23
8726.00,1.23
8725.00,1.23
8724.00,1.23
8723.00,1.23
8722.00,1.23
8721.00,1.23
8720.00,1.24
8719.00,1.24
8718.00,1.24
8717.00,1.24
8716.00,1.24
8715.00,1.24
8714.00,1.24
8713.00,1.23
8712.00,1.23
8711.00,1.23
8710.00,1.23
8709.00,1.23
8708.00,1.23
8707.00,1.23
8706.00,1.23
8705.00,1.23
8704.00,1.23
8703.00,1.23
8702.00,1.23
8701.00,1.23
8700.00,1.23
8699.00,1.23
8698.00,1.23
8697.00,1.23
8696.00,1.23
8695.00,1.23
8694.00,1.23
8693.00,1.23
8692.00,1.23
8691.00,1.23
8690.00,1.23
8689.00,1.23
8688.00,1.23
8687.00,1.23
8686.00,1.23
8685.00,1.23
8684.00,1.23
8683.00,1.23
8682.00,1.23
8681.00,1.23
8680.00,1.23
8679.00,1.23
8678.00,1.23
8677.00,1.23
8676.00,1.22
8675.00,1.22
8674.00,1.22
8673.00,1.22
8672.00,1.22
8671.00,1.22
8670.00,1.22
8669.00,1.22
8668.00,1.22
8667.00,1.22
8666.00,1.22
8665.00,1.22
8664.00,1.22
8663.00,1.22
8662.00,1.22
8661.00,1.21
8660.00,1.21
8659.00,1.21
8658.00,1.21
8657.00,1.21
8656.00,1.21
8655.00,1.21
8654.00,1.21
8653.00,1.21
8652.00,1.21
8651.00,1.21
8650.00,1.21
8649.00,1.21
8648.00,1.22
8647.00,1.22
8646.00,1.22
8645.00,1.22
8644.00,1.22
8643.00,1.22
8642.00,1.22
8641.00,1.22
8640.00,1.22
8639.00,1.22
8638.00,1.22
8637.00,1.22
8636.00,1.22
8635.00,1.22
8634.00,1.22
8633.00,1.22
8632.00,1.22
8631.00,1.22
8630.00,1.22
8629.00,1.22
8628.00,1.22
8627.00,1.22
8626.00,1.22
8625.00,1.23
8624.00,1.23
8623.00,1.23
8622.00,1.23
8621.00,1.23
8620.00,1.23
8619.00,1.23
8618.00,1.23
8617.00,1.23
8616.00,1.22
8615.00,1.22
8614.00,1.22
8613.00,1.22
8612.00,1.22
8611.00,1.22
8610.00,1.22
8609.00,1.22
8608.00,1.21
8607.00,1.21
8606.00,1.21
8605.00,1.21
8604.00,1.21
8603.00,1.21
8602.00,1.21
8601.00,1.21
8600.00,1.21
8599.00,1.21
8598.00,1.21
8597.00,1.21
8596.00,1.21
8595.00,1.21
8594.00,1.21
8593.00,1.21
8592.00,1.21
8591.00,1.21
8590.00,1.21
8589.00,1.21
8588.00,1.21
8587.00,1.21
8586.00,1.21
8585.00,1.20
8584.00,1.20
8583.00,1.20
8582.00,1.20
8581.00,1.20
8580.00,1.20
8579.00,1.20
8578.00,1.20
8577.00,1.20
8576.00,1.20
8575.00,1.20
8574.00,1.20
8573.00,1.21
8572.00,1.21
8571.00,1.21
8570.00,1.21
8569.00,1.21
8568.00,1.21
8567.00,1.21
8566.00,1.21
8565.00,1.21
8564.00,1.21
8563.00,1.21
8562.00,1.21
8561.00,1.21
8560.00,1.21
8559.00,1.20
8558.00,1.20
8557.00,1.20
8556.00,1.20
8555.00,1.20
8554.00,1.20
8553.00,1.20
8552.00,1.20
8551.00,1.20
8550.00,1.20
8549.00,1.19
8548.00,1.19
8547.00,1.19
8546.00,1.19
8545.00,1.19
8544.00,1.19
8543.00,1.19
8542.00,1.19
8541.00,1.19
8540.00,1.19
8539.00,1.19
8538.00,1.18
8537.00,1.18
8536.00,1.18
8535.00,1.18
8534.00,1.18
8533.00,1.18
8532.00,1.18
8531.00,1.18
8530.00,1.18
8529.00,1.18
8528.00,1.18
8527.00,1.18
8526.00,1.18
8525.00,1.18
8524.00,1.18
8523.00,1.18
8522.00,1.19
8521.00,1.19
8520.00,1.19
8519.00,1.19
8518.00,1.19
8517.00,1.19
8516.00,1.19
8515.00,1.19
8514.00,1.19
8513.00,1.19
8512.00,1.19
8511.00,1.19
8510.00,1.19
8509.00,1.19
8508.00,1.18
8507.00,1.18
8506.00,1.18
8505.00,1.18
8504.00,1.18
8503.00,1.18
8502.00,1.18
8501.00,1.18
8500.00,1.18
8499.00,1.18
8498.00,1.17
8497.00,1.17
8496.00,1.17
8495.00,1.17
8494.00,1.17
8493.00,1.17
8492.00,1.17
8491.00,1.17
8490.00,1.17
8489.00,1.17
8488.00,1.17
8487.00,1.17
8486.00,1.16
8485.00,1.16
8484.00,1.16
8483.00,1.16
8482.00,1.16
8481.00,1.16
8480.00,1.16
8479.00,1.16
8478.00,1.16
8477.00,1.16
8476.00,1.16
8475.00,1.16
8474.00,1.16
8473.00,1.16
8472.00,1.16
8471.00,1.16
8470.00,1.16
8469.00,1.16
8468.00,1.16
8467.00,1.16
8466.00,1.16
8465.00,1.15
8464.00,1.15
8463.00,1.15
8462.00,1.15
8461.00,1.15
8460.00,1.15
8459.00,1.15
8458.00,1.14
8457.00,1.14
8456.00,1.14
8455.00,1.14
8454.00,1.14
8453.00,1.14
8452.00,1.13
8451.00,1.13
8450.00,1.13
8449.00,1.13
8448.00,1.13
8447.00,1.13
8446.00,1.13
8445.00,1.13
8444.00,1.13
8443.00,1.13
8442.00,1.13
8441.00,1.13
8440.00,1.13
8439.00,1.13
8438.00,1.13
8437.00,1.13
8436.00,1.13
8435.00,1.13
8434.00,1.14
8433.00,1.14
8432.00,1.14
8431.00,1.14
8430.00,1.14
8429.00,1.14
8428.00,1.14
8427.00,1.14
8426.00,1.15
8425.00,1.15
8424.00,1.15
8423.00,1.15
8422.00,1.15
8421.00,1.15
8420.00,1.16
8419.00,1.16
8418.00,1.16
8417.00,1.16
8416.00,1.16
8415.00,1.16
8414.00,1.16
8413.00,1.16
8412.00,1.16
8411.00,1.16
8410.00,1.16
8409.00,1.16
8408.00,1.16
8407.00,1.16
8406.00,1.16
8405.00,1.16
8404.00,1.16
8403.00,1.16
8402.00,1.16
8401.00,1.16
8400.00,1.16
8399.00,1.16
8398.00,1.16
8397.00,1.16
8396.00,1.16
8395.00,1.16
8394.00,1.16
8393.00,1.16
8392.00,1.17
8391.00,1.17
8390.00,1.17
8389.00,1.17
8388.00,1.17
8387.00,1.17
8386.00,1.17
8385.00,1.17
8384.00,1.17
8383.00,1.17
8382.00,1.17
8381.00,1.18
8380.00,1.18
8379.00,1.18
8378.00,1.18
8377.00,1.18
8376.00,1.18
8375.00,1.18
8374.00,1.18
8373.00,1.18
8372.00,1.18
8371.00,1.18
8370.00,1.18
8369.00,1.18
8368.00,1.18
8367.00,1.18
8366.00,1.18
8365.00,1.18
8364.00,1.18
8363.00,1.18
8362.00,1.18
8361.00,1.17
8360.00,1.17
8359.00,1.17
8358.00,1.17
8357.00,1.17
8356.00,1.17
8355.00,1.17
8354.00,1.17
8353.00,1.17
8352.00,1.17
8351.00,1.17
8350.00,1.17
8349.00,1.17
8348.00,1.17
8347.00,1.17
8346.00,1.17
8345.00,1.17
8344.00,1.17
8343.00,1.18
8342.00,1.18
8341.00,1.18
8340.00,1.18
8339.00,1.18
8338.00,1.18
8337.00,1.18
8336.00,1.18
8335.00,1.18
8334.00,1.18
8333.00,1.18
8332.00,1.18
8331.00,1.18
8330.00,1.18
8329.00,1.19
8328.00,1.19
8327.00,1.19
8326.00,1.19
8325.00,1.19
8324.00,1.19
8323.00,1.19
8322.00,1.19
8321.00,1.19
8320.00,1.19
8319.00,1.19
8318.00,1.19
8317.00,1.19
8316.00,1.19
8315.00,1.19
8314.00,1.19
8313.00,1.19
8312.00,1.19
8311.00,1.19
8310.00,1.19
8309.00,1.19
8308.00,1.19
8307.00,1.19
8306.00,1.19
8305.00,1.19
8304.00,1.19
8303.00,1.19
8302.00,1.19
8301.00,1.19
8300.00,1.19
8299.00,1.19
8298.00,1.19
8297.00,1.19
8296.00,1.19
8295.00,1.19
8294.00,1.19
8293.00,1.19
8292.00,1.19
8291.00,1.19
8290.00,1.19
8289.00,1.19
8288.00,1.19
8287.00,1.19
8286.00,1.19
8285.00,1.20
8284.00,1.20
8283.00,1.20
8282.00,1.20
8281.00,1.20
8280.00,1.20
8279.00,1.20
8278.00,1.20
8277.00,1.20
8276.00,1.20
8275.00,1.20
8274.00,1.20
8273.00,1.20
8272.00,1.20
8271.00,1.20
8270.00,1.20
8269.00,1.20
8268.00,1.20
8267.00,1.20
8266.00,1.20
8265.00,1.20
8264.00,1.20
8263.00,1.20
8262.00,1.20
8261.00,1.20
8260.00,1.20
8259.00,1.20
8258.00,1.20
8257.00,1.20
8256.00,1.20
8255.00,1.20
8254.00,1.20
8253.00,1.20
8252.00,1.20
8251.00,1.20
8250.00,1.20
8249.00,1.21
8248.00,1.21
8247.00,1.21
8246.00,1.21
8245.00,1.21
8244.00,1.21
8243.00,1.21
8242.00,1.21
8241.00,1.21
8240.00,1.21
8239.00,1.21
8238.00,1.21
8237.00,1.21
8236.00,1.21
8235.00,1.21
8234.00,1.21
8233.00,1.21
8232.00,1.21
8231.00,1.21
8230.00,1.21
8229.00,1.20
8228.00,1.20
8227.00,1.20
8226.00,1.20
8225.00,1.20
8224.00,1.20
8223.00,1.20
8222.00,1.20
8221.00,1.20
8220.00,1.20
8219.00,1.20
8218.00,1.20
8217.00,1.20
8216.00,1.20
8215.00,1.20
8214.00,1.20
8213.00,1.20
8212.00,1.20
8211.00,1.20
8210.00,1.20
8209.00,1.20
8208.00,1.20
8207.00,1.20
8206.00,1.20
8205.00,1.21
8204.00,1.21
8203.00,1.21
8202.00,1.21
8201.00,1.21
8200.00,1.21
8199.00,1.21
8198.00,1.21
8197.00,1.21
8196.00,1.21
8195.00,1.21
8194.00,1.21
8193.00,1.21
8192.00,1.21
8191.00,1.21
8190.00,1.21
8189.00,1.21
8188.00,1.21
8187.00,1.21
8186.00,1.21
8185.00,1.21
8184.00,1.21
8183.00,1.21
8182.00,1.21
8181.00,1.22
8180.00,1.22
8179.00,1.22
8178.00,1.22
8177.00,1.22
8176.00,1.22
8175.00,1.22
8174.00,1.22
8173.00,1.22
8172.00,1.22
8171.00,1.22
8170.00,1.22
8169.00,1.22
8168.00,1.22
8167.00,1.22
8166.00,1.22
8165.00,1.22
8164.00,1.22
8163.00,1.22
8162.00,1.22
8161.00,1.23
8160.00,1.23
8159.00,1.23
8158.00,1.23
8157.00,1.23
8156.00,1.23
8155.00,1.23
8154.00,1.23
8153.00,1.23
8152.00,1.23
8151.00,1.23
8150.00,1.23
8149.00,1.23
8148.00,1.23
8147.00,1.23
8146.00,1.23
8145.00,1.23
8144.00,1.23
8143.00,1.23
8142.00,1.23
8141.00,1.23
8140.00,1.23
8139.00,1.23
8138.00,1.23
8137.00,1.23
8136.00,1.23
8135.00,1.23
8134.00,1.23
8133.00,1.23
8132.00,1.23
8131.00,1.23
8130.00,1.23
8129.00,1.23
8128.00,1.23
8127.00,1.23
8126.00,1.23
8125.00,1.23
8124.00,1.23
8123.00,1.23
8122.00,1.23
8121.00,1.23
8120.00,1.24
8119.00,1.24
8118.00,1.24
8117.00,1.24
8116.00,1.24
8115.00,1.24
8114.00,1.24
8113.00,1.24
8112.00,1.24
8111.00,1.24
8110.00,1.24
8109.00,1.24
8108.00,1.24
8107.00,1.24
8106.00,1.24
8105.00,1.24
8104.00,1.24
8103.00,1.24
8102.00,1.24
8101.00,1.24
8100.00,1.24
8099.00,1.24
8098.00,1.24
8097.00,1.24
8096.00,1.24
8095.00,1.24
8094.00,1.24
8093.00,1.24
8092.00,1.24
8091.00,1.24
8090.00,1.24
8089.00,1.24
8088.00,1.24
8087.00,1.25
8086.00,1.25
8085.00,1.25
8084.00,1.25
8083.00,1.25
8082.00,1.25
8081.00,1.25
8080.00,1.25
8079.00,1.25
8078.00,1.25
8077.00,1.25
8076.00,1.26
8075.00,1.26
8074.00,1.26
8073.00,1.26
8072.00,1.26
8071.00,1.26
8070.00,1.26
8069.00,1.26
8068.00,1.26
8067.00,1.26
8066.00,1.26
8065.00,1.26
8064.00,1.26
8063.00,1.26
8062.00,1.26
8061.00,1.26
8060.00,1.26
8059.00,1.26
8058.00,1.26
8057.00,1.26
8056.00,1.26
8055.00,1.26
8054.00,1.26
8053.00,1.26
8052.00,1.26
8051.00,1.26
8050.00,1.26
8049.00,1.26
8048.00,1.26
8047.00,1.26
8046.00,1.26
8045.00,1.26
8044.00,1.26
8043.00,1.26
8042.00,1.26
8041.00,1.26
8040.00,1.26
8039.00,1.26
8038.00,1.26
8037.00,1.26
8036.00,1.26
8035.00,1.26
8034.00,1.26
8033.00,1.25
8032.00,1.25
8031.00,1.25
8030.00,1.25
8029.00,1.25
8028.00,1.25
8027.00,1.25
8026.00,1.25
8025.00,1.26
8024.00,1.26
8023.00,1.26
8022.00,1.26
8021.00,1.26
8020.00,1.26
8019.00,1.26
8018.00,1.26
8017.00,1.26
8016.00,1.26
8015.00,1.26
8014.00,1.26
8013.00,1.26
8012.00,1.26
8011.00,1.27
8010.00,1.27
8009.00,1.27
8008.00,1.27
8007.00,1.27
8006.00,1.27
8005.00,1.27
8004.00,1.27
8003.00,1.27
8002.00,1.27
8001.00,1.27
8000.00,1.27
7999.00,1.27
7998.00,1.26
7997.00,1.26
7996.00,1.26
7995.00,1.26
7994.00,1.26
7993.00,1.26
7992.00,1.26
7991.00,1.26
7990.00,1.26
7989.00,1.25
7988.00,1.25
7987.00,1.25
7986.00,1.25
7985.00,1.25
7984.00,1.25
7983.00,1.25
7982.00,1.25
7981.00,1.25
7980.00,1.25
7979.00,1.25
7978.00,1.25
7977.00,1.25
7976.00,1.25
7975.00,1.26
7974.00,1.26
7973.00,1.26
7972.00,1.26
7971.00,1.26
7970.00,1.26
7969.00,1.26
7968.00,1.26
7967.00,1.26
7966.00,1.26
7965.00,1.26
7964.00,1.26
7963.00,1.26
7962.00,1.26
7961.00,1.26
7960.00,1.27
7959.00,1.27
7958.00,1.27
7957.00,1.27
7956.00,1.27
7955.00,1.27
7954.00,1.27
7953.00,1.27
7952.00,1.27
7951.00,1.27
7950.00,1.27
7949.00,1.27
7948.00,1.27
7947.00,1.27
7946.00,1.27
7945.00,1.27
7944.00,1.27
7943.00,1.27
7942.00,1.27
7941.00,1.27
7940.00,1.27
7939.00,1.27
7938.00,1.27
7937.00,1.27
7936.00,1.27
7935.00,1.27
7934.00,1.27
7933.00,1.27
7932.00,1.27
7931.00,1.27
7930.00,1.27
7929.00,1.27
7928.00,1.26
7927.00,1.26
7926.00,1.26
7925.00,1.26
7924.00,1.26
7923.00,1.26
7922.00,1.26
7921.00,1.26
7920.00,1.26
7919.00,1.26
7918.00,1.27
7917.00,1.27
7916.00,1.27
7915.00,1.27
7914.00,1.27
7913.00,1.27
7912.00,1.27
7911.00,1.27
7910.00,1.27
7909.00,1.28
7908.00,1.28
7907.00,1.28
7906.00,1.28
7905.00,1.28
7904.00,1.28
7903.00,1.28
7902.00,1.28
7901.00,1.28
7900.00,1.28
7899.00,1.28
7898.00,1.28
7897.00,1.28
7896.00,1.28
7895.00,1.28
7894.00,1.28
7893.00,1.28
7892.00,1.28
7891.00,1.28
7890.00,1.28
7889.00,1.28
7888.00,1.28
7887.00,1.28
7886.00,1.28
7885.00,1.28
7884.00,1.28
7883.00,1.28
7882.00,1.28
7881.00,1.28
7880.00,1.28
7879.00,1.28
7878.00,1.28
7877.00,1.28
7876.00,1.29
7875.00,1.29
7874.00,1.29
7873.00,1.29
7872.00,1.29
7871.00,1.29
7870.00,1.29
7869.00,1.29
7868.00,1.29
7867.00,1.29
7866.00,1.29
7865.00,1.29
7864.00,1.29
7863.00,1.29
7862.00,1.29
7861.00,1.29
7860.00,1.29
7859.00,1.29
7858.00,1.29
7857.00,1.29
7856.00,1.29
7855.00,1.29
7854.00,1.29
7853.00,1.29
7852.00,1.29
7851.00,1.29
7850.00,1.29
7849.00,1.29
7848.00,1.29
7847.00,1.29
7846.00,1.29
7845.00,1.28
7844.00,1.28
7843.00,1.28
7842.00,1.28
7841.00,1.28
7840.00,1.28
7839.00,1.28
7838.00,1.28
7837.00,1.28
7836.00,1.28
7835.00,1.28
7834.00,1.28
7833.00,1.28
7832.00,1.28
7831.00,1.29
7830.00,1.29
7829.00,1.29
7828.00,1.29
7827.00,1.29
7826.00,1.29
7825.00,1.29
7824.00,1.29
7823.00,1.29
7822.00,1.29
7821.00,1.29
7820.00,1.29
7819.00,1.29
7818.00,1.29
7817.00,1.29
7816.00,1.29
7815.00,1.29
7814.00,1.29
7813.00,1.29
7812.00,1.29
7811.00,1.29
7810.00,1.29
7809.00,1.29
7808.00,1.29
7807.00,1.29
7806.00,1.29
7805.00,1.29
7804.00,1.29
7803.00,1.29
7802.00,1.29
7801.00,1.29
7800.00,1.29
7799.00,1.29
7798.00,1.29
7797.00,1.29
7796.00,1.29
7795.00,1.29
7794.00,1.29
7793.00,1.29
7792.00,1.29
7791.00,1.29
7790.00,1.29
7789.00,1.29
7788.00,1.29
7787.00,1.29
7786.00,1.29
7785.00,1.29
7784.00,1.29
7783.00,1.29
7782.00,1.29
7781.00,1.29
7780.00,1.29
7779.00,1.29
7778.00,1.29
7777.00,1.29
7776.00,1.29
7775.00,1.29
7774.00,1.29
7773.00,1.29
7772.00,1.29
7771.00,1.29
7770.00,1.29
7769.00,1.29
7768.00,1.29
7767.00,1.29
7766.00,1.29
7765.00,1.29
7764.00,1.29
7763.00,1.29
7762.00,1.29
7761.00,1.29
7760.00,1.29
7759.00,1.29
7758.00,1.29
7757.00,1.29
7756.00,1.29
7755.00,1.29
7754.00,1.29
7753.00,1.29
7752.00,1.29
7751.00,1.29
7750.00,1.29
7749.00,1.29
7748.00,1.30
7747.00,1.30
7746.00,1.30
7745.00,1.30
7744.00,1.30
7743.00,1.30
7742.00,1.30
7741.00,1.30
7740.00,1.30
7739.00,1.30
7738.00,1.30
7737.00,1.30
7736.00,1.30
7735.00,1.30
7734.00,1.30
7733.00,1.30
7732.00,1.30
7731.00,1.30
7730.00,1.30
7729.00,1.30
7728.00,1.30
7727.00,1.30
7726.00,1.30
7725.00,1.30
7724.00,1.30
7723.00,1.30
7722.00,1.30
7721.00,1.30
7720.00,1.30
7719.00,1.30
7718.00,1.30
7717.00,1.30
7716.00,1.30
7715.00,1.30
7714.00,1.30
7713.00,1.30
7712.00,1.30
7711.00,1.30
7710.00,1.29
7709.00,1.29
7708.00,1.29
7707.00,1.29
7706.00,1.29
7705.00,1.29
7704.00,1.29
7703.00,1.29
7702.00,1.29
7701.00,1.29
7700.00,1.29
7699.00,1.29
7698.00,1.29
7697.00,1.29
7696.00,1.29
7695.00,1.29
7694.00,1.29
7693.00,1.29
7692.00,1.29
7691.00,1.29
7690.00,1.29
7689.00,1.30
7688.00,1.30
7687.00,1.30
7686.00,1.30
7685.00,1.30
7684.00,1.30
7683.00,1.30
7682.00,1.30
7681.00,1.30
7680.00,1.30
7679.00,1.30
7678.00,1.30
7677.00,1.30
7676.00,1.30
7675.00,1.30
7674.00,1.30
7673.00,1.30
7672.00,1.30
7671.00,1.30
7670.00,1.30
7669.00,1.30
7668.00,1.30
7667.00,1.30
7666.00,1.30
7665.00,1.30
7664.00,1.30
7663.00,1.30
7662.00,1.30
7661.00,1.30
7660.00,1.30
7659.00,1.30
7658.00,1.30
7657.00,1.30
7656.00,1.30
7655.00,1.30
7654.00,1.30
7653.00,1.30
7652.00,1.30
7651.00,1.30
7650.00,1.30
7649.00,1.30
7648.00,1.30
7647.00,1.30
7646.00,1.30
7645.00,1.30
7644.00,1.30
7643.00,1.30
7642.00,1.30
7641.00,1.30
7640.00,1.30
7639.00,1.30
7638.00,1.30
7637.00,1.30
7636.00,1.30
7635.00,1.30
7634.00,1.30
7633.00,1.30
7632.00,1.30
7631.00,1.30
7630.00,1.30
7629.00,1.30
7628.00,1.30
7627.00,1.30
7626.00,1.30
7625.00,1.30
7624.00,1.30
7623.00,1.30
7622.00,1.30
7621.00,1.30
7620.00,1.30
7619.00,1.30
7618.00,1.30
7617.00,1.30
7616.00,1.30
7615.00,1.29
7614.00,1.29
7613.00,1.29
7612.00,1.29
7611.00,1.29
7610.00,1.29
7609.00,1.29
7608.00,1.29
7607.00,1.29
7606.00,1.29
7605.00,1.29
7604.00,1.29
7603.00,1.29
7602.00,1.29
7601.00,1.29
7600.00,1.29
7599.00,1.29
7598.00,1.29
7597.00,1.29
7596.00,1.29
7595.00,1.29
7594.00,1.29
7593.00,1.29
7592.00,1.29
7591.00,1.29
7590.00,1.29
7589.00,1.29
7588.00,1.29
7587.00,1.29
7586.00,1.29
7585.00,1.29
7584.00,1.29
7583.00,1.29
7582.00,1.29
7581.00,1.29
7580.00,1.29
7579.00,1.29
7578.00,1.29
7577.00,1.29
7576.00,1.29
7575.00,1.29
7574.00,1.29
7573.00,1.29
7572.00,1.29
7571.00,1.29
7570.00,1.29
7569.00,1.29
7568.00,1.29
7567.00,1.29
7566.00,1.29
7565.00,1.29
7564.00,1.29
7563.00,1.28
7562.00,1.28
7561.00,1.28
7560.00,1.28
7559.00,1.28
7558.00,1.28
7557.00,1.28
7556.00,1.28
7555.00,1.28
7554.00,1.28
7553.00,1.28
7552.00,1.28
7551.00,1.28
7550.00,1.28
7549.00,1.28
7548.00,1.28
7547.00,1.28
7546.00,1.28
7545.00,1.28
7544.00,1.28
7543.00,1.28
7542.00,1.28
7541.00,1.28
7540.00,1.28
7539.00,1.28
7538.00,1.28
7537.00,1.28
7536.00,1.28
7535.00,1.28
7534.00,1.28
7533.00,1.28
7532.00,1.28
7531.00,1.28
7530.00,1.28
7529.00,1.28
7528.00,1.28
7527.00,1.28
7526.00,1.28
7525.00,1.28
7524.00,1.28
7523.00,1.28
7522.00,1.28
7521.00,1.28
7520.00,1.28
7519.00,1.28
7518.00,1.28
7517.00,1.28
7516.00,1.28
7515.00,1.28
7514.00,1.28
7513.00,1.28
7512.00,1.28
7511.00,1.28
7510.00,1.28
7509.00,1.28
7508.00,1.28
7507.00,1.28
7506.00,1.27
7505.00,1.27
7504.00,1.27
7503.00,1.27
7502.00,1.27
7501.00,1.27
7500.00,1.27
7499.00,1.27
7498.00,1.27
7497.00,1.27
7496.00,1.27
7495.00,1.27
7494.00,1.27
7493.00,1.27
7492.00,1.27
7491.00,1.27
7490.00,1.26
7489.00,1.26
7488.00,1.26
7487.00,1.26
7486.00,1.26
7485.00,1.26
7484.00,1.26
7483.00,1.26
7482.00,1.26
7481.00,1.26
7480.00,1.26
7479.00,1.26
7478.00,1.26
7477.00,1.26
7476.00,1.26
7475.00,1.26
7474.00,1.26
7473.00,1.26
7472.00,1.26
7471.00,1.26
7470.00,1.26
7469.00,1.26
7468.00,1.26
7467.00,1.26
7466.00,1.26
7465.00,1.26
7464.00,1.25
7463.00,1.25
7462.00,1.25
7461.00,1.25
7460.00,1.25
7459.00,1.25
7458.00,1.25
7457.00,1.25
7456.00,1.25
7455.00,1.25
7454.00,1.25
7453.00,1.25
7452.00,1.25
7451.00,1.25
7450.00,1.25
7449.00,1.25
7448.00,1.25
7447.00,1.25
7446.00,1.25
7445.00,1.25
7444.00,1.25
7443.00,1.25
7442.00,1.25
7441.00,1.25
7440.00,1.25
7439.00,1.25
7438.00,1.25
7437.00,1.25
7436.00,1.25
7435.00,1.24
7434.00,1.24
7433.00,1.24
7432.00,1.24
7431.00,1.24
7430.00,1.24
7429.00,1.24
7428.00,1.24
7427.00,1.24
7426.00,1.23
7425.00,1.23
7424.00,1.23
7423.00,1.23
7422.00,1.23
7421.00,1.23
7420.00,1.23
7419.00,1.23
7418.00,1.23
7417.00,1.23
7416.00,1.23
7415.00,1.22
7414.00,1.22
7413.00,1.22
7412.00,1.22
7411.00,1.22
7410.00,1.22
7409.00,1.22
7408.00,1.22
7407.00,1.22
7406.00,1.22
7405.00,1.22
7404.00,1.22
7403.00,1.22
7402.00,1.22
7401.00,1.22
7400.00,1.22
7399.00,1.22
7398.00,1.22
7397.00,1.22
7396.00,1.22
7395.00,1.21
7394.00,1.21
7393.00,1.21
7392.00,1.21
7391.00,1.21
7390.00,1.21
7389.00,1.21
7388.00,1.21
7387.00,1.21
7386.00,1.21
7385.00,1.20
7384.00,1.20
7383.00,1.20
7382.00,1.20
7381.00,1.20
7380.00,1.20
7379.00,1.20
7378.00,1.20
7377.00,1.20
7376.00,1.20
7375.00,1.20
7374.00,1.20
7373.00,1.20
7372.00,1.20
7371.00,1.20
7370.00,1.20
7369.00,1.20
7368.00,1.20
7367.00,1.20
7366.00,1.20
7365.00,1.20
7364.00,1.19
7363.00,1.19
7362.00,1.19
7361.00,1.19
7360.00,1.19
7359.00,1.19
7358.00,1.19
7357.00,1.19
7356.00,1.19
7355.00,1.19
7354.00,1.19
7353.00,1.19
7352.00,1.19
7351.00,1.19
7350.00,1.19
7349.00,1.20
7348.00,1.20
7347.00,1.20
7346.00,1.20
7345.00,1.19
7344.00,1.19
7343.00,1.19
7342.00,1.19
7341.00,1.19
7340.00,1.19
7339.00,1.19
7338.00,1.19
7337.00,1.19
7336.00,1.19
7335.00,1.19
7334.00,1.19
7333.00,1.18
7332.00,1.18
7331.00,1.18
7330.00,1.18
7329.00,1.18
7328.00,1.18
7327.00,1.18
7326.00,1.18
7325.00,1.18
7324.00,1.18
7323.00,1.18
7322.00,1.18
7321.00,1.18
7320.00,1.18
7319.00,1.18
7318.00,1.18
7317.00,1.17
7316.00,1.17
7315.00,1.17
7314.00,1.17
7313.00,1.17
7312.00,1.17
7311.00,1.17
7310.00,1.17
7309.00,1.17
7308.00,1.17
7307.00,1.17
7306.00,1.17
7305.00,1.17
7304.00,1.17
7303.00,1.17
7302.00,1.17
7301.00,1.17
7300.00,1.17
7299.00,1.16
7298.00,1.16
7297.00,1.16
7296.00,1.16
7295.00,1.16
7294.00,1.16
7293.00,1.16
7292.00,1.16
7291.00,1.16
7290.00,1.16
7289.00,1.16
7288.00,1.16
7287.00,1.16
7286.00,1.16
7285.00,1.16
7284.00,1.16
7283.00,1.15
7282.00,1.15
7281.00,1.15
7280.00,1.15
7279.00,1.15
7278.00,1.15
7277.00,1.15
7276.00,1.15
7275.00,1.14
7274.00,1.14
7273.00,1.14
7272.00,1.14
7271.00,1.14
7270.00,1.14
7269.00,1.13
7268.00,1.13
7267.00,1.13
7266.00,1.13
7265.00,1.13
7264.00,1.12
7263.00,1.12
7262.00,1.12
7261.00,1.12
7260.00,1.12
7259.00,1.12
7258.00,1.12
7257.00,1.12
7256.00,1.12
7255.00,1.11
7254.00,1.11
7253.00,1.11
7252.00,1.11
7251.00,1.11
7250.00,1.11
7249.00,1.11
7248.00,1.11
7247.00,1.11
7246.00,1.11
7245.00,1.11
7244.00,1.10
7243.00,1.10
7242.00,1.10
7241.00,1.10
7240.00,1.10
7239.00,1.09
7238.00,1.09
7237.00,1.09
7236.00,1.08
7235.00,1.08
7234.00,1.08
7233.00,1.07
7232.00,1.07
7231.00,1.07
7230.00,1.06
7229.00,1.06
7228.00,1.06
7227.00,1.05
7226.00,1.05
7225.00,1.05
7224.00,1.04
7223.00,1.04
7222.00,1.04
7221.00,1.03
7220.00,1.03
7219.00,1.03
7218.00,1.03
7217.00,1.02
7216.00,1.02
7215.00,1.02
7214.00,1.01
7213.00,1.01
7212.00,1.01
7211.00,1.01
7210.00,1.00
7209.00,1.00
7208.00,1.00
7207.00,1.00
7206.00,0.99
7205.00,0.99
7204.00,0.99
7203.00,0.98
7202.00,0.98
7201.00,0.98
7200.00,0.98
7199.00,0.97
7198.00,0.97
7197.00,0.97
7196.00,0.96
7195.00,0.96
7194.00,0.96
7193.00,0.95
7192.00,0.95
7191.00,0.95
7190.00,0.94
7189.00,0.94
7188.00,0.94
7187.00,0.93
7186.00,0.93
7185.00,0.93
7184.00,0.92
7183.00,0.92
7182.00,0.92
7181.00,0.91
7180.00,0.91
7179.00,0.91
7178.00,0.91
7177.00,0.90
7176.00,0.90
7175.00,0.90
7174.00,0.90
7173.00,0.89
7172.00,0.89
7171.00,0.89
7170.00,0.89
7169.00,0.88
7168.00,0.88
7167.00,0.88
7166.00,0.88
7165.00,0.87
7164.00,0.87
7163.00,0.87
7162.00,0.87
7161.00,0.86
7160.00,0.86
7159.00,0.86
7158.00,0.85
7157.00,0.85
7156.00,0.85
7155.00,0.85
7154.00,0.84
7153.00,0.84
7152.00,0.84
7151.00,0.84
7150.00,0.83
7149.00,0.83
7148.00,0.83
7147.00,0.82
7146.00,0.82
7145.00,0.82
7144.00,0.82
7143.00,0.81
7142.00,0.81
7141.00,0.81
7140.00,0.81
7139.00,0.80
7138.00,0.80
7137.00,0.80
7136.00,0.80
7135.00,0.80
7134.00,0.80
7133.00,0.79
7132.00,0.79
7131.00,0.79
7130.00,0.79
7129.00,0.79
7128.00,0.79
7127.00,0.78
7126.00,0.78
7125.00,0.78
7124.00,0.78
7123.00,0.78
7122.00,0.77
7121.00,0.77
7120.00,0.77
7119.00,0.77
7118.00,0.76
7117.00,0.76
7116.00,0.76
7115.00,0.75
7114.00,0.75
7113.00,0.75
7112.00,0.74
7111.00,0.74
7110.00,0.74
7109.00,0.74
7108.00,0.73
7107.00,0.73
7106.00,0.73
7105.00,0.72
7104.00,0.72
7103.00,0.72
7102.00,0.72
7101.00,0.72
7100.00,0.71
7099.00,0.71
7098.00,0.71
7097.00,0.71
7096.00,0.71
7095.00,0.70
7094.00,0.70
7093.00,0.70
7092.00,0.70
7091.00,0.70
7090.00,0.70
7089.00,0.70
7088.00,0.70
7087.00,0.70
7086.00,0.69
7085.00,0.69
7084.00,0.69
7083.00,0.69
7082.00,0.69
7081.00,0.69
7080.00,0.69
7079.00,0.69
7078.00,0.69
7077.00,0.69
7076.00,0.69
7075.00,0.69
7074.00,0.68
7073.00,0.68
7072.00,0.68
7071.00,0.68
7070.00,0.68
7069.00,0.68
7068.00,0.68
7067.00,0.68
7066.00,0.68
7065.00,0.67
7064.00,0.67
7063.00,0.67
7062.00,0.67
7061.00,0.67
7060.00,0.67
7059.00,0.67
7058.00,0.67
7057.00,0.66
7056.00,0.66
7055.00,0.66
7054.00,0.66
7053.00,0.66
7052.00,0.66
7051.00,0.66
7050.00,0.65
7049.00,0.65
7048.00,0.65
7047.00,0.65
7046.00,0.65
7045.00,0.65
7044.00,0.64
7043.00,0.64
7042.00,0.64
7041.00,0.64
7040.00,0.64
7039.00,0.64
7038.00,0.64
7037.00,0.64
7036.00,0.64
7035.00,0.64
7034.00,0.63
7033.00,0.63
7032.00,0.63
7031.00,0.63
7030.00,0.63
7029.00,0.63
7028.00,0.63
7027.00,0.63
7026.00,0.63
7025.00,0.63
7024.00,0.63
7023.00,0.63
7022.00,0.63
7021.00,0.63
7020.00,0.63
7019.00,0.63
7018.00,0.63
7017.00,0.63
7016.00,0.63
7015.00,0.62
7014.00,0.62
7013.00,0.62
7012.00,0.62
7011.00,0.62
7010.00,0.62
7009.00,0.62
7008.00,0.62
7007.00,0.62
7006.00,0.62
7005.00,0.61
7004.00,0.61
7003.00,0.61
7002.00,0.61
7001.00,0.61
7000.00,0.61
6999.00,0.61
6998.00,0.61
6997.00,0.61
6996.00,0.61
6995.00,0.60
6994.00,0.60
6993.00,0.60
6992.00,0.60
6991.00,0.60
6990.00,0.60
6989.00,0.60
6988.00,0.60
6987.00,0.60
6986.00,0.60
6985.00,0.60
6984.00,0.60
6983.00,0.60
6982.00,0.60
6981.00,0.60
6980.00,0.60
6979.00,0.60
6978.00,0.59
6977.00,0.59
6976.00,0.59
6975.00,0.59
6974.00,0.59
6973.00,0.59
6972.00,0.59
6971.00,0.59
6970.00,0.59
6969.00,0.59
6968.00,0.59
6967.00,0.59
6966.00,0.59
6965.00,0.59
6964.00,0.59
6963.00,0.59
6962.00,0.59
6961.00,0.59
6960.00,0.59
6959.00,0.59
6958.00,0.59
6957.00,0.59
6956.00,0.59
6955.00,0.59
6954.00,0.59
6953.00,0.59
6952.00,0.59
6951.00,0.59
6950.00,0.59
6949.00,0.59
6948.00,0.59
6947.00,0.59
6946.00,0.59
6945.00,0.59
6944.00,0.59
6943.00,0.59
6942.00,0.59
6941.00,0.59
6940.00,0.59
6939.00,0.59
6938.00,0.59
6937.00,0.59
6936.00,0.58
6935.00,0.58
6934.00,0.58
6933.00,0.58
6932.00,0.58
6931.00,0.58
6930.00,0.58
6929.00,0.58
6928.00,0.58
6927.00,0.58
6926.00,0.58
6925.00,0.58
6924.00,0.58
6923.00,0.59
6922.00,0.59
6921.00,0.59
6920.00,0.59
6919.00,0.59
6918.00,0.59
6917.00,0.59
6916.00,0.59
6915.00,0.59
6914.00,0.59
6913.00,0.59
6912.00,0.59
6911.00,0.59
6910.00,0.59
6909.00,0.59
6908.00,0.59
6907.00,0.59
6906.00,0.59
6905.00,0.59
6904.00,0.59
6903.00,0.58
6902.00,0.58
6901.00,0.58
6900.00,0.58
6899.00,0.58
6898.00,0.58
6897.00,0.58
6896.00,0.58
6895.00,0.58
6894.00,0.58
6893.00,0.58
6892.00,0.58
6891.00,0.57
6890.00,0.57
6889.00,0.57
6888.00,0.57
6887.00,0.57
6886.00,0.57
6885.00,0.57
6884.00,0.57
6883.00,0.57
6882.00,0.57
6881.00,0.57
6880.00,0.57
6879.00,0.57
6878.00,0.57
6877.00,0.57
6876.00,0.57
6875.00,0.57
6874.00,0.57
6873.00,0.57
6872.00,0.58
6871.00,0.58
6870.00,0.58
6869.00,0.58
6868.00,0.58
6867.00,0.58
6866.00,0.58
6865.00,0.58
6864.00,0.58
6863.00,0.58
6862.00,0.58
6861.00,0.58
6860.00,0.58
6859.00,0.58
6858.00,0.58
6857.00,0.58
6856.00,0.58
6855.00,0.58
6854.00,0.58
6853.00,0.58
6852.00,0.58
6851.00,0.58
6850.00,0.58
6849.00,0.59
6848.00,0.59
6847.00,0.59
6846.00,0.59
6845.00,0.59
6844.00,0.59
6843.00,0.58
6842.00,0.58
6841.00,0.58
6840.00,0.58
6839.00,0.58
6838.00,0.58
6837.00,0.58
6836.00,0.58
6835.00,0.58
6834.00,0.58
6833.00,0.58
6832.00,0.58
6831.00,0.58
6830.00,0.58
6829.00,0.58
6828.00,0.58
6827.00,0.58
6826.00,0.58
6825.00,0.58
6824.00,0.58
6823.00,0.58
6822.00,0.58
6821.00,0.58
6820.00,0.59
6819.00,0.59
6818.00,0.59
6817.00,0.59
6816.00,0.59
6815.00,0.59
6814.00,0.59
6813.00,0.59
6812.00,0.60
6811.00,0.60
6810.00,0.60
6809.00,0.60
6808.00,0.60
6807.00,0.60
6806.00,0.60
6805.00,0.60
6804.00,0.60
6803.00,0.60
6802.00,0.60
6801.00,0.60
6800.00,0.60
6799.00,0.60
6798.00,0.60
6797.00,0.60
6796.00,0.60
6795.00,0.60
6794.00,0.60
6793.00,0.60
6792.00,0.60
6791.00,0.60
6790.00,0.60
6789.00,0.60
6788.00,0.60
6787.00,0.60
6786.00,0.60
6785.00,0.60
6784.00,0.60
6783.00,0.60
6782.00,0.60
6781.00,0.60
6780.00,0.60
6779.00,0.60
6778.00,0.60
6777.00,0.60
6776.00,0.61
6775.00,0.61
6774.00,0.61
6773.00,0.61
6772.00,0.61
6771.00,0.61
6770.00,0.61
6769.00,0.61
6768.00,0.61
6767.00,0.61
6766.00,0.61
6765.00,0.61
6764.00,0.61
6763.00,0.61
6762.00,0.61
6761.00,0.61
6760.00,0.61
6759.00,0.61
6758.00,0.61
6757.00,0.61
6756.00,0.61
6755.00,0.61
6754.00,0.62
6753.00,0.62
6752.00,0.62
6751.00,0.62
6750.00,0.62
6749.00,0.62
6748.00,0.62
6747.00,0.62
6746.00,0.62
6745.00,0.62
6744.00,0.62
6743.00,0.62
6742.00,0.62
6741.00,0.62
6740.00,0.62
6739.00,0.62
6738.00,0.62
6737.00,0.62
6736.00,0.62
6735.00,0.62
6734.00,0.62
6733.00,0.62
6732.00,0.62
6731.00,0.62
6730.00,0.62
6729.00,0.62
6728.00,0.63
6727.00,0.63
6726.00,0.63
6725.00,0.63
6724.00,0.63
6723.00,0.63
6722.00,0.63
6721.00,0.63
6720.00,0.63
6719.00,0.63
6718.00,0.63
6717.00,0.63
6716.00,0.64
6715.00,0.64
6714.00,0.64
6713.00,0.64
6712.00,0.64
6711.00,0.64
6710.00,0.64
6709.00,0.64
6708.00,0.64
6707.00,0.64
6706.00,0.64
6705.00,0.65
6704.00,0.65
6703.00,0.65
6702.00,0.65
6701.00,0.65
6700.00,0.65
6699.00,0.65
6698.00,0.65
6697.00,0.65
6696.00,0.65
6695.00,0.65
6694.00,0.65
6693.00,0.65
6692.00,0.65
6691.00,0.65
6690.00,0.65
6689.00,0.65
6688.00,0.65
6687.00,0.66
6686.00,0.66
6685.00,0.66
6684.00,0.66
6683.00,0.66
6682.00,0.66
6681.00,0.66
6680.00,0.66
6679.00,0.66
6678.00,0.66
6677.00,0.67
6676.00,0.67
6675.00,0.67
6674.00,0.67
6673.00,0.67
6672.00,0.67
6671.00,0.67
6670.00,0.67
6669.00,0.67
6668.00,0.67
6667.00,0.67
6666.00,0.67
6665.00,0.67
6664.00,0.67
6663.00,0.68
6662.00,0.68
6661.00,0.68
6660.00,0.68
6659.00,0.68
6658.00,0.68
6657.00,0.68
6656.00,0.69
6655.00,0.69
6654.00,0.69
6653.00,0.69
6652.00,0.69
6651.00,0.69
6650.00,0.69
6649.00,0.69
6648.00,0.70
6647.00,0.70
6646.00,0.70
6645.00,0.70
6644.00,0.70
6643.00,0.70
6642.00,0.70
6641.00,0.70
6640.00,0.70
6639.00,0.70
6638.00,0.70
6637.00,0.71
6636.00,0.71
6635.00,0.71
6634.00,0.71
6633.00,0.71
6632.00,0.71
6631.00,0.71
6630.00,0.71
6629.00,0.71
6628.00,0.71
6627.00,0.71
6626.00,0.71
6625.00,0.72
6624.00,0.72
6623.00,0.72
6622.00,0.72
6621.00,0.72
6620.00,0.72
6619.00,0.72
6618.00,0.72
6617.00,0.72
6616.00,0.72
6615.00,0.72
6614.00,0.72
6613.00,0.72
6612.00,0.72
6611.00,0.72
6610.00,0.72
6609.00,0.72
6608.00,0.73
6607.00,0.73
6606.00,0.73
6605.00,0.73
6604.00,0.73
6603.00,0.73
6602.00,0.73
6601.00,0.73
6600.00,0.73
6599.00,0.73
6598.00,0.73
6597.00,0.73
6596.00,0.73
6595.00,0.74
6594.00,0.74
6593.00,0.74
6592.00,0.74
6591.00,0.74
6590.00,0.74
6589.00,0.74
6588.00,0.75
6587.00,0.75
6586.00,0.75
6585.00,0.75
6584.00,0.75
6583.00,0.75
6582.00,0.75
6581.00,0.75
6580.00,0.76
6579.00,0.76
6578.00,0.76
6577.00,0.76
6576.00,0.76
6575.00,0.76
6574.00,0.76
6573.00,0.76
6572.00,0.76
6571.00,0.76
6570.00,0.76
6569.00,0.76
6568.00,0.76
6567.00,0.76
6566.00,0.76
6565.00,0.77
6564.00,0.77
6563.00,0.77
6562.00,0.77
6561.00,0.77
6560.00,0.77
6559.00,0.77
6558.00,0.77
6557.00,0.77
6556.00,0.77
6555.00,0.77
6554.00,0.77
6553.00,0.77
6552.00,0.77
6551.00,0.77
6550.00,0.77
6549.00,0.77
6548.00,0.77
6547.00,0.77
6546.00,0.77
6545.00,0.78
6544.00,0.78
6543.00,0.78
6542.00,0.78
6541.00,0.78
6540.00,0.78
6539.00,0.78
6538.00,0.78
6537.00,0.78
6536.00,0.78
6535.00,0.79
6534.00,0.79
6533.00,0.79
6532.00,0.79
6531.00,0.79
6530.00,0.79
6529.00,0.79
6528.00,0.79
6527.00,0.79
6526.00,0.79
6525.00,0.80
6524.00,0.80
6523.00,0.80
6522.00,0.80
6521.00,0.80
6520.00,0.80
6519.00,0.80
6518.00,0.80
6517.00,0.80
6516.00,0.80
6515.00,0.80
6514.00,0.80
6513.00,0.80
6512.00,0.80
6511.00,0.80
6510.00,0.80
6509.00,0.80
6508.00,0.80
6507.00,0.80
6506.00,0.80
6505.00,0.80
6504.00,0.81
6503.00,0.81
6502.00,0.81
6501.00,0.81
6500.00,0.81
6499.00,0.81
6498.00,0.81
6497.00,0.81
6496.00,0.81
6495.00,0.81
6494.00,0.82
6493.00,0.82
6492.00,0.82
6491.00,0.82
6490.00,0.82
6489.00,0.82
6488.00,0.82
6487.00,0.82
6486.00,0.82
6485.00,0.82
6484.00,0.82
6483.00,0.82
6482.00,0.82
6481.00,0.82
6480.00,0.82
6479.00,0.83
6478.00,0.83
6477.00,0.83
6476.00,0.83
6475.00,0.83
6474.00,0.83
6473.00,0.83
6472.00,0.83
6471.00,0.83
6470.00,0.83
6469.00,0.83
6468.00,0.83
6467.00,0.83
6466.00,0.83
6465.00,0.83
6464.00,0.83
6463.00,0.83
6462.00,0.83
6461.00,0.84
6460.00,0.84
6459.00,0.84
6458.00,0.84
6457.00,0.84
6456.00,0.84
6455.00,0.84
6454.00,0.84
6453.00,0.84
6452.00,0.84
6451.00,0.84
6450.00,0.84
6449.00,0.84
6448.00,0.84
6447.00,0.84
6446.00,0.84
6445.00,0.84
6444.00,0.84
6443.00,0.84
6442.00,0.84
6441.00,0.84
6440.00,0.84
6439.00,0.85
6438.00,0.85
6437.00,0.85
6436.00,0.85
6435.00,0.85
6434.00,0.85
6433.00,0.85
6432.00,0.85
6431.00,0.85
6430.00,0.85
6429.00,0.85
6428.00,0.85
6427.00,0.85
6426.00,0.85
6425.00,0.85
6424.00,0.86
6423.00,0.86
6422.00,0.86
6421.00,0.86
6420.00,0.86
6419.00,0.86
6418.00,0.86
6417.00,0.86
6416.00,0.86
6415.00,0.86
6414.00,0.86
6413.00,0.86
6412.00,0.86
6411.00,0.86
6410.00,0.86
6409.00,0.86
6408.00,0.86
6407.00,0.86
6406.00,0.87
6405.00,0.87
6404.00,0.87
6403.00,0.87
6402.00,0.87
6401.00,0.87
6400.00,0.87
6399.00,0.87
6398.00,0.87
6397.00,0.88
6396.00,0.88
6395.00,0.88
6394.00,0.88
6393.00,0.88
6392.00,0.88
6391.00,0.88
6390.00,0.88
6389.00,0.88
6388.00,0.88
6387.00,0.88
6386.00,0.88
6385.00,0.88
6384.00,0.88
6383.00,0.88
6382.00,0.88
6381.00,0.88
6380.00,0.88
6379.00,0.88
6378.00,0.88
6377.00,0.88
6376.00,0.88
6375.00,0.88
6374.00,0.88
6373.00,0.88
6372.00,0.88
6371.00,0.88
6370.00,0.88
6369.00,0.89
6368.00,0.89
6367.00,0.89
6366.00,0.89
6365.00,0.89
6364.00,0.89
6363.00,0.89
6362.00,0.89
6361.00,0.89
6360.00,0.89
6359.00,0.90
6358.00,0.90
6357.00,0.90
6356.00,0.90
6355.00,0.90
6354.00,0.90
6353.00,0.90
6352.00,0.90
6351.00,0.90
6350.00,0.90
6349.00,0.90
6348.00,0.90
6347.00,0.90
6346.00,0.90
6345.00,0.91
6344.00,0.91
6343.00,0.91
6342.00,0.91
6341.00,0.91
6340.00,0.91
6339.00,0.91
6338.00,0.91
6337.00,0.91
6336.00,0.91
6335.00,0.91
6334.00,0.91
6333.00,0.91
6332.00,0.91
6331.00,0.91
6330.00,0.92
6329.00,0.92
6328.00,0.92
6327.00,0.92
6326.00,0.92
6325.00,0.92
6324.00,0.92
6323.00,0.92
6322.00,0.93
6321.00,0.93
6320.00,0.93
6319.00,0.93
6318.00,0.93
6317.00,0.93
6316.00,0.93
6315.00,0.93
6314.00,0.93
6313.00,0.93
6312.00,0.93
6311.00,0.93
6310.00,0.94
6309.00,0.94
6308.00,0.94
6307.00,0.94
6306.00,0.94
6305.00,0.94
6304.00,0.94
6303.00,0.94
6302.00,0.94
6301.00,0.94
6300.00,0.94
6299.00,0.94
6298.00,0.95
6297.00,0.95
6296.00,0.95
6295.00,0.95
6294.00,0.95
6293.00,0.95
6292.00,0.95
6291.00,0.95
6290.00,0.96
6289.00,0.96
6288.00,0.96
6287.00,0.96
6286.00,0.96
6285.00,0.96
6284.00,0.96
6283.00,0.96
6282.00,0.96
6281.00,0.96
6280.00,0.96
6279.00,0.96
6278.00,0.96
6277.00,0.96
6276.00,0.96
6275.00,0.97
6274.00,0.97
6273.00,0.97
6272.00,0.97
6271.00,0.97
6270.00,0.97
6269.00,0.97
6268.00,0.97
6267.00,0.97
6266.00,0.97
6265.00,0.97
6264.00,0.98
6263.00,0.98
6262.00,0.98
6261.00,0.98
6260.00,0.98
6259.00,0.98
6258.00,0.98
6257.00,0.98
6256.00,0.98
6255.00,0.99
6254.00,0.99
6253.00,0.99
6252.00,0.99
6251.00,0.99
6250.00,0.99
6249.00,0.99
6248.00,1.00
6247.00,1.00
6246.00,1.00
6245.00,1.00
6244.00,1.00
6243.00,1.00
6242.00,1.00
6241.00,1.00
6240.00,1.00
6239.00,1.01
6238.00,1.01
6237.00,1.01
6236.00,1.01
6235.00,1.01
6234.00,1.01
6233.00,1.01
6232.00,1.01
6231.00,1.01
6230.00,1.02
6229.00,1.02
6228.00,1.02
6227.00,1.02
6226.00,1.02
6225.00,1.02
6224.00,1.02
6223.00,1.02
6222.00,1.02
6221.00,1.02
6220.00,1.03
6219.00,1.03
6218.00,1.03
6217.00,1.03
6216.00,1.03
6215.00,1.03
6214.00,1.03
6213.00,1.03
6212.00,1.03
6211.00,1.03
6210.00,1.03
6209.00,1.03
6208.00,1.04
6207.00,1.04
6206.00,1.04
6205.00,1.04
6204.00,1.04
6203.00,1.04
6202.00,1.04
6201.00,1.04
6200.00,1.04
6199.00,1.04
6198.00,1.05
6197.00,1.05
6196.00,1.05
6195.00,1.05
6194.00,1.05
6193.00,1.05
6192.00,1.05
6191.00,1.05
6190.00,1.05
6189.00,1.06
6188.00,1.06
6187.00,1.06
6186.00,1.06
6185.00,1.06
6184.00,1.06
6183.00,1.06
6182.00,1.06
6181.00,1.06
6180.00,1.07
6179.00,1.07
6178.00,1.07
6177.00,1.07
6176.00,1.07
6175.00,1.07
6174.00,1.07
6173.00,1.07
6172.00,1.07
6171.00,1.08
6170.00,1.08
6169.00,1.08
6168.00,1.08
6167.00,1.08
6166.00,1.08
6165.00,1.08
6164.00,1.09
6163.00,1.09
6162.00,1.09
6161.00,1.09
6160.00,1.09
6159.00,1.09
6158.00,1.10
6157.00,1.10
6156.00,1.10
6155.00,1.10
6154.00,1.10
6153.00,1.10
6152.00,1.10
6151.00,1.11
6150.00,1.11
6149.00,1.11
6148.00,1.11
6147.00,1.11
6146.00,1.11
6145.00,1.11
6144.00,1.12
6143.00,1.12
6142.00,1.12
6141.00,1.12
6140.00,1.12
6139.00,1.12
6138.00,1.12
6137.00,1.12
6136.00,1.13
6135.00,1.13
6134.00,1.13
6133.00,1.13
6132.00,1.13
6131.00,1.13
6130.00,1.13
6129.00,1.13
6128.00,1.13
6127.00,1.13
6126.00,1.14
6125.00,1.14
6124.00,1.14
6123.00,1.14
6122.00,1.14
6121.00,1.14
6120.00,1.14
6119.00,1.14
6118.00,1.14
6117.00,1.15
6116.00,1.15
6115.00,1.15
6114.00,1.15
6113.00,1.15
6112.00,1.15
6111.00,1.15
6110.00,1.15
6109.00,1.16
6108.00,1.16
6107.00,1.16
6106.00,1.16
6105.00,1.16
6104.00,1.16
6103.00,1.16
6102.00,1.16
6101.00,1.16
6100.00,1.16
6099.00,1.17
6098.00,1.17
6097.00,1.17
6096.00,1.17
6095.00,1.17
6094.00,1.17
6093.00,1.17
6092.00,1.17
6091.00,1.18
6090.00,1.18
6089.00,1.18
6088.00,1.18
6087.00,1.18
6086.00,1.18
6085.00,1.18
6084.00,1.18
6083.00,1.19
6082.00,1.19
6081.00,1.19
6080.00,1.19
6079.00,1.19
6078.00,1.19
6077.00,1.19
6076.00,1.19
6075.00,1.19
6074.00,1.19
6073.00,1.19
6072.00,1.20
6071.00,1.20
6070.00,1.20
6069.00,1.20
6068.00,1.20
6067.00,1.20
6066.00,1.20
6065.00,1.20
6064.00,1.20
6063.00,1.20
6062.00,1.20
6061.00,1.20
6060.00,1.20
6059.00,1.20
6058.00,1.21
6057.00,1.21
6056.00,1.21
6055.00,1.21
6054.00,1.21
6053.00,1.21
6052.00,1.21
6051.00,1.21
6050.00,1.21
6049.00,1.21
6048.00,1.22
6047.00,1.22
6046.00,1.22
6045.00,1.22
6044.00,1.22
6043.00,1.22
6042.00,1.22
6041.00,1.22
6040.00,1.22
6039.00,1.22
6038.00,1.22
6037.00,1.22
6036.00,1.22
6035.00,1.22
6034.00,1.22
6033.00,1.22
6032.00,1.22
6031.00,1.22
6030.00,1.22
6029.00,1.23
6028.00,1.23
6027.00,1.23
6026.00,1.23
6025.00,1.23
6024.00,1.23
6023.00,1.23
6022.00,1.23
6021.00,1.23
6020.00,1.23
6019.00,1.23
6018.00,1.23
6017.00,1.23
6016.00,1.23
6015.00,1.23
6014.00,1.23
6013.00,1.23
6012.00,1.23
6011.00,1.22
6010.00,1.22
6009.00,1.22
6008.00,1.22
6007.00,1.22
6006.00,1.22
6005.00,1.22
6004.00,1.22
6003.00,1.22
6002.00,1.22
6001.00,1.22
6000.00,1.22
5999.00,1.22
5998.00,1.22
5997.00,1.22
5996.00,1.22
5995.00,1.22
5994.00,1.22
5993.00,1.22
5992.00,1.22
5991.00,1.21
5990.00,1.21
5989.00,1.21
5988.00,1.21
5987.00,1.21
5986.00,1.21
5985.00,1.21
5984.00,1.20
5983.00,1.20
5982.00,1.20
5981.00,1.20
5980.00,1.19
5979.00,1.19
5978.00,1.19
5977.00,1.19
5976.00,1.18
5975.00,1.18
5974.00,1.17
5973.00,1.17
5972.00,1.17
5971.00,1.16
5970.00,1.16
5969.00,1.15
5968.00,1.15
5967.00,1.14
5966.00,1.14
5965.00,1.13
5964.00,1.13
5963.00,1.12
5962.00,1.12
5961.00,1.11
5960.00,1.10
5959.00,1.10
5958.00,1.09
5957.00,1.09
5956.00,1.08
5955.00,1.07
5954.00,1.07
5953.00,1.06
5952.00,1.06
5951.00,1.05
5950.00,1.05
5949.00,1.05
5948.00,1.04
5947.00,1.04
5946.00,1.03
5945.00,1.03
5944.00,1.03
5943.00,1.03
5942.00,1.02
5941.00,1.02
5940.00,1.02
5939.00,1.02
5938.00,1.02
5937.00,1.02
5936.00,1.02
5935.00,1.02
5934.00,1.02
5933.00,1.02
5932.00,1.02
5931.00,1.02
5930.00,1.01
5929.00,1.01
5928.00,1.01
5927.00,1.01
5926.00,1.01
5925.00,1.01
5924.00,1.01
5923.00,1.01
5922.00,1.01
5921.00,1.01
5920.00,1.01
5919.00,1.00
5918.00,1.00
5917.00,1.00
5916.00,1.00
5915.00,1.00
5914.00,0.99
5913.00,0.99
5912.00,0.99
5911.00,0.99
5910.00,0.98
5909.00,0.98
5908.00,0.98
5907.00,0.98
5906.00,0.98
5905.00,0.98
5904.00,0.98
5903.00,0.98
5902.00,0.98
5901.00,0.98
5900.00,0.98
5899.00,0.98
5898.00,0.98
5897.00,0.98
5896.00,0.98
5895.00,0.98
5894.00,0.99
5893.00,0.99
5892.00,0.99
5891.00,0.99
5890.00,1.00
5889.00,1.00
5888.00,1.00
5887.00,1.00
5886.00,1.01
5885.00,1.01
5884.00,1.01
5883.00,1.01
5882.00,1.02
5881.00,1.02
5880.00,1.02
5879.00,1.02
5878.00,1.02
5877.00,1.03
5876.00,1.03
5875.00,1.03
5874.00,1.03
5873.00,1.03
5872.00,1.04
5871.00,1.04
5870.00,1.04
5869.00,1.04
5868.00,1.04
5867.00,1.04
5866.00,1.05
5865.00,1.05
5864.00,1.05
5863.00,1.05
5862.00,1.05
5861.00,1.05
5860.00,1.05
5859.00,1.06
5858.00,1.06
5857.00,1.06
5856.00,1.06
5855.00,1.06
5854.00,1.06
5853.00,1.06
5852.00,1.06
5851.00,1.06
5850.00,1.06
5849.00,1.06
5848.00,1.06
5847.00,1.07
5846.00,1.07
5845.00,1.07
5844.00,1.07
5843.00,1.06
5842.00,1.06
5841.00,1.06
5840.00,1.06
5839.00,1.06
5838.00,1.06
5837.00,1.06
5836.00,1.06
5835.00,1.06
5834.00,1.06
5833.00,1.06
5832.00,1.06
5831.00,1.06
5830.00,1.06
5829.00,1.06
5828.00,1.06
5827.00,1.06
5826.00,1.06
5825.00,1.06
5824.00,1.06
5823.00,1.06
5822.00,1.06
5821.00,1.07
5820.00,1.07
5819.00,1.07
5818.00,1.07
5817.00,1.07
5816.00,1.07
5815.00,1.07
5814.00,1.07
5813.00,1.07
5812.00,1.07
5811.00,1.07
5810.00,1.07
5809.00,1.07
5808.00,1.07
5807.00,1.07
5806.00,1.07
5805.00,1.07
5804.00,1.07
5803.00,1.07
5802.00,1.07
5801.00,1.06
5800.00,1.06
5799.00,1.06
5798.00,1.06
5797.00,1.06
5796.00,1.06
5795.00,1.06
5794.00,1.05
5793.00,1.05
5792.00,1.05
5791.00,1.05
5790.00,1.05
5789.00,1.04
5788.00,1.04
5787.00,1.04
5786.00,1.04
5785.00,1.03
5784.00,1.03
5783.00,1.03
5782.00,1.03
5781.00,1.02
5780.00,1.02
5779.00,1.02
5778.00,1.02
5777.00,1.02
5776.00,1.02
5775.00,1.02
5774.00,1.02
5773.00,1.02
5772.00,1.02
5771.00,1.02
5770.00,1.02
5769.00,1.02
5768.00,1.02
5767.00,1.02
5766.00,1.02
5765.00,1.02
5764.00,1.03
5763.00,1.03
5762.00,1.03
5761.00,1.03
5760.00,1.03
5759.00,1.04
5758.00,1.04
5757.00,1.04
5756.00,1.04
5755.00,1.05
5754.00,1.05
5753.00,1.05
5752.00,1.05
5751.00,1.06
5750.00,1.06
5749.00,1.06
5748.00,1.07
5747.00,1.07
5746.00,1.07
5745.00,1.07
5744.00,1.08
5743.00,1.08
5742.00,1.08
5741.00,1.08
5740.00,1.09
5739.00,1.09
5738.00,1.09
5737.00,1.09
5736.00,1.10
5735.00,1.10
5734.00,1.10
5733.00,1.10
5732.00,1.10
5731.00,1.10
5730.00,1.10
5729.00,1.11
5728.00,1.11
5727.00,1.11
5726.00,1.11
5725.00,1.11
5724.00,1.11
5723.00,1.11
5722.00,1.11
5721.00,1.11
5720.00,1.11
5719.00,1.11
5718.00,1.11
5717.00,1.11
5716.00,1.11
5715.00,1.11
5714.00,1.11
5713.00,1.11
5712.00,1.11
5711.00,1.11
5710.00,1.10
5709.00,1.10
5708.00,1.10
5707.00,1.10
5706.00,1.10
5705.00,1.10
5704.00,1.10
5703.00,1.10
5702.00,1.10
5701.00,1.10
5700.00,1.09
5699.00,1.09
5698.00,1.09
5697.00,1.09
5696.00,1.09
5695.00,1.09
5694.00,1.09
5693.00,1.09
5692.00,1.09
5691.00,1.09
5690.00,1.09
5689.00,1.09
5688.00,1.09
5687.00,1.08
5686.00,1.08
5685.00,1.08
5684.00,1.08
5683.00,1.08
5682.00,1.08
5681.00,1.08
5680.00,1.08
5679.00,1.08
5678.00,1.08
5677.00,1.07
5676.00,1.07
5675.00,1.07
5674.00,1.07
5673.00,1.07
5672.00,1.07
5671.00,1.07
5670.00,1.07
5669.00,1.07
5668.00,1.07
5667.00,1.07
5666.00,1.07
5665.00,1.08
5664.00,1.08
5663.00,1.08
5662.00,1.08
5661.00,1.08
5660.00,1.08
5659.00,1.08
5658.00,1.08
5657.00,1.08
5656.00,1.08
5655.00,1.09
5654.00,1.09
5653.00,1.09
5652.00,1.09
5651.00,1.09
5650.00,1.09
5649.00,1.09
5648.00,1.10
5647.00,1.10
5646.00,1.10
5645.00,1.10
5644.00,1.10
5643.00,1.10
5642.00,1.11
5641.00,1.11
5640.00,1.11
5639.00,1.11
5638.00,1.11
5637.00,1.11
5636.00,1.12
5635.00,1.12
5634.00,1.12
5633.00,1.12
5632.00,1.12
5631.00,1.12
5630.00,1.13
5629.00,1.13
5628.00,1.13
5627.00,1.13
5626.00,1.13
5625.00,1.13
5624.00,1.13
5623.00,1.14
5622.00,1.14
5621.00,1.14
5620.00,1.14
5619.00,1.14
5618.00,1.14
5617.00,1.14
5616.00,1.14
5615.00,1.14
5614.00,1.14
5613.00,1.15
5612.00,1.15
5611.00,1.15
5610.00,1.15
5609.00,1.15
5608.00,1.15
5607.00,1.15
5606.00,1.15
5605.00,1.15
5604.00,1.16
5603.00,1.16
5602.00,1.16
5601.00,1.16
5600.00,1.16
5599.00,1.16
5598.00,1.16
5597.00,1.16
5596.00,1.16
5595.00,1.17
5594.00,1.17
5593.00,1.17
5592.00,1.17
5591.00,1.17
5590.00,1.17
5589.00,1.17
5588.00,1.17
5587.00,1.17
5586.00,1.17
5585.00,1.18
5584.00,1.18
5583.00,1.18
5582.00,1.18
5581.00,1.18
5580.00,1.18
5579.00,1.18
5578.00,1.19
5577.00,1.19
5576.00,1.19
5575.00,1.19
5574.00,1.19
5573.00,1.19
5572.00,1.20
5571.00,1.20
5570.00,1.20
5569.00,1.20
5568.00,1.20
5567.00,1.20
5566.00,1.21
5565.00,1.21
5564.00,1.21
5563.00,1.21
5562.00,1.21
5561.00,1.21
5560.00,1.21
5559.00,1.21
5558.00,1.21
5557.00,1.21
5556.00,1.22
5555.00,1.22
5554.00,1.22
5553.00,1.22
5552.00,1.22
5551.00,1.22
5550.00,1.22
5549.00,1.22
5548.00,1.22
5547.00,1.22
5546.00,1.23
5545.00,1.23
5544.00,1.23
5543.00,1.23
5542.00,1.23
5541.00,1.23
5540.00,1.23
5539.00,1.23
5538.00,1.23
5537.00,1.23
5536.00,1.24
5535.00,1.24
5534.00,1.24
5533.00,1.24
5532.00,1.24
5531.00,1.24
5530.00,1.24
5529.00,1.24
5528.00,1.24
5527.00,1.24
5526.00,1.24
5525.00,1.24
5524.00,1.24
5523.00,1.24
5522.00,1.24
5521.00,1.24
5520.00,1.24
5519.00,1.24
5518.00,1.24
5517.00,1.24
5516.00,1.25
5515.00,1.25
5514.00,1.25
5513.00,1.25
5512.00,1.25
5511.00,1.25
5510.00,1.25
5509.00,1.25
5508.00,1.25
5507.00,1.25
5506.00,1.25
5505.00,1.25
5504.00,1.25
5503.00,1.25
5502.00,1.25
5501.00,1.25
5500.00,1.26
5499.00,1.26
5498.00,1.26
5497.00,1.26
5496.00,1.26
5495.00,1.26
5494.00,1.26
5493.00,1.26
5492.00,1.26
5491.00,1.26
5490.00,1.26
5489.00,1.27
5488.00,1.27
5487.00,1.27
5486.00,1.27
5485.00,1.27
5484.00,1.27
5483.00,1.27
5482.00,1.27
5481.00,1.27
5480.00,1.27
5479.00,1.27
5478.00,1.28
5477.00,1.28
5476.00,1.28
5475.00,1.28
5474.00,1.28
5473.00,1.28
5472.00,1.28
5471.00,1.28
5470.00,1.28
5469.00,1.29
5468.00,1.29
5467.00,1.29
5466.00,1.29
5465.00,1.29
5464.00,1.29
5463.00,1.29
5462.00,1.29
5461.00,1.30
5460.00,1.30
5459.00,1.30
5458.00,1.30
5457.00,1.30
5456.00,1.30
5455.00,1.30
5454.00,1.30
5453.00,1.30
5452.00,1.30
5451.00,1.30
5450.00,1.30
5449.00,1.30
5448.00,1.30
5447.00,1.30
5446.00,1.30
5445.00,1.30
5444.00,1.30
5443.00,1.30
5442.00,1.30
5441.00,1.30
5440.00,1.30
5439.00,1.30
5438.00,1.30
5437.00,1.30
5436.00,1.30
5435.00,1.30
5434.00,1.30
5433.00,1.30
5432.00,1.30
5431.00,1.30
5430.00,1.30
5429.00,1.30
5428.00,1.30
5427.00,1.30
5426.00,1.30
5425.00,1.30
5424.00,1.30
5423.00,1.30
5422.00,1.30
5421.00,1.30
5420.00,1.30
5419.00,1.30
5418.00,1.30
5417.00,1.30
5416.00,1.30
5415.00,1.30
5414.00,1.30
5413.00,1.30
5412.00,1.30
5411.00,1.30
5410.00,1.30
5409.00,1.30
5408.00,1.30
5407.00,1.30
5406.00,1.30
5405.00,1.30
5404.00,1.30
5403.00,1.30
5402.00,1.30
5401.00,1.30
5400.00,1.30
5399.00,1.30
5398.00,1.29
5397.00,1.29
5396.00,1.29
5395.00,1.29
5394.00,1.29
5393.00,1.29
5392.00,1.29
5391.00,1.28
5390.00,1.28
5389.00,1.28
5388.00,1.28
5387.00,1.28
5386.00,1.27
5385.00,1.27
5384.00,1.27
5383.00,1.27
5382.00,1.26
5381.00,1.26
5380.00,1.26
5379.00,1.26
5378.00,1.25
5377.00,1.25
5376.00,1.25
5375.00,1.24
5374.00,1.24
5373.00,1.24
5372.00,1.23
5371.00,1.23
5370.00,1.22
5369.00,1.22
5368.00,1.22
5367.00,1.21
5366.00,1.21
5365.00,1.20
5364.00,1.20
5363.00,1.19
5362.00,1.19
5361.00,1.18
5360.00,1.18
5359.00,1.17
5358.00,1.16
5357.00,1.16
5356.00,1.15
5355.00,1.14
5354.00,1.14
5353.00,1.13
5352.00,1.12
5351.00,1.11
5350.00,1.11
5349.00,1.10
5348.00,1.09
5347.00,1.08
5346.00,1.07
5345.00,1.06
5344.00,1.05
5343.00,1.05
5342.00,1.04
5341.00,1.03
5340.00,1.02
5339.00,1.01
5338.00,1.00
5337.00,0.99
5336.00,0.99
5335.00,0.98
5334.00,0.97
5333.00,0.96
5332.00,0.95
5331.00,0.94
5330.00,0.94
5329.00,0.93
5328.00,0.92
5327.00,0.91
5326.00,0.90
5325.00,0.89
5324.00,0.89
5323.00,0.88
5322.00,0.87
5321.00,0.86
5320.00,0.86
5319.00,0.85
5318.00,0.84
5317.00,0.83
5316.00,0.83
5315.00,0.82
5314.00,0.81
5313.00,0.81
5312.00,0.80
5311.00,0.79
5310.00,0.79
5309.00,0.78
5308.00,0.77
5307.00,0.77
5306.00,0.76
5305.00,0.76
5304.00,0.75
5303.00,0.75
5302.00,0.74
5301.00,0.74
5300.00,0.73
5299.00,0.73
5298.00,0.73
5297.00,0.72
5296.00,0.72
5295.00,0.72
5294.00,0.71
5293.00,0.71
5292.00,0.71
5291.00,0.71
5290.00,0.70
5289.00,0.70
5288.00,0.70
5287.00,0.70
5286.00,0.70
5285.00,0.70
5284.00,0.70
5283.00,0.69
5282.00,0.69
5281.00,0.69
5280.00,0.69
5279.00,0.69
5278.00,0.69
5277.00,0.69
5276.00,0.69
5275.00,0.69
5274.00,0.69
5273.00,0.69
5272.00,0.69
5271.00,0.69
5270.00,0.69
5269.00,0.69
5268.00,0.69
5267.00,0.69
5266.00,0.69
5265.00,0.69
5264.00,0.69
5263.00,0.69
5262.00,0.69
5261.00,0.69
5260.00,0.69
5259.00,0.69
5258.00,0.69
5257.00,0.69
5256.00,0.69
5255.00,0.69
5254.00,0.69
5253.00,0.69
5252.00,0.69
5251.00,0.69
5250.00,0.69
5249.00,0.69
5248.00,0.69
5247.00,0.69
5246.00,0.69
5245.00,0.69
5244.00,0.69
5243.00,0.69
5242.00,0.69
5241.00,0.69
5240.00,0.69
5239.00,0.69
5238.00,0.69
5237.00,0.69
5236.00,0.69
5235.00,0.69
5234.00,0.69
5233.00,0.69
5232.00,0.69
5231.00,0.69
5230.00,0.69
5229.00,0.69
5228.00,0.69
5227.00,0.69
5226.00,0.69
5225.00,0.69
5224.00,0.69
5223.00,0.69
5222.00,0.69
5221.00,0.69
5220.00,0.69
5219.00,0.69
5218.00,0.69
5217.00,0.69
5216.00,0.69
5215.00,0.69
5214.00,0.69
5213.00,0.69
5212.00,0.69
5211.00,0.69
5210.00,0.69
5209.00,0.69
5208.00,0.69
5207.00,0.69
5206.00,0.69
5205.00,0.69
5204.00,0.69
5203.00,0.69
5202.00,0.70
5201.00,0.70
5200.00,0.70
5199.00,0.70
5198.00,0.70
5197.00,0.70
5196.00,0.70
5195.00,0.70
5194.00,0.70
5193.00,0.70
5192.00,0.70
5191.00,0.70
5190.00,0.70
5189.00,0.70
5188.00,0.70
5187.00,0.71
5186.00,0.71
5185.00,0.71
5184.00,0.71
5183.00,0.71
5182.00,0.71
5181.00,0.71
5180.00,0.71
5179.00,0.71
5178.00,0.71
5177.00,0.71
5176.00,0.71
5175.00,0.71
5174.00,0.71
5173.00,0.71
5172.00,0.71
5171.00,0.71
5170.00,0.71
5169.00,0.71
5168.00,0.71
5167.00,0.71
5166.00,0.71
5165.00,0.71
5164.00,0.71
5163.00,0.71
5162.00,0.71
5161.00,0.71
5160.00,0.71
5159.00,0.71
5158.00,0.71
5157.00,0.71
5156.00,0.71
5155.00,0.71
5154.00,0.71
5153.00,0.71
5152.00,0.71
5151.00,0.71
5150.00,0.71
5149.00,0.71
5148.00,0.71
5147.00,0.71
5146.00,0.71
5145.00,0.71
5144.00,0.72
5143.00,0.72
5142.00,0.72
5141.00,0.72
5140.00,0.72
5139.00,0.72
5138.00,0.72
5137.00,0.72
5136.00,0.72
5135.00,0.72
5134.00,0.72
5133.00,0.72
5132.00,0.72
5131.00,0.72
5130.00,0.72
5129.00,0.72
5128.00,0.73
5127.00,0.73
5126.00,0.73
5125.00,0.73
5124.00,0.73
5123.00,0.73
5122.00,0.73
5121.00,0.73
5120.00,0.73
5119.00,0.73
5118.00,0.73
5117.00,0.73
5116.00,0.73
5115.00,0.73
5114.00,0.73
5113.00,0.73
5112.00,0.73
5111.00,0.73
5110.00,0.73
5109.00,0.73
5108.00,0.73
5107.00,0.73
5106.00,0.73
5105.00,0.73
5104.00,0.73
5103.00,0.73
5102.00,0.74
5101.00,0.74
5100.00,0.74
5099.00,0.74
5098.00,0.74
5097.00,0.74
5096.00,0.74
5095.00,0.74
5094.00,0.74
5093.00,0.74
5092.00,0.74
5091.00,0.74
5090.00,0.74
5089.00,0.74
5088.00,0.74
5087.00,0.74
5086.00,0.74
5085.00,0.74
5084.00,0.74
5083.00,0.74
5082.00,0.74
5081.00,0.74
5080.00,0.75
5079.00,0.75
5078.00,0.75
5077.00,0.75
5076.00,0.75
5075.00,0.75
5074.00,0.75
5073.00,0.75
5072.00,0.75
5071.00,0.75
5070.00,0.75
5069.00,0.75
5068.00,0.75
5067.00,0.75
5066.00,0.75
5065.00,0.75
5064.00,0.75
5063.00,0.76
5062.00,0.76
5061.00,0.76
5060.00,0.76
5059.00,0.76
5058.00,0.76
5057.00,0.76
5056.00,0.76
5055.00,0.76
5054.00,0.76
5053.00,0.76
5052.00,0.76
5051.00,0.76
5050.00,0.76
5049.00,0.76
5048.00,0.76
5047.00,0.76
5046.00,0.76
5045.00,0.76
5044.00,0.76
5043.00,0.76
5042.00,0.76
5041.00,0.76
5040.00,0.76
5039.00,0.76
5038.00,0.76
5037.00,0.77
5036.00,0.77
5035.00,0.77
5034.00,0.77
5033.00,0.77
5032.00,0.77
5031.00,0.77
5030.00,0.77
5029.00,0.77
5028.00,0.77
5027.00,0.77
5026.00,0.77
5025.00,0.77
5024.00,0.77
5023.00,0.77
5022.00,0.77
5021.00,0.77
5020.00,0.78
5019.00,0.78
5018.00,0.78
5017.00,0.78
5016.00,0.78
5015.00,0.78
5014.00,0.78
5013.00,0.78
5012.00,0.78
5011.00,0.78
5010.00,0.78
5009.00,0.78
5008.00,0.78
5007.00,0.78
5006.00,0.79
5005.00,0.79
5004.00,0.79
5003.00,0.79
5002.00,0.79
5001.00,0.79
5000.00,0.79
4999.00,0.79
4998.00,0.79
4997.00,0.79
4996.00,0.79
4995.00,0.79
4994.00,0.79
4993.00,0.79
4992.00,0.79
4991.00,0.79
4990.00,0.79
4989.00,0.79
4988.00,0.79
4987.00,0.79
4986.00,0.79
4985.00,0.80
4984.00,0.80
4983.00,0.80
4982.00,0.80
4981.00,0.80
4980.00,0.80
4979.00,0.80
4978.00,0.80
4977.00,0.80
4976.00,0.80
4975.00,0.80
4974.00,0.80
4973.00,0.81
4972.00,0.81
4971.00,0.81
4970.00,0.81
4969.00,0.81
4968.00,0.81
4967.00,0.81
4966.00,0.81
4965.00,0.81
4964.00,0.81
4963.00,0.81
4962.00,0.81
4961.00,0.81
4960.00,0.81
4959.00,0.81
4958.00,0.82
4957.00,0.82
4956.00,0.82
4955.00,0.82
4954.00,0.82
4953.00,0.82
4952.00,0.82
4951.00,0.82
4950.00,0.82
4949.00,0.82
4948.00,0.83
4947.00,0.83
4946.00,0.83
4945.00,0.83
4944.00,0.83
4943.00,0.83
4942.00,0.83
4941.00,0.83
4940.00,0.83
4939.00,0.83
4938.00,0.83
4937.00,0.83
4936.00,0.83
4935.00,0.83
4934.00,0.83
4933.00,0.83
4932.00,0.83
4931.00,0.83
4930.00,0.84
4929.00,0.84
4928.00,0.84
4927.00,0.84
4926.00,0.84
4925.00,0.84
4924.00,0.84
4923.00,0.84
4922.00,0.84
4921.00,0.84
4920.00,0.84
4919.00,0.84
4918.00,0.85
4917.00,0.85
4916.00,0.85
4915.00,0.85
4914.00,0.85
4913.00,0.85
4912.00,0.85
4911.00,0.85
4910.00,0.85
4909.00,0.85
4908.00,0.85
4907.00,0.86
4906.00,0.86
4905.00,0.86
4904.00,0.86
4903.00,0.86
4902.00,0.86
4901.00,0.86
4900.00,0.86
4899.00,0.86
4898.00,0.86
4897.00,0.86
4896.00,0.86
4895.00,0.86
4894.00,0.86
4893.00,0.86
4892.00,0.86
4891.00,0.86
4890.00,0.86
4889.00,0.87
4888.00,0.87
4887.00,0.87
4886.00,0.87
4885.00,0.87
4884.00,0.87
4883.00,0.87
4882.00,0.87
4881.00,0.87
4880.00,0.87
4879.00,0.87
4878.00,0.87
4877.00,0.87
4876.00,0.87
4875.00,0.87
4874.00,0.87
4873.00,0.87
4872.00,0.87
4871.00,0.87
4870.00,0.88
4869.00,0.88
4868.00,0.88
4867.00,0.88
4866.00,0.88
4865.00,0.88
4864.00,0.88
4863.00,0.88
4862.00,0.88
4861.00,0.88
4860.00,0.88
4859.00,0.88
4858.00,0.88
4857.00,0.88
4856.00,0.88
4855.00,0.89
4854.00,0.89
4853.00,0.89
4852.00,0.89
4851.00,0.89
4850.00,0.89
4849.00,0.89
4848.00,0.89
4847.00,0.89
4846.00,0.89
4845.00,0.89
4844.00,0.89
4843.00,0.89
4842.00,0.89
4841.00,0.89
4840.00,0.89
4839.00,0.89
4838.00,0.89
4837.00,0.89
4836.00,0.89
4835.00,0.89
4834.00,0.89
4833.00,0.89
4832.00,0.89
4831.00,0.89
4830.00,0.89
4829.00,0.89
4828.00,0.90
4827.00,0.90
4826.00,0.90
4825.00,0.90
4824.00,0.90
4823.00,0.90
4822.00,0.90
4821.00,0.90
4820.00,0.91
4819.00,0.91
4818.00,0.91
4817.00,0.91
4816.00,0.91
4815.00,0.91
4814.00,0.91
4813.00,0.91
4812.00,0.92
4811.00,0.92
4810.00,0.92
4809.00,0.92
4808.00,0.92
4807.00,0.92
4806.00,0.92
4805.00,0.92
4804.00,0.92
4803.00,0.93
4802.00,0.93
4801.00,0.93
4800.00,0.93
4799.00,0.93
4798.00,0.93
4797.00,0.93
4796.00,0.93
4795.00,0.93
4794.00,0.93
4793.00,0.93
4792.00,0.93
4791.00,0.93
4790.00,0.93
4789.00,0.93
4788.00,0.93
4787.00,0.94
4786.00,0.94
4785.00,0.94
4784.00,0.94
4783.00,0.94
4782.00,0.94
4781.00,0.94
4780.00,0.94
4779.00,0.94
4778.00,0.95
4777.00,0.95
4776.00,0.95
4775.00,0.95
4774.00,0.95
4773.00,0.95
4772.00,0.95
4771.00,0.95
4770.00,0.95
4769.00,0.95
4768.00,0.96
4767.00,0.96
4766.00,0.96
4765.00,0.96
4764.00,0.96
4763.00,0.96
4762.00,0.96
4761.00,0.96
4760.00,0.96
4759.00,0.96
4758.00,0.96
4757.00,0.97
4756.00,0.97
4755.00,0.97
4754.00,0.97
4753.00,0.97
4752.00,0.97
4751.00,0.97
4750.00,0.97
4749.00,0.97
4748.00,0.98
4747.00,0.98
4746.00,0.98
4745.00,0.98
4744.00,0.98
4743.00,0.98
4742.00,0.98
4741.00,0.98
4740.00,0.99
4739.00,0.99
4738.00,0.99
4737.00,0.99
4736.00,0.99
4735.00,0.99
4734.00,0.99
4733.00,0.99
4732.00,0.99
4731.00,1.00
4730.00,1.00
4729.00,1.00
4728.00,1.00
4727.00,1.00
4726.00,1.00
4725.00,1.00
4724.00,1.00
4723.00,1.01
4722.00,1.01
4721.00,1.01
4720.00,1.01
4719.00,1.01
4718.00,1.01
4717.00,1.01
4716.00,1.01
4715.00,1.02
4714.00,1.02
4713.00,1.02
4712.00,1.02
4711.00,1.02
4710.00,1.02
4709.00,1.02
4708.00,1.02
4707.00,1.03
4706.00,1.03
4705.00,1.03
4704.00,1.03
4703.00,1.03
4702.00,1.03
4701.00,1.04
4700.00,1.04
4699.00,1.04
4698.00,1.04
4697.00,1.04
4696.00,1.05
4695.00,1.05
4694.00,1.05
4693.00,1.05
4692.00,1.05
4691.00,1.05
4690.00,1.06
4689.00,1.06
4688.00,1.06
4687.00,1.06
4686.00,1.06
4685.00,1.06
4684.00,1.06
4683.00,1.06
4682.00,1.07
4681.00,1.07
4680.00,1.07
4679.00,1.07
4678.00,1.07
4677.00,1.07
4676.00,1.07
4675.00,1.07
4674.00,1.07
4673.00,1.08
4672.00,1.08
4671.00,1.08
4670.00,1.08
4669.00,1.08
4668.00,1.08
4667.00,1.08
4666.00,1.08
4665.00,1.08
4664.00,1.08
4663.00,1.09
4662.00,1.09
4661.00,1.09
4660.00,1.09
4659.00,1.09
4658.00,1.09
4657.00,1.09
4656.00,1.09
4655.00,1.09
4654.00,1.09
4653.00,1.09
4652.00,1.09
4651.00,1.10
4650.00,1.10
4649.00,1.10
4648.00,1.10
4647.00,1.10
4646.00,1.10
4645.00,1.11
4644.00,1.11
4643.00,1.11
4642.00,1.11
4641.00,1.11
4640.00,1.11
4639.00,1.12
4638.00,1.12
4637.00,1.12
4636.00,1.12
4635.00,1.12
4634.00,1.12
4633.00,1.13
4632.00,1.13
4631.00,1.13
4630.00,1.13
4629.00,1.13
4628.00,1.13
4627.00,1.13
4626.00,1.13
4625.00,1.13
4624.00,1.13
4623.00,1.13
4622.00,1.13
4621.00,1.13
4620.00,1.14
4619.00,1.14
4618.00,1.14
4617.00,1.14
4616.00,1.14
4615.00,1.14
4614.00,1.14
4613.00,1.14
4612.00,1.14
4611.00,1.14
4610.00,1.14
4609.00,1.15
4608.00,1.15
4607.00,1.15
4606.00,1.15
4605.00,1.15
4604.00,1.15
4603.00,1.15
4602.00,1.15
4601.00,1.15
4600.00,1.15
4599.00,1.15
4598.00,1.15
4597.00,1.15
4596.00,1.15
4595.00,1.15
4594.00,1.16
4593.00,1.16
4592.00,1.16
4591.00,1.16
4590.00,1.16
4589.00,1.16
4588.00,1.16
4587.00,1.16
4586.00,1.16
4585.00,1.16
4584.00,1.16
4583.00,1.16
4582.00,1.17
4581.00,1.17
4580.00,1.17
4579.00,1.17
4578.00,1.17
4577.00,1.17
4576.00,1.17
4575.00,1.17
4574.00,1.17
4573.00,1.18
4572.00,1.18
4571.00,1.18
4570.00,1.18
4569.00,1.18
4568.00,1.18
4567.00,1.18
4566.00,1.18
4565.00,1.18
4564.00,1.18
4563.00,1.18
4562.00,1.19
4561.00,1.19
4560.00,1.19
4559.00,1.19
4558.00,1.19
4557.00,1.19
4556.00,1.19
4555.00,1.19
4554.00,1.19
4553.00,1.19
4552.00,1.20
4551.00,1.20
4550.00,1.20
4549.00,1.20
4548.00,1.20
4547.00,1.20
4546.00,1.20
4545.00,1.20
4544.00,1.20
4543.00,1.20
4542.00,1.20
4541.00,1.20
4540.00,1.20
4539.00,1.20
4538.00,1.20
4537.00,1.20
4536.00,1.20
4535.00,1.20
4534.00,1.20
4533.00,1.20
4532.00,1.21
4531.00,1.21
4530.00,1.21
4529.00,1.21
4528.00,1.21
4527.00,1.21
4526.00,1.21
4525.00,1.21
4524.00,1.21
4523.00,1.21
4522.00,1.21
4521.00,1.21
4520.00,1.21
4519.00,1.21
4518.00,1.21
4517.00,1.21
4516.00,1.21
4515.00,1.21
4514.00,1.21
4513.00,1.21
4512.00,1.21
4511.00,1.21
4510.00,1.21
4509.00,1.21
4508.00,1.21
4507.00,1.21
4506.00,1.21
4505.00,1.21
4504.00,1.21
4503.00,1.21
4502.00,1.21
4501.00,1.21
4500.00,1.21
4499.00,1.21
4498.00,1.21
4497.00,1.21
4496.00,1.21
4495.00,1.21
4494.00,1.20
4493.00,1.20
4492.00,1.20
4491.00,1.20
4490.00,1.20
4489.00,1.20
4488.00,1.20
4487.00,1.20
4486.00,1.19
4485.00,1.19
4484.00,1.19
4483.00,1.19
4482.00,1.19
4481.00,1.19
4480.00,1.19
4479.00,1.19
4478.00,1.19
4477.00,1.19
4476.00,1.18
4475.00,1.18
4474.00,1.18
4473.00,1.18
4472.00,1.18
4471.00,1.18
4470.00,1.18
4469.00,1.17
4468.00,1.17
4467.00,1.17
4466.00,1.17
4465.00,1.17
4464.00,1.16
4463.00,1.16
4462.00,1.16
4461.00,1.16
4460.00,1.15
4459.00,1.15
4458.00,1.15
4457.00,1.14
4456.00,1.14
4455.00,1.14
4454.00,1.14
4453.00,1.13
4452.00,1.13
4451.00,1.13
4450.00,1.12
4449.00,1.12
4448.00,1.12
4447.00,1.11
4446.00,1.11
4445.00,1.11
4444.00,1.10
4443.00,1.10
4442.00,1.10
4441.00,1.10
4440.00,1.09
4439.00,1.09
4438.00,1.09
4437.00,1.08
4436.00,1.08
4435.00,1.08
4434.00,1.08
4433.00,1.07
4432.00,1.07
4431.00,1.07
4430.00,1.07
4429.00,1.06
4428.00,1.06
4427.00,1.06
4426.00,1.06
4425.00,1.06
4424.00,1.06
4423.00,1.06
4422.00,1.06
4421.00,1.06
4420.00,1.06
4419.00,1.06
4418.00,1.05
4417.00,1.05
4416.00,1.05
4415.00,1.05
4414.00,1.05
4413.00,1.05
4412.00,1.05
4411.00,1.05
4410.00,1.05
4409.00,1.05
4408.00,1.05
4407.00,1.05
4406.00,1.06
4405.00,1.06
4404.00,1.06
4403.00,1.06
4402.00,1.06
4401.00,1.06
4400.00,1.06
4399.00,1.06
4398.00,1.06
4397.00,1.06
4396.00,1.06
4395.00,1.06
4394.00,1.06
4393.00,1.07
4392.00,1.07
4391.00,1.07
4390.00,1.07
4389.00,1.07
4388.00,1.07
4387.00,1.07
4386.00,1.07
4385.00,1.08
4384.00,1.08
4383.00,1.08
4382.00,1.08
4381.00,1.08
4380.00,1.08
4379.00,1.08
4378.00,1.08
4377.00,1.08
4376.00,1.08
4375.00,1.08
4374.00,1.08
4373.00,1.09
4372.00,1.09
4371.00,1.09
4370.00,1.09
4369.00,1.09
4368.00,1.09
4367.00,1.09
4366.00,1.09
4365.00,1.08
4364.00,1.08
4363.00,1.08
4362.00,1.08
4361.00,1.08
4360.00,1.08
4359.00,1.08
4358.00,1.08
4357.00,1.08
4356.00,1.08
4355.00,1.08
4354.00,1.08
4353.00,1.08
4352.00,1.08
4351.00,1.08
4350.00,1.08
4349.00,1.08
4348.00,1.08
4347.00,1.08
4346.00,1.08
4345.00,1.08
4344.00,1.08
4343.00,1.08
4342.00,1.09
4341.00,1.09
4340.00,1.09
4339.00,1.09
4338.00,1.09
4337.00,1.09
4336.00,1.09
4335.00,1.09
4334.00,1.09
4333.00,1.09
4332.00,1.10
4331.00,1.10
4330.00,1.10
4329.00,1.10
4328.00,1.10
4327.00,1.10
4326.00,1.10
4325.00,1.11
4324.00,1.11
4323.00,1.11
4322.00,1.11
4321.00,1.11
4320.00,1.11
4319.00,1.12
4318.00,1.12
4317.00,1.12
4316.00,1.12
4315.00,1.12
4314.00,1.13
4313.00,1.13
4312.00,1.13
4311.00,1.13
4310.00,1.13
4309.00,1.13
4308.00,1.13
4307.00,1.14
4306.00,1.14
4305.00,1.14
4304.00,1.14
4303.00,1.14
4302.00,1.14
4301.00,1.14
4300.00,1.15
4299.00,1.15
4298.00,1.15
4297.00,1.15
4296.00,1.15
4295.00,1.15
4294.00,1.15
4293.00,1.15
4292.00,1.16
4291.00,1.16
4290.00,1.16
4289.00,1.16
4288.00,1.16
4287.00,1.16
4286.00,1.16
4285.00,1.16
4284.00,1.16
4283.00,1.15
4282.00,1.15
4281.00,1.15
4280.00,1.15
4279.00,1.15
4278.00,1.15
4277.00,1.15
4276.00,1.15
4275.00,1.15
4274.00,1.15
4273.00,1.15
4272.00,1.15
4271.00,1.15
4270.00,1.15
4269.00,1.15
4268.00,1.15
4267.00,1.15
4266.00,1.16
4265.00,1.16
4264.00,1.16
4263.00,1.16
4262.00,1.16
4261.00,1.16
4260.00,1.16
4259.00,1.16
4258.00,1.16
4257.00,1.16
4256.00,1.15
4255.00,1.15
4254.00,1.15
4253.00,1.15
4252.00,1.16
4251.00,1.16
4250.00,1.16
4249.00,1.16
4248.00,1.16
4247.00,1.16
4246.00,1.16
4245.00,1.16
4244.00,1.16
4243.00,1.16
4242.00,1.16
4241.00,1.17
4240.00,1.17
4239.00,1.17
4238.00,1.17
4237.00,1.17
4236.00,1.17
4235.00,1.17
4234.00,1.17
4233.00,1.18
4232.00,1.18
4231.00,1.18
4230.00,1.18
4229.00,1.18
4228.00,1.18
4227.00,1.18
4226.00,1.18
4225.00,1.18
4224.00,1.18
4223.00,1.18
4222.00,1.18
4221.00,1.19
4220.00,1.19
4219.00,1.19
4218.00,1.19
4217.00,1.19
4216.00,1.19
4215.00,1.19
4214.00,1.19
4213.00,1.19
4212.00,1.19
4211.00,1.19
4210.00,1.19
4209.00,1.19
4208.00,1.19
4207.00,1.19
4206.00,1.19
4205.00,1.19
4204.00,1.19
4203.00,1.19
4202.00,1.20
4201.00,1.20
4200.00,1.20
4199.00,1.20
4198.00,1.20
4197.00,1.20
4196.00,1.20
4195.00,1.20
4194.00,1.20
4193.00,1.20
4192.00,1.20
4191.00,1.20
4190.00,1.20
4189.00,1.20
4188.00,1.20
4187.00,1.20
4186.00,1.20
4185.00,1.20
4184.00,1.20
4183.00,1.20
4182.00,1.20
4181.00,1.20
4180.00,1.20
4179.00,1.20
4178.00,1.20
4177.00,1.20
4176.00,1.20
4175.00,1.20
4174.00,1.20
4173.00,1.20
4172.00,1.20
4171.00,1.20
4170.00,1.20
4169.00,1.20
4168.00,1.20
4167.00,1.21
4166.00,1.21
4165.00,1.21
4164.00,1.21
4163.00,1.21
4162.00,1.21
4161.00,1.21
4160.00,1.21
4159.00,1.22
4158.00,1.22
4157.00,1.22
4156.00,1.22
4155.00,1.22
4154.00,1.22
4153.00,1.22
4152.00,1.22
4151.00,1.22
4150.00,1.22
4149.00,1.22
4148.00,1.22
4147.00,1.21
4146.00,1.21
4145.00,1.21
4144.00,1.21
4143.00,1.21
4142.00,1.21
4141.00,1.21
4140.00,1.21
4139.00,1.21
4138.00,1.21
4137.00,1.21
4136.00,1.21
4135.00,1.21
4134.00,1.21
4133.00,1.21
4132.00,1.22
4131.00,1.22
4130.00,1.22
4129.00,1.22
4128.00,1.22
4127.00,1.22
4126.00,1.22
4125.00,1.22
4124.00,1.22
4123.00,1.22
4122.00,1.22
4121.00,1.22
4120.00,1.22
4119.00,1.23
4118.00,1.23
4117.00,1.23
4116.00,1.23
4115.00,1.23
4114.00,1.23
4113.00,1.23
4112.00,1.23
4111.00,1.23
4110.00,1.23
4109.00,1.23
4108.00,1.23
4107.00,1.23
4106.00,1.23
4105.00,1.23
4104.00,1.23
4103.00,1.23
4102.00,1.23
4101.00,1.23
4100.00,1.23
4099.00,1.23
4098.00,1.23
4097.00,1.23
4096.00,1.23
4095.00,1.23
4094.00,1.24
4093.00,1.24
4092.00,1.24
4091.00,1.24
4090.00,1.24
4089.00,1.24
4088.00,1.24
4087.00,1.24
4086.00,1.25
4085.00,1.25
4084.00,1.25
4083.00,1.25
4082.00,1.25
4081.00,1.25
4080.00,1.25
4079.00,1.25
4078.00,1.25
4077.00,1.25
4076.00,1.25
4075.00,1.25
4074.00,1.25
4073.00,1.25
4072.00,1.25
4071.00,1.25
4070.00,1.25
4069.00,1.25
4068.00,1.25
4067.00,1.25
4066.00,1.25
4065.00,1.25
4064.00,1.25
4063.00,1.25
4062.00,1.25
4061.00,1.25
4060.00,1.25
4059.00,1.25
4058.00,1.25
4057.00,1.25
4056.00,1.25
4055.00,1.25
4054.00,1.25
4053.00,1.26
4052.00,1.26
4051.00,1.26
4050.00,1.26
4049.00,1.26
4048.00,1.26
4047.00,1.26
4046.00,1.26
4045.00,1.26
4044.00,1.26
4043.00,1.27
4042.00,1.27
4041.00,1.27
4040.00,1.27
4039.00,1.27
4038.00,1.27
4037.00,1.27
4036.00,1.27
4035.00,1.27
4034.00,1.27
4033.00,1.28
4032.00,1.28
4031.00,1.28
4030.00,1.28
4029.00,1.28
4028.00,1.28
4027.00,1.28
4026.00,1.28
4025.00,1.28
4024.00,1.28
4023.00,1.28
4022.00,1.28
4021.00,1.28
4020.00,1.28
4019.00,1.28
4018.00,1.28
4017.00,1.29
4016.00,1.29
4015.00,1.29
4014.00,1.29
4013.00,1.29
4012.00,1.29
4011.00,1.29
4010.00,1.30
4009.00,1.30
4008.00,1.30
4007.00,1.30
4006.00,1.30
4005.00,1.30
4004.00,1.30
4003.00,1.30
4002.00,1.30
4001.00,1.30
4000.00,1.30
