创建为新数据集,样品 048 用户 Administrator 日期 星期三, 十一月 01 2017
cm-1,%T
10000.00,1.36
9999.00,1.36
9998.00,1.36
9997.00,1.36
9996.00,1.36
9995.00,1.35
9994.00,1.35
9993.00,1.35
9992.00,1.35
9991.00,1.35
9990.00,1.35
9989.00,1.35
9988.00,1.35
9987.00,1.35
9986.00,1.35
9985.00,1.35
9984.00,1.35
9983.00,1.35
9982.00,1.35
9981.00,1.35
9980.00,1.35
9979.00,1.35
9978.00,1.35
9977.00,1.35
9976.00,1.35
9975.00,1.35
9974.00,1.35
9973.00,1.35
9972.00,1.35
9971.00,1.35
9970.00,1.35
9969.00,1.35
9968.00,1.35
9967.00,1.35
9966.00,1.35
9965.00,1.35
9964.00,1.35
9963.00,1.35
9962.00,1.35
9961.00,1.35
9960.00,1.35
9959.00,1.35
9958.00,1.35
9957.00,1.35
9956.00,1.35
9955.00,1.35
9954.00,1.35
9953.00,1.34
9952.00,1.34
9951.00,1.34
9950.00,1.34
9949.00,1.34
9948.00,1.34
9947.00,1.34
9946.00,1.34
9945.00,1.34
9944.00,1.34
9943.00,1.34
9942.00,1.34
9941.00,1.34
9940.00,1.34
9939.00,1.35
9938.00,1.35
9937.00,1.35
9936.00,1.35
9935.00,1.35
9934.00,1.35
9933.00,1.35
9932.00,1.35
9931.00,1.36
9930.00,1.35
9929.00,1.35
9928.00,1.35
9927.00,1.35
9926.00,1.35
9925.00,1.35
9924.00,1.35
9923.00,1.35
9922.00,1.35
9921.00,1.35
9920.00,1.35
9919.00,1.35
9918.00,1.35
9917.00,1.35
9916.00,1.35
9915.00,1.35
9914.00,1.36
9913.00,1.36
9912.00,1.36
9911.00,1.36
9910.00,1.36
9909.00,1.36
9908.00,1.35
9907.00,1.35
9906.00,1.35
9905.00,1.35
9904.00,1.35
9903.00,1.35
9902.00,1.35
9901.00,1.34
9900.00,1.34
9899.00,1.34
9898.00,1.34
9897.00,1.34
9896.00,1.34
9895.00,1.33
9894.00,1.33
9893.00,1.33
9892.00,1.33
9891.00,1.33
9890.00,1.33
9889.00,1.33
9888.00,1.33
9887.00,1.33
9886.00,1.32
9885.00,1.32
9884.00,1.32
9883.00,1.32
9882.00,1.32
9881.00,1.32
9880.00,1.32
9879.00,1.32
9878.00,1.32
9877.00,1.32
9876.00,1.32
9875.00,1.32
9874.00,1.32
9873.00,1.33
9872.00,1.33
9871.00,1.33
9870.00,1.33
9869.00,1.33
9868.00,1.33
9867.00,1.33
9866.00,1.33
9865.00,1.33
9864.00,1.33
9863.00,1.33
9862.00,1.33
9861.00,1.33
9860.00,1.33
9859.00,1.33
9858.00,1.33
9857.00,1.33
9856.00,1.33
9855.00,1.33
9854.00,1.33
9853.00,1.33
9852.00,1.33
9851.00,1.33
9850.00,1.33
9849.00,1.34
9848.00,1.34
9847.00,1.34
9846.00,1.34
9845.00,1.34
9844.00,1.34
9843.00,1.34
9842.00,1.34
9841.00,1.34
9840.00,1.34
9839.00,1.34
9838.00,1.34
9837.00,1.34
9836.00,1.34
9835.00,1.34
9834.00,1.34
9833.00,1.34
9832.00,1.34
9831.00,1.34
9830.00,1.34
9829.00,1.34
9828.00,1.34
9827.00,1.34
9826.00,1.35
9825.00,1.35
9824.00,1.35
9823.00,1.35
9822.00,1.35
9821.00,1.35
9820.00,1.35
9819.00,1.35
9818.00,1.35
9817.00,1.35
9816.00,1.35
9815.00,1.35
9814.00,1.35
9813.00,1.35
9812.00,1.35
9811.00,1.35
9810.00,1.35
9809.00,1.35
9808.00,1.35
9807.00,1.35
9806.00,1.35
9805.00,1.35
9804.00,1.35
9803.00,1.35
9802.00,1.35
9801.00,1.35
9800.00,1.35
9799.00,1.35
9798.00,1.35
9797.00,1.35
9796.00,1.35
9795.00,1.35
9794.00,1.35
9793.00,1.35
9792.00,1.35
9791.00,1.35
9790.00,1.35
9789.00,1.35
9788.00,1.35
9787.00,1.35
9786.00,1.34
9785.00,1.34
9784.00,1.34
9783.00,1.34
9782.00,1.34
9781.00,1.34
9780.00,1.33
9779.00,1.33
9778.00,1.33
9777.00,1.33
9776.00,1.32
9775.00,1.32
9774.00,1.32
9773.00,1.32
9772.00,1.32
9771.00,1.32
9770.00,1.31
9769.00,1.31
9768.00,1.31
9767.00,1.31
9766.00,1.31
9765.00,1.31
9764.00,1.31
9763.00,1.31
9762.00,1.31
9761.00,1.31
9760.00,1.31
9759.00,1.31
9758.00,1.31
9757.00,1.32
9756.00,1.32
9755.00,1.32
9754.00,1.32
9753.00,1.32
9752.00,1.32
9751.00,1.32
9750.00,1.32
9749.00,1.33
9748.00,1.33
9747.00,1.33
9746.00,1.33
9745.00,1.33
9744.00,1.33
9743.00,1.33
9742.00,1.33
9741.00,1.33
9740.00,1.33
9739.00,1.33
9738.00,1.33
9737.00,1.33
9736.00,1.33
9735.00,1.33
9734.00,1.33
9733.00,1.33
9732.00,1.33
9731.00,1.33
9730.00,1.33
9729.00,1.33
9728.00,1.33
9727.00,1.33
9726.00,1.33
9725.00,1.33
9724.00,1.33
9723.00,1.33
9722.00,1.34
9721.00,1.34
9720.00,1.34
9719.00,1.34
9718.00,1.34
9717.00,1.35
9716.00,1.35
9715.00,1.35
9714.00,1.35
9713.00,1.35
9712.00,1.35
9711.00,1.35
9710.00,1.36
9709.00,1.36
9708.00,1.36
9707.00,1.35
9706.00,1.35
9705.00,1.35
9704.00,1.35
9703.00,1.35
9702.00,1.35
9701.00,1.35
9700.00,1.35
9699.00,1.34
9698.00,1.34
9697.00,1.34
9696.00,1.34
9695.00,1.34
9694.00,1.34
9693.00,1.34
9692.00,1.34
9691.00,1.34
9690.00,1.34
9689.00,1.34
9688.00,1.34
9687.00,1.34
9686.00,1.34
9685.00,1.33
9684.00,1.33
9683.00,1.33
9682.00,1.33
9681.00,1.33
9680.00,1.33
9679.00,1.33
9678.00,1.32
9677.00,1.32
9676.00,1.32
9675.00,1.32
9674.00,1.32
9673.00,1.32
9672.00,1.32
9671.00,1.32
9670.00,1.32
9669.00,1.32
9668.00,1.32
9667.00,1.32
9666.00,1.32
9665.00,1.32
9664.00,1.32
9663.00,1.32
9662.00,1.32
9661.00,1.32
9660.00,1.32
9659.00,1.32
9658.00,1.32
9657.00,1.32
9656.00,1.32
9655.00,1.32
9654.00,1.33
9653.00,1.33
9652.00,1.33
9651.00,1.33
9650.00,1.33
9649.00,1.33
9648.00,1.33
9647.00,1.33
9646.00,1.33
9645.00,1.33
9644.00,1.33
9643.00,1.34
9642.00,1.34
9641.00,1.34
9640.00,1.34
9639.00,1.34
9638.00,1.34
9637.00,1.34
9636.00,1.34
9635.00,1.33
9634.00,1.33
9633.00,1.33
9632.00,1.33
9631.00,1.33
9630.00,1.33
9629.00,1.33
9628.00,1.33
9627.00,1.33
9626.00,1.33
9625.00,1.32
9624.00,1.32
9623.00,1.33
9622.00,1.33
9621.00,1.33
9620.00,1.33
9619.00,1.33
9618.00,1.33
9617.00,1.33
9616.00,1.33
9615.00,1.34
9614.00,1.34
9613.00,1.34
9612.00,1.34
9611.00,1.34
9610.00,1.34
9609.00,1.35
9608.00,1.35
9607.00,1.35
9606.00,1.35
9605.00,1.35
9604.00,1.35
9603.00,1.35
9602.00,1.34
9601.00,1.34
9600.00,1.34
9599.00,1.34
9598.00,1.34
9597.00,1.34
9596.00,1.34
9595.00,1.34
9594.00,1.34
9593.00,1.33
9592.00,1.33
9591.00,1.33
9590.00,1.33
9589.00,1.33
9588.00,1.33
9587.00,1.33
9586.00,1.33
9585.00,1.33
9584.00,1.33
9583.00,1.33
9582.00,1.33
9581.00,1.33
9580.00,1.33
9579.00,1.32
9578.00,1.32
9577.00,1.32
9576.00,1.32
9575.00,1.32
9574.00,1.32
9573.00,1.32
9572.00,1.32
9571.00,1.32
9570.00,1.32
9569.00,1.32
9568.00,1.32
9567.00,1.32
9566.00,1.32
9565.00,1.32
9564.00,1.32
9563.00,1.32
9562.00,1.32
9561.00,1.32
9560.00,1.32
9559.00,1.32
9558.00,1.32
9557.00,1.32
9556.00,1.32
9555.00,1.31
9554.00,1.31
9553.00,1.31
9552.00,1.31
9551.00,1.31
9550.00,1.31
9549.00,1.31
9548.00,1.32
9547.00,1.32
9546.00,1.32
9545.00,1.32
9544.00,1.32
9543.00,1.32
9542.00,1.32
9541.00,1.33
9540.00,1.33
9539.00,1.33
9538.00,1.33
9537.00,1.34
9536.00,1.34
9535.00,1.34
9534.00,1.34
9533.00,1.34
9532.00,1.35
9531.00,1.35
9530.00,1.35
9529.00,1.35
9528.00,1.35
9527.00,1.35
9526.00,1.35
9525.00,1.35
9524.00,1.35
9523.00,1.35
9522.00,1.35
9521.00,1.35
9520.00,1.34
9519.00,1.34
9518.00,1.34
9517.00,1.34
9516.00,1.34
9515.00,1.33
9514.00,1.33
9513.00,1.33
9512.00,1.33
9511.00,1.33
9510.00,1.32
9509.00,1.32
9508.00,1.32
9507.00,1.32
9506.00,1.32
9505.00,1.32
9504.00,1.31
9503.00,1.31
9502.00,1.31
9501.00,1.31
9500.00,1.31
9499.00,1.31
9498.00,1.31
9497.00,1.31
9496.00,1.31
9495.00,1.32
9494.00,1.32
9493.00,1.32
9492.00,1.32
9491.00,1.32
9490.00,1.33
9489.00,1.33
9488.00,1.33
9487.00,1.33
9486.00,1.34
9485.00,1.34
9484.00,1.34
9483.00,1.34
9482.00,1.34
9481.00,1.34
9480.00,1.34
9479.00,1.34
9478.00,1.34
9477.00,1.34
9476.00,1.34
9475.00,1.34
9474.00,1.34
9473.00,1.34
9472.00,1.34
9471.00,1.34
9470.00,1.34
9469.00,1.34
9468.00,1.34
9467.00,1.34
9466.00,1.34
9465.00,1.34
9464.00,1.34
9463.00,1.34
9462.00,1.34
9461.00,1.34
9460.00,1.34
9459.00,1.34
9458.00,1.34
9457.00,1.34
9456.00,1.34
9455.00,1.34
9454.00,1.34
9453.00,1.34
9452.00,1.34
9451.00,1.34
9450.00,1.34
9449.00,1.34
9448.00,1.34
9447.00,1.34
9446.00,1.34
9445.00,1.34
9444.00,1.34
9443.00,1.34
9442.00,1.34
9441.00,1.34
9440.00,1.34
9439.00,1.34
9438.00,1.34
9437.00,1.33
9436.00,1.33
9435.00,1.33
9434.00,1.33
9433.00,1.33
9432.00,1.33
9431.00,1.33
9430.00,1.32
9429.00,1.32
9428.00,1.32
9427.00,1.32
9426.00,1.32
9425.00,1.32
9424.00,1.32
9423.00,1.32
9422.00,1.32
9421.00,1.32
9420.00,1.32
9419.00,1.32
9418.00,1.32
9417.00,1.32
9416.00,1.32
9415.00,1.32
9414.00,1.32
9413.00,1.32
9412.00,1.32
9411.00,1.32
9410.00,1.32
9409.00,1.32
9408.00,1.32
9407.00,1.32
9406.00,1.32
9405.00,1.32
9404.00,1.32
9403.00,1.32
9402.00,1.32
9401.00,1.32
9400.00,1.32
9399.00,1.32
9398.00,1.32
9397.00,1.32
9396.00,1.32
9395.00,1.32
9394.00,1.32
9393.00,1.32
9392.00,1.32
9391.00,1.32
9390.00,1.32
9389.00,1.32
9388.00,1.32
9387.00,1.32
9386.00,1.32
9385.00,1.32
9384.00,1.32
9383.00,1.32
9382.00,1.32
9381.00,1.32
9380.00,1.32
9379.00,1.32
9378.00,1.32
9377.00,1.32
9376.00,1.32
9375.00,1.33
9374.00,1.33
9373.00,1.33
9372.00,1.33
9371.00,1.33
9370.00,1.33
9369.00,1.34
9368.00,1.34
9367.00,1.34
9366.00,1.34
9365.00,1.34
9364.00,1.34
9363.00,1.34
9362.00,1.34
9361.00,1.34
9360.00,1.35
9359.00,1.35
9358.00,1.35
9357.00,1.35
9356.00,1.34
9355.00,1.34
9354.00,1.34
9353.00,1.34
9352.00,1.34
9351.00,1.34
9350.00,1.34
9349.00,1.34
9348.00,1.34
9347.00,1.34
9346.00,1.34
9345.00,1.34
9344.00,1.34
9343.00,1.34
9342.00,1.33
9341.00,1.33
9340.00,1.33
9339.00,1.33
9338.00,1.33
9337.00,1.33
9336.00,1.33
9335.00,1.33
9334.00,1.33
9333.00,1.33
9332.00,1.33
9331.00,1.33
9330.00,1.33
9329.00,1.33
9328.00,1.32
9327.00,1.32
9326.00,1.32
9325.00,1.32
9324.00,1.33
9323.00,1.33
9322.00,1.33
9321.00,1.33
9320.00,1.33
9319.00,1.33
9318.00,1.33
9317.00,1.33
9316.00,1.33
9315.00,1.33
9314.00,1.33
9313.00,1.33
9312.00,1.33
9311.00,1.33
9310.00,1.32
9309.00,1.32
9308.00,1.32
9307.00,1.32
9306.00,1.32
9305.00,1.32
9304.00,1.31
9303.00,1.31
9302.00,1.31
9301.00,1.31
9300.00,1.31
9299.00,1.31
9298.00,1.31
9297.00,1.31
9296.00,1.31
9295.00,1.31
9294.00,1.31
9293.00,1.31
9292.00,1.32
9291.00,1.32
9290.00,1.32
9289.00,1.32
9288.00,1.33
9287.00,1.33
9286.00,1.33
9285.00,1.34
9284.00,1.34
9283.00,1.34
9282.00,1.34
9281.00,1.34
9280.00,1.34
9279.00,1.35
9278.00,1.35
9277.00,1.35
9276.00,1.35
9275.00,1.35
9274.00,1.35
9273.00,1.35
9272.00,1.35
9271.00,1.35
9270.00,1.34
9269.00,1.34
9268.00,1.34
9267.00,1.34
9266.00,1.34
9265.00,1.34
9264.00,1.34
9263.00,1.34
9262.00,1.34
9261.00,1.33
9260.00,1.33
9259.00,1.33
9258.00,1.33
9257.00,1.33
9256.00,1.33
9255.00,1.33
9254.00,1.32
9253.00,1.32
9252.00,1.32
9251.00,1.32
9250.00,1.32
9249.00,1.32
9248.00,1.32
9247.00,1.32
9246.00,1.33
9245.00,1.33
9244.00,1.33
9243.00,1.33
9242.00,1.33
9241.00,1.34
9240.00,1.34
9239.00,1.34
9238.00,1.34
9237.00,1.34
9236.00,1.35
9235.00,1.35
9234.00,1.35
9233.00,1.35
9232.00,1.35
9231.00,1.35
9230.00,1.36
9229.00,1.36
9228.00,1.36
9227.00,1.36
9226.00,1.35
9225.00,1.35
9224.00,1.35
9223.00,1.35
9222.00,1.35
9221.00,1.35
9220.00,1.35
9219.00,1.34
9218.00,1.34
9217.00,1.34
9216.00,1.34
9215.00,1.34
9214.00,1.34
9213.00,1.33
9212.00,1.33
9211.00,1.33
9210.00,1.33
9209.00,1.33
9208.00,1.33
9207.00,1.33
9206.00,1.33
9205.00,1.33
9204.00,1.33
9203.00,1.33
9202.00,1.33
9201.00,1.33
9200.00,1.33
9199.00,1.33
9198.00,1.33
9197.00,1.33
9196.00,1.33
9195.00,1.33
9194.00,1.33
9193.00,1.33
9192.00,1.33
9191.00,1.34
9190.00,1.34
9189.00,1.34
9188.00,1.34
9187.00,1.34
9186.00,1.34
9185.00,1.34
9184.00,1.34
9183.00,1.34
9182.00,1.34
9181.00,1.34
9180.00,1.34
9179.00,1.35
9178.00,1.35
9177.00,1.35
9176.00,1.35
9175.00,1.35
9174.00,1.34
9173.00,1.34
9172.00,1.34
9171.00,1.34
9170.00,1.34
9169.00,1.34
9168.00,1.34
9167.00,1.34
9166.00,1.34
9165.00,1.34
9164.00,1.33
9163.00,1.33
9162.00,1.33
9161.00,1.33
9160.00,1.33
9159.00,1.33
9158.00,1.33
9157.00,1.33
9156.00,1.33
9155.00,1.33
9154.00,1.33
9153.00,1.33
9152.00,1.33
9151.00,1.33
9150.00,1.34
9149.00,1.34
9148.00,1.34
9147.00,1.34
9146.00,1.34
9145.00,1.34
9144.00,1.34
9143.00,1.34
9142.00,1.34
9141.00,1.34
9140.00,1.34
9139.00,1.34
9138.00,1.34
9137.00,1.34
9136.00,1.34
9135.00,1.34
9134.00,1.34
9133.00,1.34
9132.00,1.34
9131.00,1.34
9130.00,1.34
9129.00,1.34
9128.00,1.34
9127.00,1.35
9126.00,1.35
9125.00,1.35
9124.00,1.35
9123.00,1.35
9122.00,1.35
9121.00,1.35
9120.00,1.35
9119.00,1.35
9118.00,1.35
9117.00,1.35
9116.00,1.35
9115.00,1.35
9114.00,1.35
9113.00,1.34
9112.00,1.34
9111.00,1.34
9110.00,1.34
9109.00,1.34
9108.00,1.34
9107.00,1.34
9106.00,1.34
9105.00,1.34
9104.00,1.34
9103.00,1.34
9102.00,1.34
9101.00,1.34
9100.00,1.34
9099.00,1.34
9098.00,1.34
9097.00,1.34
9096.00,1.34
9095.00,1.34
9094.00,1.34
9093.00,1.34
9092.00,1.34
9091.00,1.34
9090.00,1.34
9089.00,1.34
9088.00,1.34
9087.00,1.34
9086.00,1.34
9085.00,1.34
9084.00,1.34
9083.00,1.34
9082.00,1.34
9081.00,1.34
9080.00,1.34
9079.00,1.34
9078.00,1.34
9077.00,1.34
9076.00,1.34
9075.00,1.34
9074.00,1.34
9073.00,1.34
9072.00,1.34
9071.00,1.34
9070.00,1.34
9069.00,1.34
9068.00,1.34
9067.00,1.34
9066.00,1.34
9065.00,1.34
9064.00,1.34
9063.00,1.34
9062.00,1.34
9061.00,1.34
9060.00,1.34
9059.00,1.34
9058.00,1.34
9057.00,1.34
9056.00,1.34
9055.00,1.34
9054.00,1.34
9053.00,1.34
9052.00,1.34
9051.00,1.34
9050.00,1.34
9049.00,1.34
9048.00,1.34
9047.00,1.34
9046.00,1.34
9045.00,1.34
9044.00,1.34
9043.00,1.34
9042.00,1.34
9041.00,1.35
9040.00,1.35
9039.00,1.35
9038.00,1.35
9037.00,1.35
9036.00,1.35
9035.00,1.35
9034.00,1.35
9033.00,1.36
9032.00,1.36
9031.00,1.36
9030.00,1.36
9029.00,1.36
9028.00,1.36
9027.00,1.36
9026.00,1.35
9025.00,1.35
9024.00,1.35
9023.00,1.35
9022.00,1.35
9021.00,1.35
9020.00,1.35
9019.00,1.35
9018.00,1.35
9017.00,1.34
9016.00,1.34
9015.00,1.34
9014.00,1.34
9013.00,1.34
9012.00,1.34
9011.00,1.34
9010.00,1.34
9009.00,1.34
9008.00,1.34
9007.00,1.34
9006.00,1.34
9005.00,1.34
9004.00,1.34
9003.00,1.34
9002.00,1.34
9001.00,1.34
9000.00,1.34
8999.00,1.34
8998.00,1.35
8997.00,1.35
8996.00,1.35
8995.00,1.35
8994.00,1.35
8993.00,1.35
8992.00,1.35
8991.00,1.35
8990.00,1.35
8989.00,1.34
8988.00,1.34
8987.00,1.34
8986.00,1.34
8985.00,1.34
8984.00,1.34
8983.00,1.34
8982.00,1.34
8981.00,1.34
8980.00,1.33
8979.00,1.33
8978.00,1.33
8977.00,1.33
8976.00,1.33
8975.00,1.33
8974.00,1.33
8973.00,1.33
8972.00,1.33
8971.00,1.33
8970.00,1.33
8969.00,1.33
8968.00,1.33
8967.00,1.33
8966.00,1.33
8965.00,1.33
8964.00,1.33
8963.00,1.33
8962.00,1.34
8961.00,1.34
8960.00,1.34
8959.00,1.34
8958.00,1.34
8957.00,1.34
8956.00,1.34
8955.00,1.34
8954.00,1.34
8953.00,1.34
8952.00,1.34
8951.00,1.34
8950.00,1.34
8949.00,1.34
8948.00,1.34
8947.00,1.34
8946.00,1.34
8945.00,1.34
8944.00,1.34
8943.00,1.34
8942.00,1.34
8941.00,1.34
8940.00,1.34
8939.00,1.34
8938.00,1.34
8937.00,1.34
8936.00,1.34
8935.00,1.34
8934.00,1.34
8933.00,1.34
8932.00,1.34
8931.00,1.33
8930.00,1.33
8929.00,1.33
8928.00,1.33
8927.00,1.33
8926.00,1.33
8925.00,1.33
8924.00,1.33
8923.00,1.33
8922.00,1.33
8921.00,1.33
8920.00,1.33
8919.00,1.33
8918.00,1.33
8917.00,1.33
8916.00,1.33
8915.00,1.33
8914.00,1.34
8913.00,1.34
8912.00,1.34
8911.00,1.34
8910.00,1.34
8909.00,1.34
8908.00,1.34
8907.00,1.34
8906.00,1.34
8905.00,1.34
8904.00,1.34
8903.00,1.34
8902.00,1.34
8901.00,1.34
8900.00,1.34
8899.00,1.34
8898.00,1.34
8897.00,1.34
8896.00,1.34
8895.00,1.34
8894.00,1.33
8893.00,1.33
8892.00,1.33
8891.00,1.33
8890.00,1.33
8889.00,1.33
8888.00,1.33
8887.00,1.33
8886.00,1.32
8885.00,1.32
8884.00,1.32
8883.00,1.32
8882.00,1.32
8881.00,1.32
8880.00,1.32
8879.00,1.32
8878.00,1.32
8877.00,1.32
8876.00,1.32
8875.00,1.32
8874.00,1.32
8873.00,1.32
8872.00,1.32
8871.00,1.32
8870.00,1.32
8869.00,1.32
8868.00,1.33
8867.00,1.33
8866.00,1.33
8865.00,1.33
8864.00,1.33
8863.00,1.33
8862.00,1.33
8861.00,1.33
8860.00,1.33
8859.00,1.33
8858.00,1.33
8857.00,1.33
8856.00,1.33
8855.00,1.33
8854.00,1.33
8853.00,1.33
8852.00,1.33
8851.00,1.33
8850.00,1.33
8849.00,1.33
8848.00,1.33
8847.00,1.33
8846.00,1.33
8845.00,1.33
8844.00,1.33
8843.00,1.33
8842.00,1.33
8841.00,1.33
8840.00,1.33
8839.00,1.33
8838.00,1.33
8837.00,1.33
8836.00,1.33
8835.00,1.33
8834.00,1.33
8833.00,1.33
8832.00,1.33
8831.00,1.33
8830.00,1.33
8829.00,1.33
8828.00,1.33
8827.00,1.33
8826.00,1.33
8825.00,1.33
8824.00,1.33
8823.00,1.33
8822.00,1.33
8821.00,1.33
8820.00,1.33
8819.00,1.33
8818.00,1.33
8817.00,1.33
8816.00,1.33
8815.00,1.33
8814.00,1.33
8813.00,1.33
8812.00,1.33
8811.00,1.32
8810.00,1.32
8809.00,1.32
8808.00,1.32
8807.00,1.32
8806.00,1.32
8805.00,1.32
8804.00,1.32
8803.00,1.32
8802.00,1.32
8801.00,1.32
8800.00,1.32
8799.00,1.32
8798.00,1.32
8797.00,1.32
8796.00,1.31
8795.00,1.31
8794.00,1.31
8793.00,1.31
8792.00,1.31
8791.00,1.31
8790.00,1.31
8789.00,1.31
8788.00,1.31
8787.00,1.31
8786.00,1.31
8785.00,1.31
8784.00,1.31
8783.00,1.31
8782.00,1.31
8781.00,1.31
8780.00,1.31
8779.00,1.31
8778.00,1.31
8777.00,1.31
8776.00,1.31
8775.00,1.31
8774.00,1.31
8773.00,1.31
8772.00,1.31
8771.00,1.31
8770.00,1.31
8769.00,1.31
8768.00,1.31
8767.00,1.31
8766.00,1.31
8765.00,1.31
8764.00,1.31
8763.00,1.31
8762.00,1.31
8761.00,1.31
8760.00,1.31
8759.00,1.31
8758.00,1.31
8757.00,1.32
8756.00,1.32
8755.00,1.32
8754.00,1.32
8753.00,1.32
8752.00,1.31
8751.00,1.31
8750.00,1.31
8749.00,1.31
8748.00,1.31
8747.00,1.31
8746.00,1.31
8745.00,1.31
8744.00,1.31
8743.00,1.31
8742.00,1.31
8741.00,1.31
8740.00,1.31
8739.00,1.31
8738.00,1.31
8737.00,1.30
8736.00,1.30
8735.00,1.30
8734.00,1.30
8733.00,1.31
8732.00,1.31
8731.00,1.31
8730.00,1.31
8729.00,1.31
8728.00,1.31
8727.00,1.31
8726.00,1.31
8725.00,1.31
8724.00,1.31
8723.00,1.31
8722.00,1.31
8721.00,1.31
8720.00,1.31
8719.00,1.30
8718.00,1.30
8717.00,1.30
8716.00,1.30
8715.00,1.30
8714.00,1.30
8713.00,1.30
8712.00,1.30
8711.00,1.30
8710.00,1.30
8709.00,1.30
8708.00,1.30
8707.00,1.30
8706.00,1.29
8705.00,1.29
8704.00,1.29
8703.00,1.29
8702.00,1.29
8701.00,1.29
8700.00,1.29
8699.00,1.29
8698.00,1.28
8697.00,1.28
8696.00,1.28
8695.00,1.28
8694.00,1.28
8693.00,1.28
8692.00,1.28
8691.00,1.28
8690.00,1.27
8689.00,1.27
8688.00,1.27
8687.00,1.27
8686.00,1.27
8685.00,1.27
8684.00,1.27
8683.00,1.27
8682.00,1.27
8681.00,1.27
8680.00,1.27
8679.00,1.27
8678.00,1.27
8677.00,1.27
8676.00,1.27
8675.00,1.28
8674.00,1.28
8673.00,1.28
8672.00,1.28
8671.00,1.28
8670.00,1.28
8669.00,1.28
8668.00,1.28
8667.00,1.28
8666.00,1.28
8665.00,1.28
8664.00,1.28
8663.00,1.28
8662.00,1.28
8661.00,1.28
8660.00,1.28
8659.00,1.28
8658.00,1.28
8657.00,1.28
8656.00,1.28
8655.00,1.28
8654.00,1.28
8653.00,1.28
8652.00,1.28
8651.00,1.28
8650.00,1.28
8649.00,1.28
8648.00,1.27
8647.00,1.27
8646.00,1.27
8645.00,1.27
8644.00,1.27
8643.00,1.27
8642.00,1.27
8641.00,1.27
8640.00,1.26
8639.00,1.26
8638.00,1.26
8637.00,1.26
8636.00,1.26
8635.00,1.26
8634.00,1.26
8633.00,1.27
8632.00,1.27
8631.00,1.27
8630.00,1.27
8629.00,1.27
8628.00,1.27
8627.00,1.27
8626.00,1.27
8625.00,1.27
8624.00,1.27
8623.00,1.28
8622.00,1.28
8621.00,1.28
8620.00,1.28
8619.00,1.28
8618.00,1.28
8617.00,1.28
8616.00,1.28
8615.00,1.28
8614.00,1.28
8613.00,1.28
8612.00,1.27
8611.00,1.27
8610.00,1.27
8609.00,1.27
8608.00,1.27
8607.00,1.27
8606.00,1.27
8605.00,1.27
8604.00,1.26
8603.00,1.26
8602.00,1.26
8601.00,1.26
8600.00,1.26
8599.00,1.26
8598.00,1.26
8597.00,1.26
8596.00,1.25
8595.00,1.25
8594.00,1.25
8593.00,1.25
8592.00,1.25
8591.00,1.25
8590.00,1.25
8589.00,1.25
8588.00,1.25
8587.00,1.25
8586.00,1.25
8585.00,1.25
8584.00,1.25
8583.00,1.25
8582.00,1.25
8581.00,1.25
8580.00,1.25
8579.00,1.25
8578.00,1.24
8577.00,1.24
8576.00,1.24
8575.00,1.24
8574.00,1.24
8573.00,1.24
8572.00,1.24
8571.00,1.24
8570.00,1.24
8569.00,1.24
8568.00,1.24
8567.00,1.24
8566.00,1.24
8565.00,1.24
8564.00,1.24
8563.00,1.24
8562.00,1.24
8561.00,1.24
8560.00,1.24
8559.00,1.24
8558.00,1.24
8557.00,1.24
8556.00,1.24
8555.00,1.24
8554.00,1.24
8553.00,1.24
8552.00,1.24
8551.00,1.24
8550.00,1.24
8549.00,1.24
8548.00,1.24
8547.00,1.24
8546.00,1.24
8545.00,1.24
8544.00,1.24
8543.00,1.24
8542.00,1.24
8541.00,1.24
8540.00,1.24
8539.00,1.23
8538.00,1.23
8537.00,1.23
8536.00,1.23
8535.00,1.23
8534.00,1.22
8533.00,1.22
8532.00,1.22
8531.00,1.22
8530.00,1.22
8529.00,1.22
8528.00,1.22
8527.00,1.22
8526.00,1.22
8525.00,1.22
8524.00,1.22
8523.00,1.22
8522.00,1.22
8521.00,1.23
8520.00,1.23
8519.00,1.23
8518.00,1.23
8517.00,1.23
8516.00,1.23
8515.00,1.23
8514.00,1.23
8513.00,1.23
8512.00,1.23
8511.00,1.23
8510.00,1.23
8509.00,1.23
8508.00,1.23
8507.00,1.23
8506.00,1.23
8505.00,1.23
8504.00,1.23
8503.00,1.23
8502.00,1.23
8501.00,1.23
8500.00,1.23
8499.00,1.23
8498.00,1.23
8497.00,1.23
8496.00,1.23
8495.00,1.23
8494.00,1.23
8493.00,1.23
8492.00,1.23
8491.00,1.23
8490.00,1.23
8489.00,1.23
8488.00,1.23
8487.00,1.23
8486.00,1.22
8485.00,1.22
8484.00,1.22
8483.00,1.22
8482.00,1.22
8481.00,1.22
8480.00,1.21
8479.00,1.21
8478.00,1.21
8477.00,1.21
8476.00,1.20
8475.00,1.20
8474.00,1.20
8473.00,1.20
8472.00,1.19
8471.00,1.19
8470.00,1.19
8469.00,1.19
8468.00,1.19
8467.00,1.18
8466.00,1.18
8465.00,1.18
8464.00,1.18
8463.00,1.18
8462.00,1.18
8461.00,1.18
8460.00,1.18
8459.00,1.18
8458.00,1.18
8457.00,1.18
8456.00,1.19
8455.00,1.19
8454.00,1.19
8453.00,1.19
8452.00,1.19
8451.00,1.19
8450.00,1.19
8449.00,1.20
8448.00,1.20
8447.00,1.20
8446.00,1.20
8445.00,1.20
8444.00,1.20
8443.00,1.20
8442.00,1.20
8441.00,1.20
8440.00,1.20
8439.00,1.20
8438.00,1.20
8437.00,1.20
8436.00,1.20
8435.00,1.20
8434.00,1.20
8433.00,1.20
8432.00,1.20
8431.00,1.21
8430.00,1.21
8429.00,1.21
8428.00,1.21
8427.00,1.21
8426.00,1.21
8425.00,1.21
8424.00,1.21
8423.00,1.21
8422.00,1.21
8421.00,1.21
8420.00,1.21
8419.00,1.21
8418.00,1.21
8417.00,1.20
8416.00,1.20
8415.00,1.20
8414.00,1.20
8413.00,1.20
8412.00,1.20
8411.00,1.20
8410.00,1.20
8409.00,1.20
8408.00,1.20
8407.00,1.20
8406.00,1.20
8405.00,1.20
8404.00,1.20
8403.00,1.20
8402.00,1.20
8401.00,1.20
8400.00,1.21
8399.00,1.21
8398.00,1.21
8397.00,1.21
8396.00,1.21
8395.00,1.21
8394.00,1.21
8393.00,1.21
8392.00,1.21
8391.00,1.21
8390.00,1.22
8389.00,1.22
8388.00,1.22
8387.00,1.22
8386.00,1.22
8385.00,1.22
8384.00,1.22
8383.00,1.22
8382.00,1.22
8381.00,1.22
8380.00,1.22
8379.00,1.22
8378.00,1.22
8377.00,1.22
8376.00,1.22
8375.00,1.22
8374.00,1.22
8373.00,1.23
8372.00,1.23
8371.00,1.23
8370.00,1.23
8369.00,1.23
8368.00,1.23
8367.00,1.23
8366.00,1.23
8365.00,1.23
8364.00,1.23
8363.00,1.23
8362.00,1.23
8361.00,1.23
8360.00,1.23
8359.00,1.23
8358.00,1.23
8357.00,1.23
8356.00,1.23
8355.00,1.23
8354.00,1.22
8353.00,1.22
8352.00,1.22
8351.00,1.22
8350.00,1.22
8349.00,1.22
8348.00,1.22
8347.00,1.22
8346.00,1.22
8345.00,1.22
8344.00,1.22
8343.00,1.23
8342.00,1.23
8341.00,1.23
8340.00,1.23
8339.00,1.23
8338.00,1.23
8337.00,1.23
8336.00,1.23
8335.00,1.23
8334.00,1.23
8333.00,1.23
8332.00,1.23
8331.00,1.23
8330.00,1.23
8329.00,1.23
8328.00,1.22
8327.00,1.22
8326.00,1.22
8325.00,1.22
8324.00,1.22
8323.00,1.22
8322.00,1.22
8321.00,1.22
8320.00,1.22
8319.00,1.22
8318.00,1.22
8317.00,1.22
8316.00,1.22
8315.00,1.22
8314.00,1.22
8313.00,1.22
8312.00,1.22
8311.00,1.22
8310.00,1.23
8309.00,1.23
8308.00,1.23
8307.00,1.23
8306.00,1.23
8305.00,1.23
8304.00,1.23
8303.00,1.23
8302.00,1.23
8301.00,1.23
8300.00,1.23
8299.00,1.23
8298.00,1.24
8297.00,1.24
8296.00,1.24
8295.00,1.24
8294.00,1.24
8293.00,1.24
8292.00,1.24
8291.00,1.24
8290.00,1.24
8289.00,1.25
8288.00,1.25
8287.00,1.25
8286.00,1.25
8285.00,1.25
8284.00,1.25
8283.00,1.25
8282.00,1.25
8281.00,1.25
8280.00,1.25
8279.00,1.25
8278.00,1.25
8277.00,1.25
8276.00,1.25
8275.00,1.25
8274.00,1.25
8273.00,1.25
8272.00,1.25
8271.00,1.25
8270.00,1.25
8269.00,1.25
8268.00,1.25
8267.00,1.25
8266.00,1.25
8265.00,1.25
8264.00,1.25
8263.00,1.25
8262.00,1.25
8261.00,1.25
8260.00,1.25
8259.00,1.25
8258.00,1.25
8257.00,1.25
8256.00,1.25
8255.00,1.25
8254.00,1.25
8253.00,1.25
8252.00,1.25
8251.00,1.25
8250.00,1.25
8249.00,1.25
8248.00,1.25
8247.00,1.25
8246.00,1.25
8245.00,1.25
8244.00,1.25
8243.00,1.25
8242.00,1.25
8241.00,1.25
8240.00,1.25
8239.00,1.25
8238.00,1.25
8237.00,1.25
8236.00,1.25
8235.00,1.25
8234.00,1.25
8233.00,1.25
8232.00,1.25
8231.00,1.24
8230.00,1.24
8229.00,1.24
8228.00,1.24
8227.00,1.24
8226.00,1.24
8225.00,1.24
8224.00,1.24
8223.00,1.24
8222.00,1.24
8221.00,1.24
8220.00,1.24
8219.00,1.25
8218.00,1.25
8217.00,1.25
8216.00,1.25
8215.00,1.25
8214.00,1.25
8213.00,1.25
8212.00,1.25
8211.00,1.25
8210.00,1.25
8209.00,1.25
8208.00,1.25
8207.00,1.25
8206.00,1.25
8205.00,1.25
8204.00,1.25
8203.00,1.25
8202.00,1.25
8201.00,1.26
8200.00,1.26
8199.00,1.26
8198.00,1.26
8197.00,1.26
8196.00,1.26
8195.00,1.26
8194.00,1.26
8193.00,1.26
8192.00,1.26
8191.00,1.26
8190.00,1.27
8189.00,1.27
8188.00,1.27
8187.00,1.27
8186.00,1.27
8185.00,1.27
8184.00,1.27
8183.00,1.28
8182.00,1.28
8181.00,1.28
8180.00,1.28
8179.00,1.28
8178.00,1.28
8177.00,1.28
8176.00,1.28
8175.00,1.28
8174.00,1.28
8173.00,1.28
8172.00,1.28
8171.00,1.28
8170.00,1.28
8169.00,1.28
8168.00,1.28
8167.00,1.28
8166.00,1.28
8165.00,1.28
8164.00,1.28
8163.00,1.28
8162.00,1.27
8161.00,1.27
8160.00,1.27
8159.00,1.27
8158.00,1.28
8157.00,1.28
8156.00,1.28
8155.00,1.28
8154.00,1.28
8153.00,1.28
8152.00,1.28
8151.00,1.28
8150.00,1.28
8149.00,1.28
8148.00,1.28
8147.00,1.28
8146.00,1.28
8145.00,1.28
8144.00,1.28
8143.00,1.28
8142.00,1.28
8141.00,1.28
8140.00,1.28
8139.00,1.28
8138.00,1.28
8137.00,1.28
8136.00,1.28
8135.00,1.28
8134.00,1.28
8133.00,1.28
8132.00,1.28
8131.00,1.28
8130.00,1.28
8129.00,1.28
8128.00,1.28
8127.00,1.28
8126.00,1.28
8125.00,1.28
8124.00,1.29
8123.00,1.29
8122.00,1.29
8121.00,1.29
8120.00,1.29
8119.00,1.29
8118.00,1.29
8117.00,1.29
8116.00,1.29
8115.00,1.30
8114.00,1.30
8113.00,1.30
8112.00,1.30
8111.00,1.30
8110.00,1.30
8109.00,1.30
8108.00,1.30
8107.00,1.30
8106.00,1.30
8105.00,1.30
8104.00,1.30
8103.00,1.30
8102.00,1.30
8101.00,1.30
8100.00,1.30
8099.00,1.30
8098.00,1.30
8097.00,1.30
8096.00,1.30
8095.00,1.30
8094.00,1.30
8093.00,1.30
8092.00,1.30
8091.00,1.30
8090.00,1.30
8089.00,1.30
8088.00,1.30
8087.00,1.30
8086.00,1.30
8085.00,1.30
8084.00,1.30
8083.00,1.30
8082.00,1.30
8081.00,1.30
8080.00,1.30
8079.00,1.30
8078.00,1.30
8077.00,1.30
8076.00,1.30
8075.00,1.30
8074.00,1.30
8073.00,1.30
8072.00,1.30
8071.00,1.30
8070.00,1.30
8069.00,1.30
8068.00,1.30
8067.00,1.30
8066.00,1.30
8065.00,1.30
8064.00,1.30
8063.00,1.30
8062.00,1.30
8061.00,1.30
8060.00,1.30
8059.00,1.30
8058.00,1.30
8057.00,1.30
8056.00,1.30
8055.00,1.30
8054.00,1.30
8053.00,1.30
8052.00,1.30
8051.00,1.30
8050.00,1.30
8049.00,1.30
8048.00,1.30
8047.00,1.30
8046.00,1.30
8045.00,1.30
8044.00,1.30
8043.00,1.30
8042.00,1.30
8041.00,1.30
8040.00,1.30
8039.00,1.30
8038.00,1.30
8037.00,1.30
8036.00,1.30
8035.00,1.31
8034.00,1.31
8033.00,1.31
8032.00,1.31
8031.00,1.31
8030.00,1.31
8029.00,1.31
8028.00,1.31
8027.00,1.31
8026.00,1.31
8025.00,1.31
8024.00,1.31
8023.00,1.31
8022.00,1.31
8021.00,1.31
8020.00,1.31
8019.00,1.31
8018.00,1.31
8017.00,1.31
8016.00,1.31
8015.00,1.31
8014.00,1.31
8013.00,1.31
8012.00,1.31
8011.00,1.31
8010.00,1.32
8009.00,1.32
8008.00,1.32
8007.00,1.32
8006.00,1.32
8005.00,1.32
8004.00,1.32
8003.00,1.32
8002.00,1.32
8001.00,1.32
8000.00,1.32
7999.00,1.32
7998.00,1.32
7997.00,1.32
7996.00,1.32
7995.00,1.32
7994.00,1.32
7993.00,1.32
7992.00,1.32
7991.00,1.32
7990.00,1.32
7989.00,1.32
7988.00,1.32
7987.00,1.32
7986.00,1.32
7985.00,1.32
7984.00,1.32
7983.00,1.32
7982.00,1.32
7981.00,1.32
7980.00,1.32
7979.00,1.32
7978.00,1.32
7977.00,1.32
7976.00,1.32
7975.00,1.32
7974.00,1.32
7973.00,1.32
7972.00,1.32
7971.00,1.32
7970.00,1.32
7969.00,1.32
7968.00,1.32
7967.00,1.32
7966.00,1.31
7965.00,1.31
7964.00,1.31
7963.00,1.31
7962.00,1.31
7961.00,1.31
7960.00,1.31
7959.00,1.31
7958.00,1.31
7957.00,1.31
7956.00,1.31
7955.00,1.31
7954.00,1.32
7953.00,1.32
7952.00,1.32
7951.00,1.32
7950.00,1.32
7949.00,1.32
7948.00,1.32
7947.00,1.32
7946.00,1.32
7945.00,1.32
7944.00,1.32
7943.00,1.32
7942.00,1.32
7941.00,1.32
7940.00,1.32
7939.00,1.32
7938.00,1.32
7937.00,1.32
7936.00,1.32
7935.00,1.32
7934.00,1.32
7933.00,1.32
7932.00,1.32
7931.00,1.32
7930.00,1.32
7929.00,1.32
7928.00,1.32
7927.00,1.32
7926.00,1.32
7925.00,1.32
7924.00,1.32
7923.00,1.32
7922.00,1.32
7921.00,1.32
7920.00,1.32
7919.00,1.32
7918.00,1.32
7917.00,1.32
7916.00,1.32
7915.00,1.32
7914.00,1.32
7913.00,1.32
7912.00,1.32
7911.00,1.32
7910.00,1.32
7909.00,1.32
7908.00,1.33
7907.00,1.33
7906.00,1.33
7905.00,1.33
7904.00,1.33
7903.00,1.33
7902.00,1.33
7901.00,1.33
7900.00,1.33
7899.00,1.33
7898.00,1.33
7897.00,1.33
7896.00,1.33
7895.00,1.33
7894.00,1.34
7893.00,1.34
7892.00,1.34
7891.00,1.34
7890.00,1.34
7889.00,1.34
7888.00,1.34
7887.00,1.34
7886.00,1.34
7885.00,1.34
7884.00,1.34
7883.00,1.34
7882.00,1.34
7881.00,1.34
7880.00,1.34
7879.00,1.34
7878.00,1.34
7877.00,1.34
7876.00,1.34
7875.00,1.34
7874.00,1.34
7873.00,1.34
7872.00,1.34
7871.00,1.34
7870.00,1.34
7869.00,1.34
7868.00,1.34
7867.00,1.34
7866.00,1.34
7865.00,1.34
7864.00,1.34
7863.00,1.34
7862.00,1.34
7861.00,1.34
7860.00,1.34
7859.00,1.34
7858.00,1.34
7857.00,1.33
7856.00,1.33
7855.00,1.33
7854.00,1.33
7853.00,1.33
7852.00,1.33
7851.00,1.33
7850.00,1.33
7849.00,1.33
7848.00,1.33
7847.00,1.33
7846.00,1.33
7845.00,1.33
7844.00,1.33
7843.00,1.33
7842.00,1.33
7841.00,1.33
7840.00,1.33
7839.00,1.34
7838.00,1.34
7837.00,1.34
7836.00,1.34
7835.00,1.34
7834.00,1.34
7833.00,1.34
7832.00,1.34
7831.00,1.34
7830.00,1.34
7829.00,1.34
7828.00,1.35
7827.00,1.35
7826.00,1.35
7825.00,1.35
7824.00,1.35
7823.00,1.35
7822.00,1.35
7821.00,1.35
7820.00,1.35
7819.00,1.35
7818.00,1.35
7817.00,1.35
7816.00,1.35
7815.00,1.35
7814.00,1.35
7813.00,1.35
7812.00,1.35
7811.00,1.35
7810.00,1.34
7809.00,1.34
7808.00,1.34
7807.00,1.34
7806.00,1.34
7805.00,1.34
7804.00,1.34
7803.00,1.34
7802.00,1.34
7801.00,1.34
7800.00,1.34
7799.00,1.34
7798.00,1.34
7797.00,1.34
7796.00,1.34
7795.00,1.34
7794.00,1.34
7793.00,1.34
7792.00,1.34
7791.00,1.34
7790.00,1.34
7789.00,1.34
7788.00,1.34
7787.00,1.34
7786.00,1.34
7785.00,1.34
7784.00,1.34
7783.00,1.35
7782.00,1.35
7781.00,1.35
7780.00,1.35
7779.00,1.35
7778.00,1.35
7777.00,1.35
7776.00,1.35
7775.00,1.35
7774.00,1.35
7773.00,1.35
7772.00,1.35
7771.00,1.35
7770.00,1.35
7769.00,1.35
7768.00,1.36
7767.00,1.36
7766.00,1.36
7765.00,1.36
7764.00,1.36
7763.00,1.36
7762.00,1.36
7761.00,1.36
7760.00,1.36
7759.00,1.36
7758.00,1.36
7757.00,1.36
7756.00,1.36
7755.00,1.36
7754.00,1.36
7753.00,1.35
7752.00,1.35
7751.00,1.35
7750.00,1.35
7749.00,1.35
7748.00,1.35
7747.00,1.35
7746.00,1.35
7745.00,1.35
7744.00,1.35
7743.00,1.35
7742.00,1.35
7741.00,1.35
7740.00,1.34
7739.00,1.34
7738.00,1.34
7737.00,1.34
7736.00,1.34
7735.00,1.34
7734.00,1.34
7733.00,1.34
7732.00,1.34
7731.00,1.34
7730.00,1.34
7729.00,1.34
7728.00,1.34
7727.00,1.34
7726.00,1.34
7725.00,1.35
7724.00,1.35
7723.00,1.35
7722.00,1.35
7721.00,1.35
7720.00,1.35
7719.00,1.35
7718.00,1.35
7717.00,1.35
7716.00,1.35
7715.00,1.35
7714.00,1.35
7713.00,1.35
7712.00,1.35
7711.00,1.35
7710.00,1.35
7709.00,1.35
7708.00,1.35
7707.00,1.35
7706.00,1.35
7705.00,1.35
7704.00,1.35
7703.00,1.35
7702.00,1.35
7701.00,1.36
7700.00,1.36
7699.00,1.36
7698.00,1.36
7697.00,1.36
7696.00,1.36
7695.00,1.36
7694.00,1.36
7693.00,1.36
7692.00,1.36
7691.00,1.35
7690.00,1.35
7689.00,1.35
7688.00,1.35
7687.00,1.35
7686.00,1.35
7685.00,1.35
7684.00,1.35
7683.00,1.35
7682.00,1.35
7681.00,1.35
7680.00,1.35
7679.00,1.35
7678.00,1.35
7677.00,1.35
7676.00,1.35
7675.00,1.35
7674.00,1.35
7673.00,1.35
7672.00,1.35
7671.00,1.35
7670.00,1.35
7669.00,1.35
7668.00,1.35
7667.00,1.35
7666.00,1.35
7665.00,1.35
7664.00,1.35
7663.00,1.35
7662.00,1.35
7661.00,1.35
7660.00,1.35
7659.00,1.35
7658.00,1.35
7657.00,1.35
7656.00,1.36
7655.00,1.36
7654.00,1.36
7653.00,1.36
7652.00,1.36
7651.00,1.36
7650.00,1.36
7649.00,1.36
7648.00,1.36
7647.00,1.36
7646.00,1.36
7645.00,1.36
7644.00,1.36
7643.00,1.36
7642.00,1.36
7641.00,1.36
7640.00,1.36
7639.00,1.36
7638.00,1.36
7637.00,1.35
7636.00,1.35
7635.00,1.35
7634.00,1.35
7633.00,1.35
7632.00,1.35
7631.00,1.35
7630.00,1.35
7629.00,1.35
7628.00,1.35
7627.00,1.35
7626.00,1.35
7625.00,1.35
7624.00,1.35
7623.00,1.35
7622.00,1.35
7621.00,1.35
7620.00,1.35
7619.00,1.34
7618.00,1.34
7617.00,1.34
7616.00,1.34
7615.00,1.34
7614.00,1.34
7613.00,1.34
7612.00,1.34
7611.00,1.34
7610.00,1.34
7609.00,1.34
7608.00,1.34
7607.00,1.34
7606.00,1.34
7605.00,1.34
7604.00,1.34
7603.00,1.34
7602.00,1.34
7601.00,1.34
7600.00,1.34
7599.00,1.34
7598.00,1.34
7597.00,1.34
7596.00,1.34
7595.00,1.34
7594.00,1.34
7593.00,1.34
7592.00,1.34
7591.00,1.34
7590.00,1.34
7589.00,1.34
7588.00,1.34
7587.00,1.34
7586.00,1.34
7585.00,1.34
7584.00,1.34
7583.00,1.34
7582.00,1.34
7581.00,1.34
7580.00,1.34
7579.00,1.35
7578.00,1.35
7577.00,1.35
7576.00,1.35
7575.00,1.35
7574.00,1.35
7573.00,1.35
7572.00,1.35
7571.00,1.35
7570.00,1.35
7569.00,1.35
7568.00,1.35
7567.00,1.35
7566.00,1.35
7565.00,1.36
7564.00,1.36
7563.00,1.36
7562.00,1.36
7561.00,1.36
7560.00,1.36
7559.00,1.36
7558.00,1.36
7557.00,1.36
7556.00,1.36
7555.00,1.35
7554.00,1.35
7553.00,1.35
7552.00,1.35
7551.00,1.35
7550.00,1.35
7549.00,1.35
7548.00,1.35
7547.00,1.34
7546.00,1.34
7545.00,1.34
7544.00,1.34
7543.00,1.34
7542.00,1.34
7541.00,1.34
7540.00,1.34
7539.00,1.33
7538.00,1.33
7537.00,1.33
7536.00,1.33
7535.00,1.33
7534.00,1.33
7533.00,1.33
7532.00,1.33
7531.00,1.33
7530.00,1.33
7529.00,1.33
7528.00,1.33
7527.00,1.33
7526.00,1.33
7525.00,1.34
7524.00,1.34
7523.00,1.34
7522.00,1.34
7521.00,1.34
7520.00,1.34
7519.00,1.34
7518.00,1.34
7517.00,1.34
7516.00,1.34
7515.00,1.34
7514.00,1.34
7513.00,1.34
7512.00,1.34
7511.00,1.34
7510.00,1.34
7509.00,1.34
7508.00,1.34
7507.00,1.34
7506.00,1.33
7505.00,1.33
7504.00,1.33
7503.00,1.33
7502.00,1.33
7501.00,1.33
7500.00,1.33
7499.00,1.33
7498.00,1.33
7497.00,1.32
7496.00,1.32
7495.00,1.32
7494.00,1.32
7493.00,1.32
7492.00,1.32
7491.00,1.32
7490.00,1.32
7489.00,1.32
7488.00,1.32
7487.00,1.32
7486.00,1.31
7485.00,1.31
7484.00,1.31
7483.00,1.31
7482.00,1.31
7481.00,1.31
7480.00,1.31
7479.00,1.31
7478.00,1.31
7477.00,1.31
7476.00,1.31
7475.00,1.31
7474.00,1.31
7473.00,1.31
7472.00,1.31
7471.00,1.31
7470.00,1.31
7469.00,1.31
7468.00,1.31
7467.00,1.31
7466.00,1.31
7465.00,1.31
7464.00,1.31
7463.00,1.31
7462.00,1.31
7461.00,1.31
7460.00,1.31
7459.00,1.31
7458.00,1.31
7457.00,1.31
7456.00,1.31
7455.00,1.31
7454.00,1.31
7453.00,1.31
7452.00,1.31
7451.00,1.31
7450.00,1.31
7449.00,1.31
7448.00,1.31
7447.00,1.31
7446.00,1.31
7445.00,1.31
7444.00,1.31
7443.00,1.31
7442.00,1.31
7441.00,1.31
7440.00,1.30
7439.00,1.30
7438.00,1.30
7437.00,1.30
7436.00,1.30
7435.00,1.30
7434.00,1.30
7433.00,1.29
7432.00,1.29
7431.00,1.29
7430.00,1.29
7429.00,1.29
7428.00,1.29
7427.00,1.29
7426.00,1.29
7425.00,1.29
7424.00,1.29
7423.00,1.29
7422.00,1.29
7421.00,1.29
7420.00,1.29
7419.00,1.29
7418.00,1.28
7417.00,1.28
7416.00,1.28
7415.00,1.28
7414.00,1.28
7413.00,1.28
7412.00,1.28
7411.00,1.28
7410.00,1.28
7409.00,1.28
7408.00,1.27
7407.00,1.27
7406.00,1.27
7405.00,1.27
7404.00,1.27
7403.00,1.27
7402.00,1.27
7401.00,1.27
7400.00,1.27
7399.00,1.27
7398.00,1.27
7397.00,1.27
7396.00,1.27
7395.00,1.27
7394.00,1.27
7393.00,1.26
7392.00,1.26
7391.00,1.26
7390.00,1.26
7389.00,1.26
7388.00,1.26
7387.00,1.26
7386.00,1.26
7385.00,1.26
7384.00,1.26
7383.00,1.25
7382.00,1.25
7381.00,1.25
7380.00,1.25
7379.00,1.25
7378.00,1.25
7377.00,1.25
7376.00,1.25
7375.00,1.25
7374.00,1.25
7373.00,1.25
7372.00,1.25
7371.00,1.25
7370.00,1.25
7369.00,1.25
7368.00,1.25
7367.00,1.25
7366.00,1.25
7365.00,1.25
7364.00,1.25
7363.00,1.25
7362.00,1.25
7361.00,1.25
7360.00,1.25
7359.00,1.25
7358.00,1.25
7357.00,1.25
7356.00,1.24
7355.00,1.24
7354.00,1.24
7353.00,1.24
7352.00,1.24
7351.00,1.24
7350.00,1.24
7349.00,1.24
7348.00,1.24
7347.00,1.24
7346.00,1.24
7345.00,1.24
7344.00,1.24
7343.00,1.24
7342.00,1.23
7341.00,1.23
7340.00,1.23
7339.00,1.23
7338.00,1.23
7337.00,1.23
7336.00,1.23
7335.00,1.23
7334.00,1.23
7333.00,1.23
7332.00,1.23
7331.00,1.23
7330.00,1.23
7329.00,1.23
7328.00,1.23
7327.00,1.23
7326.00,1.23
7325.00,1.23
7324.00,1.23
7323.00,1.22
7322.00,1.22
7321.00,1.22
7320.00,1.22
7319.00,1.22
7318.00,1.22
7317.00,1.22
7316.00,1.22
7315.00,1.22
7314.00,1.22
7313.00,1.22
7312.00,1.22
7311.00,1.21
7310.00,1.21
7309.00,1.21
7308.00,1.21
7307.00,1.21
7306.00,1.21
7305.00,1.21
7304.00,1.21
7303.00,1.21
7302.00,1.21
7301.00,1.20
7300.00,1.20
7299.00,1.20
7298.00,1.20
7297.00,1.20
7296.00,1.20
7295.00,1.20
7294.00,1.20
7293.00,1.20
7292.00,1.19
7291.00,1.19
7290.00,1.19
7289.00,1.19
7288.00,1.19
7287.00,1.19
7286.00,1.19
7285.00,1.19
7284.00,1.19
7283.00,1.19
7282.00,1.19
7281.00,1.19
7280.00,1.19
7279.00,1.19
7278.00,1.18
7277.00,1.18
7276.00,1.18
7275.00,1.18
7274.00,1.18
7273.00,1.18
7272.00,1.18
7271.00,1.18
7270.00,1.18
7269.00,1.18
7268.00,1.17
7267.00,1.17
7266.00,1.17
7265.00,1.17
7264.00,1.17
7263.00,1.17
7262.00,1.16
7261.00,1.16
7260.00,1.16
7259.00,1.16
7258.00,1.16
7257.00,1.16
7256.00,1.15
7255.00,1.15
7254.00,1.15
7253.00,1.15
7252.00,1.15
7251.00,1.14
7250.00,1.14
7249.00,1.14
7248.00,1.14
7247.00,1.14
7246.00,1.13
7245.00,1.13
7244.00,1.13
7243.00,1.13
7242.00,1.12
7241.00,1.12
7240.00,1.12
7239.00,1.12
7238.00,1.11
7237.00,1.11
7236.00,1.11
7235.00,1.10
7234.00,1.10
7233.00,1.10
7232.00,1.10
7231.00,1.09
7230.00,1.09
7229.00,1.09
7228.00,1.08
7227.00,1.08
7226.00,1.08
7225.00,1.07
7224.00,1.07
7223.00,1.07
7222.00,1.06
7221.00,1.06
7220.00,1.06
7219.00,1.05
7218.00,1.05
7217.00,1.05
7216.00,1.04
7215.00,1.04
7214.00,1.04
7213.00,1.03
7212.00,1.03
7211.00,1.03
7210.00,1.03
7209.00,1.02
7208.00,1.02
7207.00,1.02
7206.00,1.01
7205.00,1.01
7204.00,1.01
7203.00,1.00
7202.00,1.00
7201.00,1.00
7200.00,0.99
7199.00,0.99
7198.00,0.99
7197.00,0.98
7196.00,0.98
7195.00,0.98
7194.00,0.97
7193.00,0.97
7192.00,0.97
7191.00,0.96
7190.00,0.96
7189.00,0.96
7188.00,0.95
7187.00,0.95
7186.00,0.95
7185.00,0.95
7184.00,0.94
7183.00,0.94
7182.00,0.94
7181.00,0.93
7180.00,0.93
7179.00,0.93
7178.00,0.92
7177.00,0.92
7176.00,0.92
7175.00,0.92
7174.00,0.91
7173.00,0.91
7172.00,0.91
7171.00,0.91
7170.00,0.90
7169.00,0.90
7168.00,0.90
7167.00,0.90
7166.00,0.89
7165.00,0.89
7164.00,0.89
7163.00,0.88
7162.00,0.88
7161.00,0.88
7160.00,0.87
7159.00,0.87
7158.00,0.87
7157.00,0.87
7156.00,0.86
7155.00,0.86
7154.00,0.86
7153.00,0.85
7152.00,0.85
7151.00,0.85
7150.00,0.84
7149.00,0.84
7148.00,0.84
7147.00,0.84
7146.00,0.83
7145.00,0.83
7144.00,0.83
7143.00,0.82
7142.00,0.82
7141.00,0.82
7140.00,0.81
7139.00,0.81
7138.00,0.81
7137.00,0.80
7136.00,0.80
7135.00,0.80
7134.00,0.80
7133.00,0.79
7132.00,0.79
7131.00,0.79
7130.00,0.79
7129.00,0.79
7128.00,0.79
7127.00,0.78
7126.00,0.78
7125.00,0.78
7124.00,0.78
7123.00,0.78
7122.00,0.78
7121.00,0.77
7120.00,0.77
7119.00,0.77
7118.00,0.77
7117.00,0.76
7116.00,0.76
7115.00,0.76
7114.00,0.76
7113.00,0.75
7112.00,0.75
7111.00,0.75
7110.00,0.74
7109.00,0.74
7108.00,0.74
7107.00,0.73
7106.00,0.73
7105.00,0.73
7104.00,0.73
7103.00,0.72
7102.00,0.72
7101.00,0.72
7100.00,0.72
7099.00,0.71
7098.00,0.71
7097.00,0.71
7096.00,0.71
7095.00,0.71
7094.00,0.70
7093.00,0.70
7092.00,0.70
7091.00,0.70
7090.00,0.70
7089.00,0.70
7088.00,0.69
7087.00,0.69
7086.00,0.69
7085.00,0.69
7084.00,0.69
7083.00,0.69
7082.00,0.68
7081.00,0.68
7080.00,0.68
7079.00,0.68
7078.00,0.68
7077.00,0.68
7076.00,0.67
7075.00,0.67
7074.00,0.67
7073.00,0.67
7072.00,0.67
7071.00,0.67
7070.00,0.67
7069.00,0.66
7068.00,0.66
7067.00,0.66
7066.00,0.66
7065.00,0.66
7064.00,0.66
7063.00,0.65
7062.00,0.65
7061.00,0.65
7060.00,0.65
7059.00,0.65
7058.00,0.65
7057.00,0.65
7056.00,0.64
7055.00,0.64
7054.00,0.64
7053.00,0.64
7052.00,0.64
7051.00,0.64
7050.00,0.64
7049.00,0.64
7048.00,0.64
7047.00,0.63
7046.00,0.63
7045.00,0.63
7044.00,0.63
7043.00,0.63
7042.00,0.63
7041.00,0.63
7040.00,0.63
7039.00,0.63
7038.00,0.62
7037.00,0.62
7036.00,0.62
7035.00,0.62
7034.00,0.62
7033.00,0.62
7032.00,0.62
7031.00,0.61
7030.00,0.61
7029.00,0.61
7028.00,0.61
7027.00,0.61
7026.00,0.61
7025.00,0.61
7024.00,0.61
7023.00,0.60
7022.00,0.60
7021.00,0.60
7020.00,0.60
7019.00,0.60
7018.00,0.60
7017.00,0.60
7016.00,0.60
7015.00,0.60
7014.00,0.60
7013.00,0.60
7012.00,0.60
7011.00,0.60
7010.00,0.60
7009.00,0.60
7008.00,0.60
7007.00,0.59
7006.00,0.59
7005.00,0.59
7004.00,0.59
7003.00,0.59
7002.00,0.59
7001.00,0.59
7000.00,0.59
6999.00,0.59
6998.00,0.59
6997.00,0.59
6996.00,0.59
6995.00,0.59
6994.00,0.59
6993.00,0.59
6992.00,0.58
6991.00,0.58
6990.00,0.58
6989.00,0.58
6988.00,0.58
6987.00,0.58
6986.00,0.58
6985.00,0.58
6984.00,0.58
6983.00,0.58
6982.00,0.58
6981.00,0.58
6980.00,0.58
6979.00,0.58
6978.00,0.58
6977.00,0.58
6976.00,0.58
6975.00,0.58
6974.00,0.58
6973.00,0.58
6972.00,0.58
6971.00,0.58
6970.00,0.58
6969.00,0.58
6968.00,0.58
6967.00,0.58
6966.00,0.58
6965.00,0.58
6964.00,0.57
6963.00,0.57
6962.00,0.57
6961.00,0.57
6960.00,0.57
6959.00,0.57
6958.00,0.57
6957.00,0.57
6956.00,0.57
6955.00,0.57
6954.00,0.57
6953.00,0.57
6952.00,0.57
6951.00,0.57
6950.00,0.57
6949.00,0.57
6948.00,0.57
6947.00,0.57
6946.00,0.57
6945.00,0.57
6944.00,0.57
6943.00,0.57
6942.00,0.57
6941.00,0.57
6940.00,0.57
6939.00,0.56
6938.00,0.56
6937.00,0.56
6936.00,0.56
6935.00,0.56
6934.00,0.56
6933.00,0.56
6932.00,0.56
6931.00,0.56
6930.00,0.56
6929.00,0.56
6928.00,0.56
6927.00,0.56
6926.00,0.56
6925.00,0.56
6924.00,0.56
6923.00,0.56
6922.00,0.56
6921.00,0.56
6920.00,0.56
6919.00,0.56
6918.00,0.56
6917.00,0.56
6916.00,0.56
6915.00,0.56
6914.00,0.56
6913.00,0.56
6912.00,0.56
6911.00,0.56
6910.00,0.56
6909.00,0.56
6908.00,0.55
6907.00,0.55
6906.00,0.55
6905.00,0.55
6904.00,0.55
6903.00,0.55
6902.00,0.55
6901.00,0.55
6900.00,0.55
6899.00,0.55
6898.00,0.55
6897.00,0.55
6896.00,0.55
6895.00,0.55
6894.00,0.55
6893.00,0.55
6892.00,0.55
6891.00,0.55
6890.00,0.55
6889.00,0.55
6888.00,0.55
6887.00,0.55
6886.00,0.55
6885.00,0.55
6884.00,0.55
6883.00,0.55
6882.00,0.55
6881.00,0.55
6880.00,0.55
6879.00,0.55
6878.00,0.55
6877.00,0.55
6876.00,0.55
6875.00,0.55
6874.00,0.55
6873.00,0.55
6872.00,0.55
6871.00,0.55
6870.00,0.55
6869.00,0.55
6868.00,0.55
6867.00,0.55
6866.00,0.55
6865.00,0.55
6864.00,0.55
6863.00,0.55
6862.00,0.55
6861.00,0.55
6860.00,0.55
6859.00,0.55
6858.00,0.55
6857.00,0.55
6856.00,0.55
6855.00,0.55
6854.00,0.55
6853.00,0.55
6852.00,0.55
6851.00,0.55
6850.00,0.55
6849.00,0.55
6848.00,0.55
6847.00,0.55
6846.00,0.55
6845.00,0.55
6844.00,0.55
6843.00,0.55
6842.00,0.55
6841.00,0.55
6840.00,0.55
6839.00,0.55
6838.00,0.55
6837.00,0.55
6836.00,0.55
6835.00,0.55
6834.00,0.55
6833.00,0.55
6832.00,0.56
6831.00,0.56
6830.00,0.56
6829.00,0.56
6828.00,0.56
6827.00,0.56
6826.00,0.56
6825.00,0.56
6824.00,0.56
6823.00,0.56
6822.00,0.56
6821.00,0.56
6820.00,0.56
6819.00,0.56
6818.00,0.56
6817.00,0.56
6816.00,0.56
6815.00,0.56
6814.00,0.56
6813.00,0.56
6812.00,0.56
6811.00,0.57
6810.00,0.57
6809.00,0.57
6808.00,0.57
6807.00,0.57
6806.00,0.57
6805.00,0.57
6804.00,0.57
6803.00,0.57
6802.00,0.57
6801.00,0.57
6800.00,0.57
6799.00,0.57
6798.00,0.57
6797.00,0.57
6796.00,0.57
6795.00,0.57
6794.00,0.57
6793.00,0.58
6792.00,0.58
6791.00,0.58
6790.00,0.58
6789.00,0.58
6788.00,0.58
6787.00,0.58
6786.00,0.58
6785.00,0.58
6784.00,0.58
6783.00,0.58
6782.00,0.58
6781.00,0.58
6780.00,0.58
6779.00,0.58
6778.00,0.58
6777.00,0.58
6776.00,0.58
6775.00,0.58
6774.00,0.58
6773.00,0.58
6772.00,0.58
6771.00,0.58
6770.00,0.58
6769.00,0.58
6768.00,0.58
6767.00,0.58
6766.00,0.59
6765.00,0.59
6764.00,0.59
6763.00,0.59
6762.00,0.59
6761.00,0.59
6760.00,0.59
6759.00,0.59
6758.00,0.59
6757.00,0.59
6756.00,0.59
6755.00,0.59
6754.00,0.59
6753.00,0.59
6752.00,0.59
6751.00,0.59
6750.00,0.59
6749.00,0.59
6748.00,0.59
6747.00,0.59
6746.00,0.59
6745.00,0.59
6744.00,0.59
6743.00,0.59
6742.00,0.59
6741.00,0.59
6740.00,0.59
6739.00,0.59
6738.00,0.60
6737.00,0.60
6736.00,0.60
6735.00,0.60
6734.00,0.60
6733.00,0.60
6732.00,0.60
6731.00,0.60
6730.00,0.60
6729.00,0.60
6728.00,0.60
6727.00,0.60
6726.00,0.60
6725.00,0.61
6724.00,0.61
6723.00,0.61
6722.00,0.61
6721.00,0.61
6720.00,0.61
6719.00,0.61
6718.00,0.61
6717.00,0.61
6716.00,0.62
6715.00,0.62
6714.00,0.62
6713.00,0.62
6712.00,0.62
6711.00,0.62
6710.00,0.62
6709.00,0.62
6708.00,0.62
6707.00,0.62
6706.00,0.63
6705.00,0.63
6704.00,0.63
6703.00,0.63
6702.00,0.63
6701.00,0.63
6700.00,0.63
6699.00,0.63
6698.00,0.63
6697.00,0.63
6696.00,0.63
6695.00,0.63
6694.00,0.64
6693.00,0.64
6692.00,0.64
6691.00,0.64
6690.00,0.64
6689.00,0.64
6688.00,0.64
6687.00,0.64
6686.00,0.64
6685.00,0.65
6684.00,0.65
6683.00,0.65
6682.00,0.65
6681.00,0.65
6680.00,0.65
6679.00,0.65
6678.00,0.65
6677.00,0.65
6676.00,0.65
6675.00,0.65
6674.00,0.66
6673.00,0.66
6672.00,0.66
6671.00,0.66
6670.00,0.66
6669.00,0.66
6668.00,0.66
6667.00,0.66
6666.00,0.66
6665.00,0.66
6664.00,0.66
6663.00,0.67
6662.00,0.67
6661.00,0.67
6660.00,0.67
6659.00,0.67
6658.00,0.67
6657.00,0.67
6656.00,0.67
6655.00,0.67
6654.00,0.67
6653.00,0.68
6652.00,0.68
6651.00,0.68
6650.00,0.68
6649.00,0.68
6648.00,0.68
6647.00,0.68
6646.00,0.68
6645.00,0.68
6644.00,0.68
6643.00,0.68
6642.00,0.68
6641.00,0.68
6640.00,0.68
6639.00,0.69
6638.00,0.69
6637.00,0.69
6636.00,0.69
6635.00,0.69
6634.00,0.69
6633.00,0.69
6632.00,0.69
6631.00,0.69
6630.00,0.70
6629.00,0.70
6628.00,0.70
6627.00,0.70
6626.00,0.70
6625.00,0.70
6624.00,0.70
6623.00,0.70
6622.00,0.70
6621.00,0.70
6620.00,0.70
6619.00,0.70
6618.00,0.70
6617.00,0.71
6616.00,0.71
6615.00,0.71
6614.00,0.71
6613.00,0.71
6612.00,0.71
6611.00,0.71
6610.00,0.71
6609.00,0.71
6608.00,0.71
6607.00,0.71
6606.00,0.71
6605.00,0.72
6604.00,0.72
6603.00,0.72
6602.00,0.72
6601.00,0.72
6600.00,0.72
6599.00,0.72
6598.00,0.73
6597.00,0.73
6596.00,0.73
6595.00,0.73
6594.00,0.73
6593.00,0.73
6592.00,0.73
6591.00,0.74
6590.00,0.74
6589.00,0.74
6588.00,0.74
6587.00,0.74
6586.00,0.74
6585.00,0.74
6584.00,0.75
6583.00,0.75
6582.00,0.75
6581.00,0.75
6580.00,0.75
6579.00,0.75
6578.00,0.75
6577.00,0.75
6576.00,0.75
6575.00,0.75
6574.00,0.75
6573.00,0.75
6572.00,0.75
6571.00,0.75
6570.00,0.75
6569.00,0.75
6568.00,0.76
6567.00,0.76
6566.00,0.76
6565.00,0.76
6564.00,0.76
6563.00,0.76
6562.00,0.76
6561.00,0.76
6560.00,0.76
6559.00,0.76
6558.00,0.76
6557.00,0.76
6556.00,0.76
6555.00,0.76
6554.00,0.77
6553.00,0.77
6552.00,0.77
6551.00,0.77
6550.00,0.77
6549.00,0.77
6548.00,0.77
6547.00,0.77
6546.00,0.77
6545.00,0.77
6544.00,0.77
6543.00,0.77
6542.00,0.78
6541.00,0.78
6540.00,0.78
6539.00,0.78
6538.00,0.78
6537.00,0.78
6536.00,0.78
6535.00,0.78
6534.00,0.79
6533.00,0.79
6532.00,0.79
6531.00,0.79
6530.00,0.79
6529.00,0.79
6528.00,0.79
6527.00,0.79
6526.00,0.79
6525.00,0.79
6524.00,0.80
6523.00,0.80
6522.00,0.80
6521.00,0.80
6520.00,0.80
6519.00,0.80
6518.00,0.80
6517.00,0.80
6516.00,0.80
6515.00,0.80
6514.00,0.80
6513.00,0.80
6512.00,0.80
6511.00,0.80
6510.00,0.80
6509.00,0.80
6508.00,0.80
6507.00,0.80
6506.00,0.80
6505.00,0.81
6504.00,0.81
6503.00,0.81
6502.00,0.81
6501.00,0.81
6500.00,0.81
6499.00,0.81
6498.00,0.81
6497.00,0.81
6496.00,0.81
6495.00,0.81
6494.00,0.81
6493.00,0.82
6492.00,0.82
6491.00,0.82
6490.00,0.82
6489.00,0.82
6488.00,0.82
6487.00,0.82
6486.00,0.82
6485.00,0.82
6484.00,0.82
6483.00,0.82
6482.00,0.83
6481.00,0.83
6480.00,0.83
6479.00,0.83
6478.00,0.83
6477.00,0.83
6476.00,0.83
6475.00,0.83
6474.00,0.83
6473.00,0.83
6472.00,0.83
6471.00,0.83
6470.00,0.83
6469.00,0.83
6468.00,0.83
6467.00,0.83
6466.00,0.83
6465.00,0.83
6464.00,0.83
6463.00,0.84
6462.00,0.84
6461.00,0.84
6460.00,0.84
6459.00,0.84
6458.00,0.84
6457.00,0.84
6456.00,0.84
6455.00,0.85
6454.00,0.85
6453.00,0.85
6452.00,0.85
6451.00,0.85
6450.00,0.85
6449.00,0.85
6448.00,0.85
6447.00,0.85
6446.00,0.85
6445.00,0.85
6444.00,0.86
6443.00,0.86
6442.00,0.86
6441.00,0.86
6440.00,0.86
6439.00,0.86
6438.00,0.86
6437.00,0.86
6436.00,0.86
6435.00,0.86
6434.00,0.86
6433.00,0.86
6432.00,0.86
6431.00,0.86
6430.00,0.86
6429.00,0.86
6428.00,0.86
6427.00,0.86
6426.00,0.86
6425.00,0.86
6424.00,0.86
6423.00,0.86
6422.00,0.86
6421.00,0.86
6420.00,0.86
6419.00,0.86
6418.00,0.86
6417.00,0.87
6416.00,0.87
6415.00,0.87
6414.00,0.87
6413.00,0.87
6412.00,0.87
6411.00,0.87
6410.00,0.87
6409.00,0.87
6408.00,0.87
6407.00,0.87
6406.00,0.87
6405.00,0.88
6404.00,0.88
6403.00,0.88
6402.00,0.88
6401.00,0.88
6400.00,0.88
6399.00,0.88
6398.00,0.88
6397.00,0.88
6396.00,0.88
6395.00,0.89
6394.00,0.89
6393.00,0.89
6392.00,0.89
6391.00,0.89
6390.00,0.89
6389.00,0.89
6388.00,0.89
6387.00,0.89
6386.00,0.89
6385.00,0.89
6384.00,0.89
6383.00,0.89
6382.00,0.89
6381.00,0.89
6380.00,0.90
6379.00,0.90
6378.00,0.90
6377.00,0.90
6376.00,0.90
6375.00,0.90
6374.00,0.90
6373.00,0.90
6372.00,0.90
6371.00,0.91
6370.00,0.91
6369.00,0.91
6368.00,0.91
6367.00,0.91
6366.00,0.91
6365.00,0.91
6364.00,0.91
6363.00,0.91
6362.00,0.91
6361.00,0.91
6360.00,0.91
6359.00,0.91
6358.00,0.92
6357.00,0.92
6356.00,0.92
6355.00,0.92
6354.00,0.92
6353.00,0.92
6352.00,0.92
6351.00,0.92
6350.00,0.92
6349.00,0.92
6348.00,0.92
6347.00,0.92
6346.00,0.92
6345.00,0.93
6344.00,0.93
6343.00,0.93
6342.00,0.93
6341.00,0.93
6340.00,0.93
6339.00,0.93
6338.00,0.93
6337.00,0.93
6336.00,0.94
6335.00,0.94
6334.00,0.94
6333.00,0.94
6332.00,0.94
6331.00,0.94
6330.00,0.94
6329.00,0.94
6328.00,0.94
6327.00,0.94
6326.00,0.94
6325.00,0.94
6324.00,0.94
6323.00,0.94
6322.00,0.94
6321.00,0.95
6320.00,0.95
6319.00,0.95
6318.00,0.95
6317.00,0.95
6316.00,0.95
6315.00,0.95
6314.00,0.95
6313.00,0.95
6312.00,0.95
6311.00,0.95
6310.00,0.96
6309.00,0.96
6308.00,0.96
6307.00,0.96
6306.00,0.96
6305.00,0.96
6304.00,0.96
6303.00,0.97
6302.00,0.97
6301.00,0.97
6300.00,0.97
6299.00,0.97
6298.00,0.97
6297.00,0.97
6296.00,0.98
6295.00,0.98
6294.00,0.98
6293.00,0.98
6292.00,0.98
6291.00,0.98
6290.00,0.98
6289.00,0.98
6288.00,0.98
6287.00,0.98
6286.00,0.98
6285.00,0.99
6284.00,0.99
6283.00,0.99
6282.00,0.99
6281.00,0.99
6280.00,0.99
6279.00,0.99
6278.00,0.99
6277.00,0.99
6276.00,0.99
6275.00,0.99
6274.00,1.00
6273.00,1.00
6272.00,1.00
6271.00,1.00
6270.00,1.00
6269.00,1.00
6268.00,1.00
6267.00,1.01
6266.00,1.01
6265.00,1.01
6264.00,1.01
6263.00,1.01
6262.00,1.01
6261.00,1.01
6260.00,1.02
6259.00,1.02
6258.00,1.02
6257.00,1.02
6256.00,1.02
6255.00,1.02
6254.00,1.02
6253.00,1.02
6252.00,1.02
6251.00,1.03
6250.00,1.03
6249.00,1.03
6248.00,1.03
6247.00,1.03
6246.00,1.03
6245.00,1.03
6244.00,1.03
6243.00,1.04
6242.00,1.04
6241.00,1.04
6240.00,1.04
6239.00,1.04
6238.00,1.04
6237.00,1.04
6236.00,1.04
6235.00,1.05
6234.00,1.05
6233.00,1.05
6232.00,1.05
6231.00,1.05
6230.00,1.05
6229.00,1.05
6228.00,1.06
6227.00,1.06
6226.00,1.06
6225.00,1.06
6224.00,1.06
6223.00,1.06
6222.00,1.06
6221.00,1.06
6220.00,1.07
6219.00,1.07
6218.00,1.07
6217.00,1.07
6216.00,1.07
6215.00,1.07
6214.00,1.07
6213.00,1.07
6212.00,1.07
6211.00,1.07
6210.00,1.08
6209.00,1.08
6208.00,1.08
6207.00,1.08
6206.00,1.08
6205.00,1.08
6204.00,1.08
6203.00,1.08
6202.00,1.08
6201.00,1.08
6200.00,1.08
6199.00,1.09
6198.00,1.09
6197.00,1.09
6196.00,1.09
6195.00,1.09
6194.00,1.09
6193.00,1.09
6192.00,1.09
6191.00,1.10
6190.00,1.10
6189.00,1.10
6188.00,1.10
6187.00,1.10
6186.00,1.10
6185.00,1.10
6184.00,1.11
6183.00,1.11
6182.00,1.11
6181.00,1.11
6180.00,1.11
6179.00,1.11
6178.00,1.12
6177.00,1.12
6176.00,1.12
6175.00,1.12
6174.00,1.12
6173.00,1.12
6172.00,1.12
6171.00,1.13
6170.00,1.13
6169.00,1.13
6168.00,1.13
6167.00,1.13
6166.00,1.13
6165.00,1.13
6164.00,1.14
6163.00,1.14
6162.00,1.14
6161.00,1.14
6160.00,1.14
6159.00,1.14
6158.00,1.14
6157.00,1.14
6156.00,1.15
6155.00,1.15
6154.00,1.15
6153.00,1.15
6152.00,1.15
6151.00,1.15
6150.00,1.15
6149.00,1.15
6148.00,1.16
6147.00,1.16
6146.00,1.16
6145.00,1.16
6144.00,1.16
6143.00,1.16
6142.00,1.16
6141.00,1.17
6140.00,1.17
6139.00,1.17
6138.00,1.17
6137.00,1.17
6136.00,1.17
6135.00,1.17
6134.00,1.18
6133.00,1.18
6132.00,1.18
6131.00,1.18
6130.00,1.18
6129.00,1.18
6128.00,1.18
6127.00,1.18
6126.00,1.19
6125.00,1.19
6124.00,1.19
6123.00,1.19
6122.00,1.19
6121.00,1.19
6120.00,1.19
6119.00,1.19
6118.00,1.20
6117.00,1.20
6116.00,1.20
6115.00,1.20
6114.00,1.20
6113.00,1.20
6112.00,1.20
6111.00,1.20
6110.00,1.20
6109.00,1.20
6108.00,1.20
6107.00,1.21
6106.00,1.21
6105.00,1.21
6104.00,1.21
6103.00,1.21
6102.00,1.21
6101.00,1.21
6100.00,1.21
6099.00,1.22
6098.00,1.22
6097.00,1.22
6096.00,1.22
6095.00,1.22
6094.00,1.22
6093.00,1.22
6092.00,1.22
6091.00,1.23
6090.00,1.23
6089.00,1.23
6088.00,1.23
6087.00,1.23
6086.00,1.23
6085.00,1.23
6084.00,1.23
6083.00,1.23
6082.00,1.24
6081.00,1.24
6080.00,1.24
6079.00,1.24
6078.00,1.24
6077.00,1.24
6076.00,1.24
6075.00,1.24
6074.00,1.24
6073.00,1.24
6072.00,1.25
6071.00,1.25
6070.00,1.25
6069.00,1.25
6068.00,1.25
6067.00,1.25
6066.00,1.25
6065.00,1.26
6064.00,1.26
6063.00,1.26
6062.00,1.26
6061.00,1.26
6060.00,1.26
6059.00,1.26
6058.00,1.26
6057.00,1.26
6056.00,1.26
6055.00,1.26
6054.00,1.27
6053.00,1.27
6052.00,1.27
6051.00,1.27
6050.00,1.27
6049.00,1.27
6048.00,1.27
6047.00,1.27
6046.00,1.27
6045.00,1.27
6044.00,1.27
6043.00,1.27
6042.00,1.27
6041.00,1.27
6040.00,1.27
6039.00,1.27
6038.00,1.28
6037.00,1.28
6036.00,1.28
6035.00,1.28
6034.00,1.28
6033.00,1.28
6032.00,1.28
6031.00,1.28
6030.00,1.28
6029.00,1.28
6028.00,1.28
6027.00,1.28
6026.00,1.29
6025.00,1.29
6024.00,1.29
6023.00,1.29
6022.00,1.29
6021.00,1.29
6020.00,1.29
6019.00,1.29
6018.00,1.29
6017.00,1.29
6016.00,1.29
6015.00,1.29
6014.00,1.29
6013.00,1.29
6012.00,1.29
6011.00,1.29
6010.00,1.29
6009.00,1.29
6008.00,1.29
6007.00,1.29
6006.00,1.29
6005.00,1.29
6004.00,1.29
6003.00,1.29
6002.00,1.29
6001.00,1.29
6000.00,1.29
5999.00,1.29
5998.00,1.29
5997.00,1.29
5996.00,1.29
5995.00,1.28
5994.00,1.28
5993.00,1.28
5992.00,1.28
5991.00,1.28
5990.00,1.28
5989.00,1.28
5988.00,1.27
5987.00,1.27
5986.00,1.27
5985.00,1.27
5984.00,1.27
5983.00,1.26
5982.00,1.26
5981.00,1.26
5980.00,1.25
5979.00,1.25
5978.00,1.25
5977.00,1.24
5976.00,1.24
5975.00,1.24
5974.00,1.23
5973.00,1.23
5972.00,1.22
5971.00,1.22
5970.00,1.21
5969.00,1.21
5968.00,1.20
5967.00,1.20
5966.00,1.19
5965.00,1.18
5964.00,1.18
5963.00,1.17
5962.00,1.16
5961.00,1.16
5960.00,1.15
5959.00,1.15
5958.00,1.14
5957.00,1.13
5956.00,1.13
5955.00,1.12
5954.00,1.12
5953.00,1.11
5952.00,1.11
5951.00,1.10
5950.00,1.10
5949.00,1.09
5948.00,1.09
5947.00,1.08
5946.00,1.08
5945.00,1.08
5944.00,1.08
5943.00,1.07
5942.00,1.07
5941.00,1.07
5940.00,1.07
5939.00,1.07
5938.00,1.07
5937.00,1.07
5936.00,1.06
5935.00,1.06
5934.00,1.06
5933.00,1.06
5932.00,1.06
5931.00,1.06
5930.00,1.06
5929.00,1.06
5928.00,1.05
5927.00,1.05
5926.00,1.05
5925.00,1.05
5924.00,1.04
5923.00,1.04
5922.00,1.04
5921.00,1.04
5920.00,1.03
5919.00,1.03
5918.00,1.03
5917.00,1.03
5916.00,1.02
5915.00,1.02
5914.00,1.02
5913.00,1.02
5912.00,1.02
5911.00,1.01
5910.00,1.01
5909.00,1.01
5908.00,1.01
5907.00,1.01
5906.00,1.01
5905.00,1.01
5904.00,1.01
5903.00,1.01
5902.00,1.01
5901.00,1.01
5900.00,1.01
5899.00,1.01
5898.00,1.01
5897.00,1.01
5896.00,1.02
5895.00,1.02
5894.00,1.02
5893.00,1.02
5892.00,1.02
5891.00,1.03
5890.00,1.03
5889.00,1.03
5888.00,1.03
5887.00,1.03
5886.00,1.04
5885.00,1.04
5884.00,1.04
5883.00,1.05
5882.00,1.05
5881.00,1.05
5880.00,1.05
5879.00,1.06
5878.00,1.06
5877.00,1.06
5876.00,1.06
5875.00,1.06
5874.00,1.07
5873.00,1.07
5872.00,1.07
5871.00,1.07
5870.00,1.07
5869.00,1.08
5868.00,1.08
5867.00,1.08
5866.00,1.08
5865.00,1.08
5864.00,1.08
5863.00,1.09
5862.00,1.09
5861.00,1.09
5860.00,1.09
5859.00,1.09
5858.00,1.09
5857.00,1.09
5856.00,1.09
5855.00,1.09
5854.00,1.10
5853.00,1.10
5852.00,1.10
5851.00,1.10
5850.00,1.10
5849.00,1.10
5848.00,1.10
5847.00,1.10
5846.00,1.10
5845.00,1.10
5844.00,1.10
5843.00,1.10
5842.00,1.10
5841.00,1.10
5840.00,1.10
5839.00,1.10
5838.00,1.10
5837.00,1.10
5836.00,1.10
5835.00,1.10
5834.00,1.10
5833.00,1.10
5832.00,1.10
5831.00,1.10
5830.00,1.10
5829.00,1.10
5828.00,1.10
5827.00,1.10
5826.00,1.10
5825.00,1.10
5824.00,1.10
5823.00,1.10
5822.00,1.10
5821.00,1.10
5820.00,1.10
5819.00,1.10
5818.00,1.10
5817.00,1.10
5816.00,1.10
5815.00,1.10
5814.00,1.10
5813.00,1.10
5812.00,1.10
5811.00,1.10
5810.00,1.10
5809.00,1.10
5808.00,1.10
5807.00,1.10
5806.00,1.10
5805.00,1.10
5804.00,1.10
5803.00,1.10
5802.00,1.09
5801.00,1.09
5800.00,1.09
5799.00,1.09
5798.00,1.09
5797.00,1.09
5796.00,1.09
5795.00,1.08
5794.00,1.08
5793.00,1.08
5792.00,1.08
5791.00,1.08
5790.00,1.07
5789.00,1.07
5788.00,1.07
5787.00,1.07
5786.00,1.07
5785.00,1.06
5784.00,1.06
5783.00,1.06
5782.00,1.06
5781.00,1.06
5780.00,1.06
5779.00,1.06
5778.00,1.06
5777.00,1.06
5776.00,1.06
5775.00,1.06
5774.00,1.06
5773.00,1.06
5772.00,1.06
5771.00,1.06
5770.00,1.06
5769.00,1.06
5768.00,1.06
5767.00,1.06
5766.00,1.06
5765.00,1.06
5764.00,1.06
5763.00,1.06
5762.00,1.07
5761.00,1.07
5760.00,1.07
5759.00,1.07
5758.00,1.07
5757.00,1.08
5756.00,1.08
5755.00,1.08
5754.00,1.09
5753.00,1.09
5752.00,1.09
5751.00,1.09
5750.00,1.10
5749.00,1.10
5748.00,1.10
5747.00,1.11
5746.00,1.11
5745.00,1.11
5744.00,1.12
5743.00,1.12
5742.00,1.12
5741.00,1.12
5740.00,1.12
5739.00,1.13
5738.00,1.13
5737.00,1.13
5736.00,1.13
5735.00,1.13
5734.00,1.13
5733.00,1.13
5732.00,1.14
5731.00,1.14
5730.00,1.14
5729.00,1.14
5728.00,1.14
5727.00,1.14
5726.00,1.14
5725.00,1.14
5724.00,1.14
5723.00,1.14
5722.00,1.14
5721.00,1.14
5720.00,1.14
5719.00,1.14
5718.00,1.14
5717.00,1.14
5716.00,1.14
5715.00,1.14
5714.00,1.14
5713.00,1.14
5712.00,1.14
5711.00,1.14
5710.00,1.14
5709.00,1.14
5708.00,1.14
5707.00,1.14
5706.00,1.14
5705.00,1.14
5704.00,1.14
5703.00,1.13
5702.00,1.13
5701.00,1.13
5700.00,1.13
5699.00,1.13
5698.00,1.13
5697.00,1.13
5696.00,1.13
5695.00,1.13
5694.00,1.13
5693.00,1.13
5692.00,1.13
5691.00,1.12
5690.00,1.12
5689.00,1.12
5688.00,1.12
5687.00,1.12
5686.00,1.12
5685.00,1.12
5684.00,1.12
5683.00,1.11
5682.00,1.11
5681.00,1.11
5680.00,1.11
5679.00,1.11
5678.00,1.11
5677.00,1.11
5676.00,1.11
5675.00,1.11
5674.00,1.11
5673.00,1.11
5672.00,1.11
5671.00,1.11
5670.00,1.11
5669.00,1.11
5668.00,1.11
5667.00,1.11
5666.00,1.11
5665.00,1.11
5664.00,1.11
5663.00,1.11
5662.00,1.11
5661.00,1.11
5660.00,1.11
5659.00,1.12
5658.00,1.12
5657.00,1.12
5656.00,1.12
5655.00,1.12
5654.00,1.12
5653.00,1.12
5652.00,1.13
5651.00,1.13
5650.00,1.13
5649.00,1.13
5648.00,1.13
5647.00,1.13
5646.00,1.14
5645.00,1.14
5644.00,1.14
5643.00,1.14
5642.00,1.14
5641.00,1.14
5640.00,1.14
5639.00,1.14
5638.00,1.15
5637.00,1.15
5636.00,1.15
5635.00,1.15
5634.00,1.15
5633.00,1.15
5632.00,1.15
5631.00,1.15
5630.00,1.15
5629.00,1.16
5628.00,1.16
5627.00,1.16
5626.00,1.16
5625.00,1.16
5624.00,1.16
5623.00,1.17
5622.00,1.17
5621.00,1.17
5620.00,1.17
5619.00,1.17
5618.00,1.17
5617.00,1.18
5616.00,1.18
5615.00,1.18
5614.00,1.18
5613.00,1.18
5612.00,1.19
5611.00,1.19
5610.00,1.19
5609.00,1.19
5608.00,1.19
5607.00,1.19
5606.00,1.20
5605.00,1.20
5604.00,1.20
5603.00,1.20
5602.00,1.20
5601.00,1.20
5600.00,1.20
5599.00,1.20
5598.00,1.21
5597.00,1.21
5596.00,1.21
5595.00,1.21
5594.00,1.21
5593.00,1.21
5592.00,1.21
5591.00,1.22
5590.00,1.22
5589.00,1.22
5588.00,1.22
5587.00,1.22
5586.00,1.22
5585.00,1.22
5584.00,1.23
5583.00,1.23
5582.00,1.23
5581.00,1.23
5580.00,1.23
5579.00,1.23
5578.00,1.23
5577.00,1.24
5576.00,1.24
5575.00,1.24
5574.00,1.24
5573.00,1.24
5572.00,1.24
5571.00,1.24
5570.00,1.24
5569.00,1.24
5568.00,1.24
5567.00,1.25
5566.00,1.25
5565.00,1.25
5564.00,1.25
5563.00,1.25
5562.00,1.25
5561.00,1.25
5560.00,1.25
5559.00,1.25
5558.00,1.26
5557.00,1.26
5556.00,1.26
5555.00,1.26
5554.00,1.26
5553.00,1.26
5552.00,1.27
5551.00,1.27
5550.00,1.27
5549.00,1.27
5548.00,1.27
5547.00,1.27
5546.00,1.28
5545.00,1.28
5544.00,1.28
5543.00,1.28
5542.00,1.28
5541.00,1.28
5540.00,1.28
5539.00,1.29
5538.00,1.29
5537.00,1.29
5536.00,1.29
5535.00,1.29
5534.00,1.29
5533.00,1.29
5532.00,1.29
5531.00,1.29
5530.00,1.29
5529.00,1.29
5528.00,1.29
5527.00,1.29
5526.00,1.29
5525.00,1.30
5524.00,1.30
5523.00,1.30
5522.00,1.30
5521.00,1.30
5520.00,1.30
5519.00,1.30
5518.00,1.30
5517.00,1.30
5516.00,1.30
5515.00,1.30
5514.00,1.30
5513.00,1.30
5512.00,1.30
5511.00,1.30
5510.00,1.30
5509.00,1.31
5508.00,1.31
5507.00,1.31
5506.00,1.31
5505.00,1.31
5504.00,1.31
5503.00,1.31
5502.00,1.31
5501.00,1.31
5500.00,1.31
5499.00,1.31
5498.00,1.31
5497.00,1.31
5496.00,1.31
5495.00,1.31
5494.00,1.31
5493.00,1.31
5492.00,1.32
5491.00,1.32
5490.00,1.32
5489.00,1.32
5488.00,1.32
5487.00,1.32
5486.00,1.32
5485.00,1.32
5484.00,1.32
5483.00,1.32
5482.00,1.32
5481.00,1.33
5480.00,1.33
5479.00,1.33
5478.00,1.33
5477.00,1.33
5476.00,1.33
5475.00,1.33
5474.00,1.33
5473.00,1.34
5472.00,1.34
5471.00,1.34
5470.00,1.34
5469.00,1.34
5468.00,1.34
5467.00,1.34
5466.00,1.34
5465.00,1.35
5464.00,1.35
5463.00,1.35
5462.00,1.35
5461.00,1.35
5460.00,1.35
5459.00,1.35
5458.00,1.35
5457.00,1.35
5456.00,1.35
5455.00,1.35
5454.00,1.35
5453.00,1.35
5452.00,1.35
5451.00,1.35
5450.00,1.35
5449.00,1.35
5448.00,1.35
5447.00,1.35
5446.00,1.35
5445.00,1.35
5444.00,1.35
5443.00,1.35
5442.00,1.35
5441.00,1.35
5440.00,1.36
5439.00,1.36
5438.00,1.36
5437.00,1.36
5436.00,1.36
5435.00,1.36
5434.00,1.36
5433.00,1.36
5432.00,1.36
5431.00,1.36
5430.00,1.36
5429.00,1.36
5428.00,1.36
5427.00,1.36
5426.00,1.36
5425.00,1.36
5424.00,1.36
5423.00,1.36
5422.00,1.36
5421.00,1.36
5420.00,1.36
5419.00,1.36
5418.00,1.36
5417.00,1.36
5416.00,1.36
5415.00,1.36
5414.00,1.36
5413.00,1.36
5412.00,1.36
5411.00,1.36
5410.00,1.36
5409.00,1.36
5408.00,1.36
5407.00,1.36
5406.00,1.36
5405.00,1.36
5404.00,1.35
5403.00,1.35
5402.00,1.35
5401.00,1.35
5400.00,1.35
5399.00,1.35
5398.00,1.35
5397.00,1.35
5396.00,1.35
5395.00,1.35
5394.00,1.35
5393.00,1.35
5392.00,1.34
5391.00,1.34
5390.00,1.34
5389.00,1.34
5388.00,1.33
5387.00,1.33
5386.00,1.33
5385.00,1.33
5384.00,1.32
5383.00,1.32
5382.00,1.32
5381.00,1.31
5380.00,1.31
5379.00,1.30
5378.00,1.30
5377.00,1.30
5376.00,1.29
5375.00,1.29
5374.00,1.28
5373.00,1.28
5372.00,1.27
5371.00,1.27
5370.00,1.26
5369.00,1.26
5368.00,1.25
5367.00,1.25
5366.00,1.24
5365.00,1.24
5364.00,1.23
5363.00,1.23
5362.00,1.22
5361.00,1.22
5360.00,1.21
5359.00,1.20
5358.00,1.20
5357.00,1.19
5356.00,1.18
5355.00,1.18
5354.00,1.17
5353.00,1.16
5352.00,1.15
5351.00,1.14
5350.00,1.14
5349.00,1.13
5348.00,1.12
5347.00,1.11
5346.00,1.10
5345.00,1.09
5344.00,1.08
5343.00,1.07
5342.00,1.06
5341.00,1.05
5340.00,1.04
5339.00,1.03
5338.00,1.02
5337.00,1.01
5336.00,1.00
5335.00,0.99
5334.00,0.98
5333.00,0.97
5332.00,0.96
5331.00,0.95
5330.00,0.94
5329.00,0.93
5328.00,0.92
5327.00,0.91
5326.00,0.90
5325.00,0.90
5324.00,0.89
5323.00,0.88
5322.00,0.87
5321.00,0.86
5320.00,0.85
5319.00,0.84
5318.00,0.83
5317.00,0.82
5316.00,0.81
5315.00,0.80
5314.00,0.79
5313.00,0.78
5312.00,0.77
5311.00,0.77
5310.00,0.76
5309.00,0.75
5308.00,0.74
5307.00,0.74
5306.00,0.73
5305.00,0.72
5304.00,0.72
5303.00,0.71
5302.00,0.70
5301.00,0.70
5300.00,0.69
5299.00,0.69
5298.00,0.69
5297.00,0.68
5296.00,0.68
5295.00,0.67
5294.00,0.67
5293.00,0.67
5292.00,0.66
5291.00,0.66
5290.00,0.66
5289.00,0.66
5288.00,0.65
5287.00,0.65
5286.00,0.65
5285.00,0.65
5284.00,0.65
5283.00,0.64
5282.00,0.64
5281.00,0.64
5280.00,0.64
5279.00,0.64
5278.00,0.64
5277.00,0.63
5276.00,0.63
5275.00,0.63
5274.00,0.63
5273.00,0.63
5272.00,0.63
5271.00,0.63
5270.00,0.63
5269.00,0.63
5268.00,0.62
5267.00,0.62
5266.00,0.62
5265.00,0.62
5264.00,0.62
5263.00,0.62
5262.00,0.62
5261.00,0.62
5260.00,0.62
5259.00,0.62
5258.00,0.62
5257.00,0.62
5256.00,0.62
5255.00,0.62
5254.00,0.62
5253.00,0.62
5252.00,0.62
5251.00,0.62
5250.00,0.62
5249.00,0.62
5248.00,0.62
5247.00,0.62
5246.00,0.62
5245.00,0.62
5244.00,0.62
5243.00,0.62
5242.00,0.62
5241.00,0.62
5240.00,0.62
5239.00,0.62
5238.00,0.62
5237.00,0.62
5236.00,0.62
5235.00,0.62
5234.00,0.62
5233.00,0.62
5232.00,0.62
5231.00,0.62
5230.00,0.62
5229.00,0.62
5228.00,0.62
5227.00,0.62
5226.00,0.62
5225.00,0.62
5224.00,0.62
5223.00,0.62
5222.00,0.62
5221.00,0.62
5220.00,0.62
5219.00,0.62
5218.00,0.62
5217.00,0.62
5216.00,0.62
5215.00,0.62
5214.00,0.62
5213.00,0.62
5212.00,0.62
5211.00,0.62
5210.00,0.62
5209.00,0.63
5208.00,0.63
5207.00,0.63
5206.00,0.63
5205.00,0.63
5204.00,0.63
5203.00,0.63
5202.00,0.63
5201.00,0.63
5200.00,0.63
5199.00,0.63
5198.00,0.63
5197.00,0.63
5196.00,0.63
5195.00,0.63
5194.00,0.63
5193.00,0.63
5192.00,0.63
5191.00,0.63
5190.00,0.63
5189.00,0.64
5188.00,0.64
5187.00,0.64
5186.00,0.64
5185.00,0.64
5184.00,0.64
5183.00,0.64
5182.00,0.64
5181.00,0.64
5180.00,0.64
5179.00,0.64
5178.00,0.64
5177.00,0.64
5176.00,0.64
5175.00,0.64
5174.00,0.64
5173.00,0.64
5172.00,0.64
5171.00,0.64
5170.00,0.64
5169.00,0.64
5168.00,0.64
5167.00,0.64
5166.00,0.64
5165.00,0.64
5164.00,0.64
5163.00,0.64
5162.00,0.64
5161.00,0.64
5160.00,0.64
5159.00,0.64
5158.00,0.64
5157.00,0.64
5156.00,0.65
5155.00,0.65
5154.00,0.65
5153.00,0.65
5152.00,0.65
5151.00,0.65
5150.00,0.65
5149.00,0.65
5148.00,0.65
5147.00,0.65
5146.00,0.65
5145.00,0.65
5144.00,0.66
5143.00,0.66
5142.00,0.66
5141.00,0.66
5140.00,0.66
5139.00,0.66
5138.00,0.66
5137.00,0.66
5136.00,0.66
5135.00,0.66
5134.00,0.66
5133.00,0.66
5132.00,0.66
5131.00,0.66
5130.00,0.66
5129.00,0.67
5128.00,0.67
5127.00,0.67
5126.00,0.67
5125.00,0.67
5124.00,0.67
5123.00,0.67
5122.00,0.67
5121.00,0.67
5120.00,0.67
5119.00,0.67
5118.00,0.67
5117.00,0.67
5116.00,0.67
5115.00,0.67
5114.00,0.67
5113.00,0.67
5112.00,0.67
5111.00,0.67
5110.00,0.67
5109.00,0.67
5108.00,0.67
5107.00,0.67
5106.00,0.67
5105.00,0.67
5104.00,0.67
5103.00,0.67
5102.00,0.67
5101.00,0.67
5100.00,0.67
5099.00,0.67
5098.00,0.67
5097.00,0.68
5096.00,0.68
5095.00,0.68
5094.00,0.68
5093.00,0.68
5092.00,0.68
5091.00,0.68
5090.00,0.68
5089.00,0.68
5088.00,0.68
5087.00,0.68
5086.00,0.68
5085.00,0.68
5084.00,0.68
5083.00,0.69
5082.00,0.69
5081.00,0.69
5080.00,0.69
5079.00,0.69
5078.00,0.69
5077.00,0.69
5076.00,0.69
5075.00,0.69
5074.00,0.69
5073.00,0.69
5072.00,0.69
5071.00,0.69
5070.00,0.69
5069.00,0.69
5068.00,0.69
5067.00,0.69
5066.00,0.70
5065.00,0.70
5064.00,0.70
5063.00,0.70
5062.00,0.70
5061.00,0.70
5060.00,0.70
5059.00,0.70
5058.00,0.70
5057.00,0.70
5056.00,0.70
5055.00,0.70
5054.00,0.70
5053.00,0.71
5052.00,0.71
5051.00,0.71
5050.00,0.71
5049.00,0.71
5048.00,0.71
5047.00,0.71
5046.00,0.71
5045.00,0.71
5044.00,0.71
5043.00,0.72
5042.00,0.72
5041.00,0.72
5040.00,0.72
5039.00,0.72
5038.00,0.72
5037.00,0.72
5036.00,0.72
5035.00,0.72
5034.00,0.72
5033.00,0.72
5032.00,0.72
5031.00,0.72
5030.00,0.72
5029.00,0.72
5028.00,0.72
5027.00,0.72
5026.00,0.72
5025.00,0.72
5024.00,0.72
5023.00,0.73
5022.00,0.73
5021.00,0.73
5020.00,0.73
5019.00,0.73
5018.00,0.73
5017.00,0.73
5016.00,0.73
5015.00,0.73
5014.00,0.73
5013.00,0.73
5012.00,0.74
5011.00,0.74
5010.00,0.74
5009.00,0.74
5008.00,0.74
5007.00,0.74
5006.00,0.74
5005.00,0.74
5004.00,0.74
5003.00,0.74
5002.00,0.74
5001.00,0.74
5000.00,0.74
4999.00,0.74
4998.00,0.74
4997.00,0.74
4996.00,0.74
4995.00,0.74
4994.00,0.75
4993.00,0.75
4992.00,0.75
4991.00,0.75
4990.00,0.75
4989.00,0.75
4988.00,0.75
4987.00,0.75
4986.00,0.76
4985.00,0.76
4984.00,0.76
4983.00,0.76
4982.00,0.76
4981.00,0.76
4980.00,0.76
4979.00,0.76
4978.00,0.77
4977.00,0.77
4976.00,0.77
4975.00,0.77
4974.00,0.77
4973.00,0.77
4972.00,0.77
4971.00,0.77
4970.00,0.77
4969.00,0.77
4968.00,0.77
4967.00,0.77
4966.00,0.77
4965.00,0.78
4964.00,0.78
4963.00,0.78
4962.00,0.78
4961.00,0.78
4960.00,0.78
4959.00,0.78
4958.00,0.78
4957.00,0.78
4956.00,0.78
4955.00,0.78
4954.00,0.78
4953.00,0.78
4952.00,0.79
4951.00,0.79
4950.00,0.79
4949.00,0.79
4948.00,0.79
4947.00,0.79
4946.00,0.79
4945.00,0.79
4944.00,0.79
4943.00,0.79
4942.00,0.80
4941.00,0.80
4940.00,0.80
4939.00,0.80
4938.00,0.80
4937.00,0.80
4936.00,0.80
4935.00,0.80
4934.00,0.80
4933.00,0.81
4932.00,0.81
4931.00,0.81
4930.00,0.81
4929.00,0.81
4928.00,0.81
4927.00,0.81
4926.00,0.81
4925.00,0.81
4924.00,0.82
4923.00,0.82
4922.00,0.82
4921.00,0.82
4920.00,0.82
4919.00,0.82
4918.00,0.82
4917.00,0.82
4916.00,0.82
4915.00,0.82
4914.00,0.82
4913.00,0.82
4912.00,0.82
4911.00,0.82
4910.00,0.82
4909.00,0.82
4908.00,0.82
4907.00,0.83
4906.00,0.83
4905.00,0.83
4904.00,0.83
4903.00,0.83
4902.00,0.83
4901.00,0.83
4900.00,0.83
4899.00,0.83
4898.00,0.83
4897.00,0.83
4896.00,0.83
4895.00,0.83
4894.00,0.83
4893.00,0.83
4892.00,0.83
4891.00,0.84
4890.00,0.84
4889.00,0.84
4888.00,0.84
4887.00,0.84
4886.00,0.84
4885.00,0.84
4884.00,0.84
4883.00,0.84
4882.00,0.84
4881.00,0.84
4880.00,0.84
4879.00,0.84
4878.00,0.84
4877.00,0.84
4876.00,0.84
4875.00,0.84
4874.00,0.84
4873.00,0.84
4872.00,0.84
4871.00,0.84
4870.00,0.84
4869.00,0.85
4868.00,0.85
4867.00,0.85
4866.00,0.85
4865.00,0.85
4864.00,0.85
4863.00,0.85
4862.00,0.86
4861.00,0.86
4860.00,0.86
4859.00,0.86
4858.00,0.86
4857.00,0.86
4856.00,0.86
4855.00,0.87
4854.00,0.87
4853.00,0.87
4852.00,0.87
4851.00,0.87
4850.00,0.87
4849.00,0.87
4848.00,0.87
4847.00,0.87
4846.00,0.88
4845.00,0.88
4844.00,0.88
4843.00,0.88
4842.00,0.88
4841.00,0.88
4840.00,0.88
4839.00,0.88
4838.00,0.88
4837.00,0.88
4836.00,0.88
4835.00,0.88
4834.00,0.88
4833.00,0.88
4832.00,0.88
4831.00,0.88
4830.00,0.88
4829.00,0.88
4828.00,0.88
4827.00,0.88
4826.00,0.88
4825.00,0.88
4824.00,0.88
4823.00,0.89
4822.00,0.89
4821.00,0.89
4820.00,0.89
4819.00,0.89
4818.00,0.89
4817.00,0.89
4816.00,0.90
4815.00,0.90
4814.00,0.90
4813.00,0.90
4812.00,0.90
4811.00,0.90
4810.00,0.90
4809.00,0.91
4808.00,0.91
4807.00,0.91
4806.00,0.91
4805.00,0.91
4804.00,0.91
4803.00,0.91
4802.00,0.91
4801.00,0.91
4800.00,0.91
4799.00,0.91
4798.00,0.92
4797.00,0.92
4796.00,0.92
4795.00,0.92
4794.00,0.92
4793.00,0.92
4792.00,0.92
4791.00,0.92
4790.00,0.92
4789.00,0.93
4788.00,0.93
4787.00,0.93
4786.00,0.93
4785.00,0.93
4784.00,0.93
4783.00,0.93
4782.00,0.94
4781.00,0.94
4780.00,0.94
4779.00,0.94
4778.00,0.94
4777.00,0.94
4776.00,0.94
4775.00,0.94
4774.00,0.95
4773.00,0.95
4772.00,0.95
4771.00,0.95
4770.00,0.95
4769.00,0.95
4768.00,0.96
4767.00,0.96
4766.00,0.96
4765.00,0.96
4764.00,0.96
4763.00,0.97
4762.00,0.97
4761.00,0.97
4760.00,0.97
4759.00,0.97
4758.00,0.97
4757.00,0.97
4756.00,0.98
4755.00,0.98
4754.00,0.98
4753.00,0.98
4752.00,0.98
4751.00,0.98
4750.00,0.98
4749.00,0.98
4748.00,0.98
4747.00,0.99
4746.00,0.99
4745.00,0.99
4744.00,0.99
4743.00,0.99
4742.00,0.99
4741.00,0.99
4740.00,1.00
4739.00,1.00
4738.00,1.00
4737.00,1.00
4736.00,1.00
4735.00,1.00
4734.00,1.00
4733.00,1.01
4732.00,1.01
4731.00,1.01
4730.00,1.01
4729.00,1.01
4728.00,1.01
4727.00,1.02
4726.00,1.02
4725.00,1.02
4724.00,1.02
4723.00,1.02
4722.00,1.02
4721.00,1.03
4720.00,1.03
4719.00,1.03
4718.00,1.03
4717.00,1.03
4716.00,1.03
4715.00,1.04
4714.00,1.04
4713.00,1.04
4712.00,1.04
4711.00,1.04
4710.00,1.05
4709.00,1.05
4708.00,1.05
4707.00,1.05
4706.00,1.06
4705.00,1.06
4704.00,1.06
4703.00,1.06
4702.00,1.07
4701.00,1.07
4700.00,1.07
4699.00,1.07
4698.00,1.07
4697.00,1.08
4696.00,1.08
4695.00,1.08
4694.00,1.08
4693.00,1.08
4692.00,1.09
4691.00,1.09
4690.00,1.09
4689.00,1.09
4688.00,1.09
4687.00,1.09
4686.00,1.09
4685.00,1.10
4684.00,1.10
4683.00,1.10
4682.00,1.10
4681.00,1.10
4680.00,1.10
4679.00,1.10
4678.00,1.11
4677.00,1.11
4676.00,1.11
4675.00,1.11
4674.00,1.11
4673.00,1.11
4672.00,1.11
4671.00,1.12
4670.00,1.12
4669.00,1.12
4668.00,1.12
4667.00,1.12
4666.00,1.12
4665.00,1.12
4664.00,1.12
4663.00,1.13
4662.00,1.13
4661.00,1.13
4660.00,1.13
4659.00,1.13
4658.00,1.13
4657.00,1.13
4656.00,1.13
4655.00,1.14
4654.00,1.14
4653.00,1.14
4652.00,1.14
4651.00,1.14
4650.00,1.14
4649.00,1.15
4648.00,1.15
4647.00,1.15
4646.00,1.15
4645.00,1.15
4644.00,1.15
4643.00,1.15
4642.00,1.16
4641.00,1.16
4640.00,1.16
4639.00,1.16
4638.00,1.16
4637.00,1.16
4636.00,1.16
4635.00,1.16
4634.00,1.16
4633.00,1.16
4632.00,1.16
4631.00,1.17
4630.00,1.17
4629.00,1.17
4628.00,1.17
4627.00,1.17
4626.00,1.17
4625.00,1.18
4624.00,1.18
4623.00,1.18
4622.00,1.18
4621.00,1.18
4620.00,1.18
4619.00,1.19
4618.00,1.19
4617.00,1.19
4616.00,1.19
4615.00,1.19
4614.00,1.19
4613.00,1.19
4612.00,1.19
4611.00,1.19
4610.00,1.19
4609.00,1.19
4608.00,1.19
4607.00,1.19
4606.00,1.19
4605.00,1.19
4604.00,1.19
4603.00,1.19
4602.00,1.19
4601.00,1.19
4600.00,1.19
4599.00,1.20
4598.00,1.20
4597.00,1.20
4596.00,1.20
4595.00,1.20
4594.00,1.20
4593.00,1.20
4592.00,1.21
4591.00,1.21
4590.00,1.21
4589.00,1.21
4588.00,1.21
4587.00,1.22
4586.00,1.22
4585.00,1.22
4584.00,1.22
4583.00,1.22
4582.00,1.22
4581.00,1.23
4580.00,1.23
4579.00,1.23
4578.00,1.23
4577.00,1.23
4576.00,1.23
4575.00,1.23
4574.00,1.23
4573.00,1.23
4572.00,1.24
4571.00,1.24
4570.00,1.24
4569.00,1.24
4568.00,1.24
4567.00,1.24
4566.00,1.24
4565.00,1.24
4564.00,1.24
4563.00,1.24
4562.00,1.24
4561.00,1.24
4560.00,1.24
4559.00,1.25
4558.00,1.25
4557.00,1.25
4556.00,1.25
4555.00,1.25
4554.00,1.25
4553.00,1.25
4552.00,1.26
4551.00,1.26
4550.00,1.26
4549.00,1.26
4548.00,1.26
4547.00,1.26
4546.00,1.26
4545.00,1.27
4544.00,1.27
4543.00,1.27
4542.00,1.27
4541.00,1.27
4540.00,1.27
4539.00,1.27
4538.00,1.27
4537.00,1.27
4536.00,1.27
4535.00,1.27
4534.00,1.27
4533.00,1.27
4532.00,1.27
4531.00,1.27
4530.00,1.27
4529.00,1.28
4528.00,1.28
4527.00,1.28
4526.00,1.28
4525.00,1.28
4524.00,1.28
4523.00,1.28
4522.00,1.28
4521.00,1.28
4520.00,1.28
4519.00,1.28
4518.00,1.28
4517.00,1.28
4516.00,1.28
4515.00,1.28
4514.00,1.28
4513.00,1.28
4512.00,1.28
4511.00,1.27
4510.00,1.27
4509.00,1.27
4508.00,1.27
4507.00,1.27
4506.00,1.27
4505.00,1.27
4504.00,1.27
4503.00,1.27
4502.00,1.27
4501.00,1.27
4500.00,1.27
4499.00,1.27
4498.00,1.27
4497.00,1.27
4496.00,1.27
4495.00,1.27
4494.00,1.27
4493.00,1.27
4492.00,1.27
4491.00,1.27
4490.00,1.27
4489.00,1.27
4488.00,1.26
4487.00,1.26
4486.00,1.26
4485.00,1.26
4484.00,1.26
4483.00,1.26
4482.00,1.26
4481.00,1.26
4480.00,1.25
4479.00,1.25
4478.00,1.25
4477.00,1.25
4476.00,1.25
4475.00,1.25
4474.00,1.24
4473.00,1.24
4472.00,1.24
4471.00,1.24
4470.00,1.23
4469.00,1.23
4468.00,1.23
4467.00,1.23
4466.00,1.22
4465.00,1.22
4464.00,1.22
4463.00,1.21
4462.00,1.21
4461.00,1.21
4460.00,1.20
4459.00,1.20
4458.00,1.20
4457.00,1.19
4456.00,1.19
4455.00,1.19
4454.00,1.18
4453.00,1.18
4452.00,1.18
4451.00,1.17
4450.00,1.17
4449.00,1.17
4448.00,1.16
4447.00,1.16
4446.00,1.15
4445.00,1.15
4444.00,1.15
4443.00,1.14
4442.00,1.14
4441.00,1.13
4440.00,1.13
4439.00,1.12
4438.00,1.12
4437.00,1.12
4436.00,1.11
4435.00,1.11
4434.00,1.10
4433.00,1.10
4432.00,1.10
4431.00,1.09
4430.00,1.09
4429.00,1.09
4428.00,1.08
4427.00,1.08
4426.00,1.08
4425.00,1.08
4424.00,1.07
4423.00,1.07
4422.00,1.07
4421.00,1.07
4420.00,1.07
4419.00,1.07
4418.00,1.06
4417.00,1.06
4416.00,1.06
4415.00,1.06
4414.00,1.06
4413.00,1.06
4412.00,1.06
4411.00,1.06
4410.00,1.06
4409.00,1.06
4408.00,1.06
4407.00,1.06
4406.00,1.06
4405.00,1.06
4404.00,1.06
4403.00,1.07
4402.00,1.07
4401.00,1.07
4400.00,1.07
4399.00,1.07
4398.00,1.07
4397.00,1.07
4396.00,1.07
4395.00,1.07
4394.00,1.07
4393.00,1.07
4392.00,1.08
4391.00,1.08
4390.00,1.08
4389.00,1.08
4388.00,1.08
4387.00,1.09
4386.00,1.09
4385.00,1.09
4384.00,1.09
4383.00,1.10
4382.00,1.10
4381.00,1.10
4380.00,1.10
4379.00,1.10
4378.00,1.10
4377.00,1.10
4376.00,1.10
4375.00,1.11
4374.00,1.11
4373.00,1.11
4372.00,1.11
4371.00,1.11
4370.00,1.11
4369.00,1.11
4368.00,1.11
4367.00,1.11
4366.00,1.11
4365.00,1.11
4364.00,1.11
4363.00,1.11
4362.00,1.11
4361.00,1.11
4360.00,1.11
4359.00,1.11
4358.00,1.11
4357.00,1.11
4356.00,1.11
4355.00,1.11
4354.00,1.11
4353.00,1.11
4352.00,1.11
4351.00,1.11
4350.00,1.11
4349.00,1.10
4348.00,1.10
4347.00,1.10
4346.00,1.10
4345.00,1.10
4344.00,1.10
4343.00,1.10
4342.00,1.10
4341.00,1.10
4340.00,1.10
4339.00,1.10
4338.00,1.11
4337.00,1.11
4336.00,1.11
4335.00,1.11
4334.00,1.11
4333.00,1.11
4332.00,1.11
4331.00,1.11
4330.00,1.12
4329.00,1.12
4328.00,1.12
4327.00,1.12
4326.00,1.12
4325.00,1.12
4324.00,1.13
4323.00,1.13
4322.00,1.13
4321.00,1.13
4320.00,1.13
4319.00,1.14
4318.00,1.14
4317.00,1.14
4316.00,1.14
4315.00,1.14
4314.00,1.14
4313.00,1.15
4312.00,1.15
4311.00,1.15
4310.00,1.15
4309.00,1.15
4308.00,1.15
4307.00,1.15
4306.00,1.15
4305.00,1.15
4304.00,1.15
4303.00,1.15
4302.00,1.16
4301.00,1.16
4300.00,1.16
4299.00,1.16
4298.00,1.16
4297.00,1.17
4296.00,1.17
4295.00,1.17
4294.00,1.17
4293.00,1.17
4292.00,1.18
4291.00,1.18
4290.00,1.18
4289.00,1.18
4288.00,1.18
4287.00,1.18
4286.00,1.19
4285.00,1.19
4284.00,1.19
4283.00,1.19
4282.00,1.19
4281.00,1.19
4280.00,1.19
4279.00,1.19
4278.00,1.19
4277.00,1.19
4276.00,1.19
4275.00,1.19
4274.00,1.19
4273.00,1.19
4272.00,1.19
4271.00,1.19
4270.00,1.19
4269.00,1.19
4268.00,1.19
4267.00,1.19
4266.00,1.19
4265.00,1.19
4264.00,1.19
4263.00,1.19
4262.00,1.19
4261.00,1.19
4260.00,1.19
4259.00,1.19
4258.00,1.19
4257.00,1.19
4256.00,1.19
4255.00,1.19
4254.00,1.19
4253.00,1.19
4252.00,1.19
4251.00,1.19
4250.00,1.19
4249.00,1.19
4248.00,1.19
4247.00,1.20
4246.00,1.20
4245.00,1.20
4244.00,1.20
4243.00,1.20
4242.00,1.20
4241.00,1.20
4240.00,1.20
4239.00,1.20
4238.00,1.20
4237.00,1.21
4236.00,1.21
4235.00,1.21
4234.00,1.21
4233.00,1.21
4232.00,1.21
4231.00,1.21
4230.00,1.21
4229.00,1.21
4228.00,1.21
4227.00,1.22
4226.00,1.22
4225.00,1.22
4224.00,1.22
4223.00,1.22
4222.00,1.22
4221.00,1.22
4220.00,1.22
4219.00,1.22
4218.00,1.22
4217.00,1.22
4216.00,1.22
4215.00,1.22
4214.00,1.22
4213.00,1.21
4212.00,1.21
4211.00,1.21
4210.00,1.21
4209.00,1.21
4208.00,1.21
4207.00,1.21
4206.00,1.21
4205.00,1.21
4204.00,1.21
4203.00,1.21
4202.00,1.21
4201.00,1.21
4200.00,1.22
4199.00,1.22
4198.00,1.22
4197.00,1.22
4196.00,1.22
4195.00,1.22
4194.00,1.22
4193.00,1.22
4192.00,1.23
4191.00,1.23
4190.00,1.23
4189.00,1.23
4188.00,1.23
4187.00,1.23
4186.00,1.23
4185.00,1.24
4184.00,1.24
4183.00,1.24
4182.00,1.24
4181.00,1.24
4180.00,1.24
4179.00,1.24
4178.00,1.24
4177.00,1.24
4176.00,1.24
4175.00,1.24
4174.00,1.24
4173.00,1.24
4172.00,1.24
4171.00,1.24
4170.00,1.24
4169.00,1.24
4168.00,1.24
4167.00,1.24
4166.00,1.24
4165.00,1.24
4164.00,1.24
4163.00,1.24
4162.00,1.24
4161.00,1.24
4160.00,1.24
4159.00,1.24
4158.00,1.24
4157.00,1.25
4156.00,1.25
4155.00,1.25
4154.00,1.25
4153.00,1.25
4152.00,1.25
4151.00,1.25
4150.00,1.25
4149.00,1.25
4148.00,1.25
4147.00,1.25
4146.00,1.25
4145.00,1.25
4144.00,1.25
4143.00,1.25
4142.00,1.25
4141.00,1.25
4140.00,1.25
4139.00,1.25
4138.00,1.25
4137.00,1.26
4136.00,1.26
4135.00,1.26
4134.00,1.26
4133.00,1.26
4132.00,1.26
4131.00,1.26
4130.00,1.27
4129.00,1.27
4128.00,1.27
4127.00,1.27
4126.00,1.27
4125.00,1.27
4124.00,1.27
4123.00,1.27
4122.00,1.27
4121.00,1.28
4120.00,1.28
4119.00,1.28
4118.00,1.28
4117.00,1.28
4116.00,1.28
4115.00,1.28
4114.00,1.28
4113.00,1.28
4112.00,1.28
4111.00,1.29
4110.00,1.29
4109.00,1.29
4108.00,1.29
4107.00,1.29
4106.00,1.29
4105.00,1.29
4104.00,1.29
4103.00,1.29
4102.00,1.29
4101.00,1.29
4100.00,1.29
4099.00,1.29
4098.00,1.29
4097.00,1.29
4096.00,1.29
4095.00,1.29
4094.00,1.29
4093.00,1.29
4092.00,1.29
4091.00,1.29
4090.00,1.29
4089.00,1.29
4088.00,1.29
4087.00,1.29
4086.00,1.29
4085.00,1.29
4084.00,1.30
4083.00,1.30
4082.00,1.30
4081.00,1.30
4080.00,1.30
4079.00,1.30
4078.00,1.30
4077.00,1.30
4076.00,1.30
4075.00,1.30
4074.00,1.30
4073.00,1.30
4072.00,1.30
4071.00,1.30
4070.00,1.30
4069.00,1.30
4068.00,1.30
4067.00,1.30
4066.00,1.30
4065.00,1.30
4064.00,1.30
4063.00,1.30
4062.00,1.30
4061.00,1.30
4060.00,1.30
4059.00,1.31
4058.00,1.31
4057.00,1.31
4056.00,1.31
4055.00,1.31
4054.00,1.31
4053.00,1.31
4052.00,1.31
4051.00,1.32
4050.00,1.32
4049.00,1.32
4048.00,1.32
4047.00,1.32
4046.00,1.32
4045.00,1.33
4044.00,1.33
4043.00,1.33
4042.00,1.33
4041.00,1.33
4040.00,1.33
4039.00,1.33
4038.00,1.33
4037.00,1.33
4036.00,1.33
4035.00,1.33
4034.00,1.33
4033.00,1.33
4032.00,1.33
4031.00,1.33
4030.00,1.33
4029.00,1.33
4028.00,1.33
4027.00,1.33
4026.00,1.33
4025.00,1.33
4024.00,1.33
4023.00,1.33
4022.00,1.33
4021.00,1.34
4020.00,1.34
4019.00,1.34
4018.00,1.34
4017.00,1.34
4016.00,1.35
4015.00,1.35
4014.00,1.35
4013.00,1.35
4012.00,1.35
4011.00,1.35
4010.00,1.36
4009.00,1.36
4008.00,1.36
4007.00,1.36
4006.00,1.36
4005.00,1.36
4004.00,1.36
4003.00,1.36
4002.00,1.36
4001.00,1.36
4000.00,1.36
