创建为新数据集,样品 042 用户 Administrator 日期 星期三, 十一月 01 2017
cm-1,%T
10000.00,1.44
9999.00,1.44
9998.00,1.44
9997.00,1.44
9996.00,1.44
9995.00,1.44
9994.00,1.44
9993.00,1.44
9992.00,1.44
9991.00,1.44
9990.00,1.44
9989.00,1.44
9988.00,1.44
9987.00,1.44
9986.00,1.44
9985.00,1.44
9984.00,1.44
9983.00,1.44
9982.00,1.44
9981.00,1.44
9980.00,1.44
9979.00,1.44
9978.00,1.44
9977.00,1.44
9976.00,1.44
9975.00,1.44
9974.00,1.44
9973.00,1.44
9972.00,1.44
9971.00,1.44
9970.00,1.44
9969.00,1.44
9968.00,1.44
9967.00,1.44
9966.00,1.44
9965.00,1.44
9964.00,1.44
9963.00,1.44
9962.00,1.44
9961.00,1.44
9960.00,1.44
9959.00,1.44
9958.00,1.44
9957.00,1.44
9956.00,1.44
9955.00,1.44
9954.00,1.44
9953.00,1.44
9952.00,1.44
9951.00,1.44
9950.00,1.44
9949.00,1.44
9948.00,1.44
9947.00,1.43
9946.00,1.43
9945.00,1.43
9944.00,1.43
9943.00,1.43
9942.00,1.43
9941.00,1.42
9940.00,1.42
9939.00,1.42
9938.00,1.42
9937.00,1.42
9936.00,1.41
9935.00,1.41
9934.00,1.41
9933.00,1.41
9932.00,1.41
9931.00,1.41
9930.00,1.41
9929.00,1.41
9928.00,1.41
9927.00,1.41
9926.00,1.41
9925.00,1.41
9924.00,1.41
9923.00,1.41
9922.00,1.42
9921.00,1.42
9920.00,1.42
9919.00,1.42
9918.00,1.42
9917.00,1.43
9916.00,1.43
9915.00,1.43
9914.00,1.43
9913.00,1.43
9912.00,1.44
9911.00,1.44
9910.00,1.44
9909.00,1.44
9908.00,1.44
9907.00,1.44
9906.00,1.44
9905.00,1.44
9904.00,1.44
9903.00,1.44
9902.00,1.44
9901.00,1.44
9900.00,1.43
9899.00,1.43
9898.00,1.43
9897.00,1.43
9896.00,1.43
9895.00,1.43
9894.00,1.42
9893.00,1.42
9892.00,1.42
9891.00,1.42
9890.00,1.42
9889.00,1.42
9888.00,1.42
9887.00,1.42
9886.00,1.42
9885.00,1.42
9884.00,1.43
9883.00,1.43
9882.00,1.43
9881.00,1.43
9880.00,1.43
9879.00,1.43
9878.00,1.43
9877.00,1.43
9876.00,1.43
9875.00,1.43
9874.00,1.42
9873.00,1.42
9872.00,1.42
9871.00,1.42
9870.00,1.42
9869.00,1.42
9868.00,1.42
9867.00,1.42
9866.00,1.42
9865.00,1.42
9864.00,1.42
9863.00,1.42
9862.00,1.42
9861.00,1.42
9860.00,1.43
9859.00,1.43
9858.00,1.43
9857.00,1.43
9856.00,1.43
9855.00,1.43
9854.00,1.43
9853.00,1.43
9852.00,1.43
9851.00,1.44
9850.00,1.44
9849.00,1.43
9848.00,1.43
9847.00,1.43
9846.00,1.43
9845.00,1.43
9844.00,1.43
9843.00,1.43
9842.00,1.43
9841.00,1.43
9840.00,1.43
9839.00,1.43
9838.00,1.43
9837.00,1.43
9836.00,1.43
9835.00,1.43
9834.00,1.43
9833.00,1.42
9832.00,1.42
9831.00,1.42
9830.00,1.42
9829.00,1.42
9828.00,1.42
9827.00,1.42
9826.00,1.42
9825.00,1.42
9824.00,1.41
9823.00,1.41
9822.00,1.41
9821.00,1.41
9820.00,1.41
9819.00,1.41
9818.00,1.41
9817.00,1.41
9816.00,1.41
9815.00,1.41
9814.00,1.41
9813.00,1.41
9812.00,1.41
9811.00,1.41
9810.00,1.41
9809.00,1.41
9808.00,1.41
9807.00,1.41
9806.00,1.41
9805.00,1.41
9804.00,1.41
9803.00,1.41
9802.00,1.41
9801.00,1.41
9800.00,1.41
9799.00,1.41
9798.00,1.41
9797.00,1.41
9796.00,1.41
9795.00,1.41
9794.00,1.41
9793.00,1.41
9792.00,1.41
9791.00,1.41
9790.00,1.41
9789.00,1.41
9788.00,1.41
9787.00,1.41
9786.00,1.40
9785.00,1.40
9784.00,1.40
9783.00,1.40
9782.00,1.40
9781.00,1.40
9780.00,1.40
9779.00,1.40
9778.00,1.41
9777.00,1.41
9776.00,1.41
9775.00,1.41
9774.00,1.41
9773.00,1.41
9772.00,1.41
9771.00,1.41
9770.00,1.42
9769.00,1.42
9768.00,1.42
9767.00,1.42
9766.00,1.42
9765.00,1.43
9764.00,1.43
9763.00,1.43
9762.00,1.43
9761.00,1.43
9760.00,1.43
9759.00,1.43
9758.00,1.42
9757.00,1.42
9756.00,1.42
9755.00,1.42
9754.00,1.42
9753.00,1.41
9752.00,1.41
9751.00,1.41
9750.00,1.41
9749.00,1.40
9748.00,1.40
9747.00,1.40
9746.00,1.40
9745.00,1.40
9744.00,1.40
9743.00,1.39
9742.00,1.39
9741.00,1.39
9740.00,1.39
9739.00,1.39
9738.00,1.39
9737.00,1.39
9736.00,1.39
9735.00,1.39
9734.00,1.39
9733.00,1.39
9732.00,1.39
9731.00,1.39
9730.00,1.39
9729.00,1.39
9728.00,1.39
9727.00,1.39
9726.00,1.39
9725.00,1.40
9724.00,1.40
9723.00,1.40
9722.00,1.40
9721.00,1.40
9720.00,1.40
9719.00,1.40
9718.00,1.40
9717.00,1.40
9716.00,1.40
9715.00,1.40
9714.00,1.40
9713.00,1.40
9712.00,1.40
9711.00,1.40
9710.00,1.40
9709.00,1.40
9708.00,1.40
9707.00,1.40
9706.00,1.40
9705.00,1.40
9704.00,1.40
9703.00,1.40
9702.00,1.40
9701.00,1.40
9700.00,1.40
9699.00,1.40
9698.00,1.40
9697.00,1.40
9696.00,1.40
9695.00,1.40
9694.00,1.40
9693.00,1.40
9692.00,1.40
9691.00,1.40
9690.00,1.40
9689.00,1.40
9688.00,1.41
9687.00,1.41
9686.00,1.41
9685.00,1.41
9684.00,1.41
9683.00,1.41
9682.00,1.41
9681.00,1.41
9680.00,1.40
9679.00,1.40
9678.00,1.40
9677.00,1.40
9676.00,1.40
9675.00,1.39
9674.00,1.39
9673.00,1.39
9672.00,1.39
9671.00,1.39
9670.00,1.38
9669.00,1.38
9668.00,1.38
9667.00,1.38
9666.00,1.38
9665.00,1.38
9664.00,1.38
9663.00,1.39
9662.00,1.39
9661.00,1.39
9660.00,1.39
9659.00,1.40
9658.00,1.40
9657.00,1.40
9656.00,1.41
9655.00,1.41
9654.00,1.41
9653.00,1.42
9652.00,1.42
9651.00,1.43
9650.00,1.43
9649.00,1.43
9648.00,1.43
9647.00,1.44
9646.00,1.44
9645.00,1.44
9644.00,1.44
9643.00,1.44
9642.00,1.44
9641.00,1.44
9640.00,1.44
9639.00,1.44
9638.00,1.44
9637.00,1.44
9636.00,1.44
9635.00,1.44
9634.00,1.43
9633.00,1.43
9632.00,1.43
9631.00,1.43
9630.00,1.42
9629.00,1.42
9628.00,1.42
9627.00,1.42
9626.00,1.42
9625.00,1.41
9624.00,1.41
9623.00,1.41
9622.00,1.41
9621.00,1.41
9620.00,1.41
9619.00,1.41
9618.00,1.41
9617.00,1.41
9616.00,1.41
9615.00,1.41
9614.00,1.41
9613.00,1.41
9612.00,1.40
9611.00,1.40
9610.00,1.40
9609.00,1.40
9608.00,1.40
9607.00,1.40
9606.00,1.40
9605.00,1.40
9604.00,1.40
9603.00,1.40
9602.00,1.40
9601.00,1.40
9600.00,1.40
9599.00,1.40
9598.00,1.40
9597.00,1.40
9596.00,1.40
9595.00,1.40
9594.00,1.40
9593.00,1.40
9592.00,1.40
9591.00,1.40
9590.00,1.40
9589.00,1.40
9588.00,1.40
9587.00,1.41
9586.00,1.41
9585.00,1.41
9584.00,1.41
9583.00,1.41
9582.00,1.41
9581.00,1.41
9580.00,1.42
9579.00,1.42
9578.00,1.42
9577.00,1.42
9576.00,1.42
9575.00,1.42
9574.00,1.42
9573.00,1.42
9572.00,1.42
9571.00,1.42
9570.00,1.42
9569.00,1.42
9568.00,1.42
9567.00,1.42
9566.00,1.42
9565.00,1.41
9564.00,1.41
9563.00,1.41
9562.00,1.41
9561.00,1.41
9560.00,1.41
9559.00,1.40
9558.00,1.40
9557.00,1.40
9556.00,1.40
9555.00,1.40
9554.00,1.40
9553.00,1.40
9552.00,1.40
9551.00,1.40
9550.00,1.40
9549.00,1.40
9548.00,1.40
9547.00,1.40
9546.00,1.40
9545.00,1.41
9544.00,1.41
9543.00,1.41
9542.00,1.41
9541.00,1.41
9540.00,1.41
9539.00,1.41
9538.00,1.41
9537.00,1.42
9536.00,1.42
9535.00,1.42
9534.00,1.42
9533.00,1.42
9532.00,1.42
9531.00,1.42
9530.00,1.42
9529.00,1.42
9528.00,1.42
9527.00,1.42
9526.00,1.42
9525.00,1.42
9524.00,1.42
9523.00,1.42
9522.00,1.42
9521.00,1.42
9520.00,1.43
9519.00,1.43
9518.00,1.43
9517.00,1.43
9516.00,1.43
9515.00,1.43
9514.00,1.43
9513.00,1.43
9512.00,1.43
9511.00,1.43
9510.00,1.43
9509.00,1.43
9508.00,1.43
9507.00,1.43
9506.00,1.43
9505.00,1.43
9504.00,1.43
9503.00,1.43
9502.00,1.43
9501.00,1.43
9500.00,1.43
9499.00,1.43
9498.00,1.43
9497.00,1.43
9496.00,1.43
9495.00,1.43
9494.00,1.43
9493.00,1.43
9492.00,1.43
9491.00,1.43
9490.00,1.43
9489.00,1.43
9488.00,1.43
9487.00,1.43
9486.00,1.43
9485.00,1.43
9484.00,1.43
9483.00,1.43
9482.00,1.43
9481.00,1.43
9480.00,1.43
9479.00,1.43
9478.00,1.43
9477.00,1.43
9476.00,1.43
9475.00,1.42
9474.00,1.42
9473.00,1.42
9472.00,1.42
9471.00,1.42
9470.00,1.42
9469.00,1.42
9468.00,1.42
9467.00,1.42
9466.00,1.42
9465.00,1.42
9464.00,1.42
9463.00,1.42
9462.00,1.42
9461.00,1.42
9460.00,1.42
9459.00,1.42
9458.00,1.42
9457.00,1.42
9456.00,1.42
9455.00,1.42
9454.00,1.42
9453.00,1.42
9452.00,1.42
9451.00,1.42
9450.00,1.42
9449.00,1.42
9448.00,1.42
9447.00,1.42
9446.00,1.42
9445.00,1.42
9444.00,1.42
9443.00,1.42
9442.00,1.42
9441.00,1.42
9440.00,1.42
9439.00,1.42
9438.00,1.42
9437.00,1.42
9436.00,1.42
9435.00,1.42
9434.00,1.42
9433.00,1.42
9432.00,1.42
9431.00,1.42
9430.00,1.42
9429.00,1.41
9428.00,1.41
9427.00,1.41
9426.00,1.41
9425.00,1.41
9424.00,1.41
9423.00,1.41
9422.00,1.41
9421.00,1.40
9420.00,1.40
9419.00,1.40
9418.00,1.40
9417.00,1.40
9416.00,1.40
9415.00,1.40
9414.00,1.40
9413.00,1.40
9412.00,1.41
9411.00,1.41
9410.00,1.41
9409.00,1.41
9408.00,1.41
9407.00,1.41
9406.00,1.41
9405.00,1.41
9404.00,1.41
9403.00,1.41
9402.00,1.41
9401.00,1.42
9400.00,1.42
9399.00,1.42
9398.00,1.42
9397.00,1.42
9396.00,1.42
9395.00,1.42
9394.00,1.42
9393.00,1.42
9392.00,1.42
9391.00,1.42
9390.00,1.42
9389.00,1.42
9388.00,1.42
9387.00,1.42
9386.00,1.42
9385.00,1.42
9384.00,1.43
9383.00,1.43
9382.00,1.43
9381.00,1.43
9380.00,1.43
9379.00,1.43
9378.00,1.43
9377.00,1.43
9376.00,1.43
9375.00,1.43
9374.00,1.43
9373.00,1.43
9372.00,1.43
9371.00,1.43
9370.00,1.43
9369.00,1.43
9368.00,1.43
9367.00,1.43
9366.00,1.43
9365.00,1.43
9364.00,1.43
9363.00,1.43
9362.00,1.43
9361.00,1.43
9360.00,1.43
9359.00,1.43
9358.00,1.43
9357.00,1.43
9356.00,1.43
9355.00,1.42
9354.00,1.42
9353.00,1.42
9352.00,1.42
9351.00,1.42
9350.00,1.42
9349.00,1.42
9348.00,1.42
9347.00,1.42
9346.00,1.41
9345.00,1.41
9344.00,1.41
9343.00,1.41
9342.00,1.41
9341.00,1.41
9340.00,1.41
9339.00,1.41
9338.00,1.41
9337.00,1.41
9336.00,1.41
9335.00,1.41
9334.00,1.41
9333.00,1.41
9332.00,1.41
9331.00,1.41
9330.00,1.41
9329.00,1.41
9328.00,1.41
9327.00,1.41
9326.00,1.41
9325.00,1.41
9324.00,1.41
9323.00,1.41
9322.00,1.41
9321.00,1.41
9320.00,1.41
9319.00,1.41
9318.00,1.41
9317.00,1.41
9316.00,1.41
9315.00,1.41
9314.00,1.41
9313.00,1.41
9312.00,1.41
9311.00,1.41
9310.00,1.41
9309.00,1.41
9308.00,1.41
9307.00,1.41
9306.00,1.42
9305.00,1.42
9304.00,1.42
9303.00,1.42
9302.00,1.42
9301.00,1.42
9300.00,1.42
9299.00,1.42
9298.00,1.42
9297.00,1.42
9296.00,1.42
9295.00,1.42
9294.00,1.42
9293.00,1.42
9292.00,1.42
9291.00,1.42
9290.00,1.42
9289.00,1.42
9288.00,1.42
9287.00,1.42
9286.00,1.42
9285.00,1.42
9284.00,1.42
9283.00,1.42
9282.00,1.42
9281.00,1.42
9280.00,1.42
9279.00,1.43
9278.00,1.43
9277.00,1.43
9276.00,1.43
9275.00,1.43
9274.00,1.43
9273.00,1.43
9272.00,1.43
9271.00,1.43
9270.00,1.43
9269.00,1.43
9268.00,1.43
9267.00,1.43
9266.00,1.43
9265.00,1.43
9264.00,1.43
9263.00,1.43
9262.00,1.43
9261.00,1.43
9260.00,1.43
9259.00,1.43
9258.00,1.42
9257.00,1.42
9256.00,1.42
9255.00,1.42
9254.00,1.42
9253.00,1.42
9252.00,1.42
9251.00,1.42
9250.00,1.42
9249.00,1.41
9248.00,1.41
9247.00,1.41
9246.00,1.41
9245.00,1.41
9244.00,1.41
9243.00,1.41
9242.00,1.41
9241.00,1.41
9240.00,1.41
9239.00,1.41
9238.00,1.41
9237.00,1.41
9236.00,1.41
9235.00,1.41
9234.00,1.41
9233.00,1.41
9232.00,1.41
9231.00,1.41
9230.00,1.41
9229.00,1.41
9228.00,1.41
9227.00,1.41
9226.00,1.42
9225.00,1.42
9224.00,1.42
9223.00,1.42
9222.00,1.42
9221.00,1.42
9220.00,1.42
9219.00,1.42
9218.00,1.42
9217.00,1.42
9216.00,1.43
9215.00,1.43
9214.00,1.43
9213.00,1.43
9212.00,1.43
9211.00,1.43
9210.00,1.43
9209.00,1.43
9208.00,1.43
9207.00,1.43
9206.00,1.43
9205.00,1.43
9204.00,1.43
9203.00,1.43
9202.00,1.43
9201.00,1.43
9200.00,1.43
9199.00,1.43
9198.00,1.43
9197.00,1.43
9196.00,1.43
9195.00,1.42
9194.00,1.42
9193.00,1.42
9192.00,1.42
9191.00,1.42
9190.00,1.42
9189.00,1.42
9188.00,1.42
9187.00,1.42
9186.00,1.42
9185.00,1.42
9184.00,1.42
9183.00,1.42
9182.00,1.42
9181.00,1.42
9180.00,1.42
9179.00,1.42
9178.00,1.42
9177.00,1.42
9176.00,1.42
9175.00,1.42
9174.00,1.42
9173.00,1.42
9172.00,1.42
9171.00,1.42
9170.00,1.42
9169.00,1.42
9168.00,1.43
9167.00,1.43
9166.00,1.43
9165.00,1.43
9164.00,1.43
9163.00,1.43
9162.00,1.43
9161.00,1.44
9160.00,1.44
9159.00,1.44
9158.00,1.44
9157.00,1.44
9156.00,1.44
9155.00,1.44
9154.00,1.44
9153.00,1.44
9152.00,1.44
9151.00,1.44
9150.00,1.44
9149.00,1.44
9148.00,1.43
9147.00,1.43
9146.00,1.43
9145.00,1.43
9144.00,1.42
9143.00,1.42
9142.00,1.42
9141.00,1.42
9140.00,1.42
9139.00,1.42
9138.00,1.42
9137.00,1.42
9136.00,1.42
9135.00,1.42
9134.00,1.42
9133.00,1.42
9132.00,1.42
9131.00,1.42
9130.00,1.42
9129.00,1.42
9128.00,1.43
9127.00,1.43
9126.00,1.43
9125.00,1.43
9124.00,1.43
9123.00,1.43
9122.00,1.43
9121.00,1.43
9120.00,1.43
9119.00,1.43
9118.00,1.43
9117.00,1.43
9116.00,1.43
9115.00,1.43
9114.00,1.43
9113.00,1.43
9112.00,1.43
9111.00,1.43
9110.00,1.43
9109.00,1.43
9108.00,1.43
9107.00,1.43
9106.00,1.43
9105.00,1.43
9104.00,1.43
9103.00,1.43
9102.00,1.43
9101.00,1.43
9100.00,1.43
9099.00,1.42
9098.00,1.42
9097.00,1.42
9096.00,1.42
9095.00,1.42
9094.00,1.42
9093.00,1.42
9092.00,1.42
9091.00,1.42
9090.00,1.42
9089.00,1.42
9088.00,1.42
9087.00,1.42
9086.00,1.42
9085.00,1.42
9084.00,1.42
9083.00,1.42
9082.00,1.42
9081.00,1.42
9080.00,1.42
9079.00,1.42
9078.00,1.42
9077.00,1.42
9076.00,1.42
9075.00,1.42
9074.00,1.42
9073.00,1.42
9072.00,1.42
9071.00,1.43
9070.00,1.43
9069.00,1.43
9068.00,1.43
9067.00,1.43
9066.00,1.43
9065.00,1.43
9064.00,1.43
9063.00,1.43
9062.00,1.43
9061.00,1.43
9060.00,1.44
9059.00,1.44
9058.00,1.44
9057.00,1.44
9056.00,1.44
9055.00,1.44
9054.00,1.44
9053.00,1.44
9052.00,1.44
9051.00,1.44
9050.00,1.44
9049.00,1.44
9048.00,1.44
9047.00,1.44
9046.00,1.44
9045.00,1.43
9044.00,1.43
9043.00,1.43
9042.00,1.43
9041.00,1.43
9040.00,1.43
9039.00,1.43
9038.00,1.43
9037.00,1.43
9036.00,1.44
9035.00,1.44
9034.00,1.44
9033.00,1.44
9032.00,1.44
9031.00,1.44
9030.00,1.44
9029.00,1.44
9028.00,1.44
9027.00,1.44
9026.00,1.44
9025.00,1.44
9024.00,1.44
9023.00,1.44
9022.00,1.44
9021.00,1.44
9020.00,1.44
9019.00,1.44
9018.00,1.44
9017.00,1.44
9016.00,1.43
9015.00,1.43
9014.00,1.43
9013.00,1.43
9012.00,1.43
9011.00,1.43
9010.00,1.43
9009.00,1.43
9008.00,1.43
9007.00,1.43
9006.00,1.43
9005.00,1.42
9004.00,1.42
9003.00,1.42
9002.00,1.42
9001.00,1.42
9000.00,1.42
8999.00,1.42
8998.00,1.42
8997.00,1.42
8996.00,1.42
8995.00,1.42
8994.00,1.42
8993.00,1.42
8992.00,1.42
8991.00,1.42
8990.00,1.42
8989.00,1.42
8988.00,1.42
8987.00,1.43
8986.00,1.43
8985.00,1.43
8984.00,1.43
8983.00,1.43
8982.00,1.43
8981.00,1.43
8980.00,1.43
8979.00,1.43
8978.00,1.43
8977.00,1.43
8976.00,1.43
8975.00,1.43
8974.00,1.43
8973.00,1.43
8972.00,1.43
8971.00,1.43
8970.00,1.43
8969.00,1.43
8968.00,1.43
8967.00,1.43
8966.00,1.43
8965.00,1.43
8964.00,1.43
8963.00,1.43
8962.00,1.43
8961.00,1.43
8960.00,1.43
8959.00,1.43
8958.00,1.43
8957.00,1.43
8956.00,1.43
8955.00,1.43
8954.00,1.43
8953.00,1.43
8952.00,1.43
8951.00,1.43
8950.00,1.43
8949.00,1.43
8948.00,1.43
8947.00,1.43
8946.00,1.43
8945.00,1.43
8944.00,1.43
8943.00,1.43
8942.00,1.43
8941.00,1.43
8940.00,1.43
8939.00,1.43
8938.00,1.43
8937.00,1.43
8936.00,1.43
8935.00,1.43
8934.00,1.43
8933.00,1.43
8932.00,1.43
8931.00,1.43
8930.00,1.43
8929.00,1.43
8928.00,1.43
8927.00,1.43
8926.00,1.43
8925.00,1.43
8924.00,1.43
8923.00,1.43
8922.00,1.43
8921.00,1.44
8920.00,1.44
8919.00,1.44
8918.00,1.44
8917.00,1.44
8916.00,1.44
8915.00,1.44
8914.00,1.44
8913.00,1.44
8912.00,1.44
8911.00,1.44
8910.00,1.44
8909.00,1.44
8908.00,1.44
8907.00,1.44
8906.00,1.44
8905.00,1.44
8904.00,1.44
8903.00,1.44
8902.00,1.44
8901.00,1.44
8900.00,1.44
8899.00,1.44
8898.00,1.44
8897.00,1.44
8896.00,1.44
8895.00,1.44
8894.00,1.44
8893.00,1.44
8892.00,1.44
8891.00,1.44
8890.00,1.44
8889.00,1.43
8888.00,1.43
8887.00,1.43
8886.00,1.43
8885.00,1.43
8884.00,1.43
8883.00,1.43
8882.00,1.43
8881.00,1.43
8880.00,1.42
8879.00,1.42
8878.00,1.42
8877.00,1.42
8876.00,1.42
8875.00,1.42
8874.00,1.42
8873.00,1.42
8872.00,1.43
8871.00,1.43
8870.00,1.43
8869.00,1.43
8868.00,1.43
8867.00,1.43
8866.00,1.43
8865.00,1.43
8864.00,1.43
8863.00,1.43
8862.00,1.43
8861.00,1.43
8860.00,1.43
8859.00,1.43
8858.00,1.43
8857.00,1.43
8856.00,1.44
8855.00,1.44
8854.00,1.44
8853.00,1.44
8852.00,1.44
8851.00,1.44
8850.00,1.44
8849.00,1.44
8848.00,1.44
8847.00,1.44
8846.00,1.44
8845.00,1.44
8844.00,1.44
8843.00,1.44
8842.00,1.44
8841.00,1.44
8840.00,1.43
8839.00,1.43
8838.00,1.43
8837.00,1.43
8836.00,1.43
8835.00,1.43
8834.00,1.43
8833.00,1.43
8832.00,1.43
8831.00,1.43
8830.00,1.43
8829.00,1.42
8828.00,1.42
8827.00,1.42
8826.00,1.42
8825.00,1.42
8824.00,1.42
8823.00,1.42
8822.00,1.42
8821.00,1.41
8820.00,1.41
8819.00,1.41
8818.00,1.41
8817.00,1.41
8816.00,1.41
8815.00,1.41
8814.00,1.41
8813.00,1.41
8812.00,1.41
8811.00,1.41
8810.00,1.41
8809.00,1.41
8808.00,1.41
8807.00,1.41
8806.00,1.41
8805.00,1.41
8804.00,1.41
8803.00,1.41
8802.00,1.41
8801.00,1.41
8800.00,1.41
8799.00,1.41
8798.00,1.41
8797.00,1.41
8796.00,1.41
8795.00,1.41
8794.00,1.41
8793.00,1.41
8792.00,1.41
8791.00,1.41
8790.00,1.41
8789.00,1.41
8788.00,1.41
8787.00,1.41
8786.00,1.41
8785.00,1.41
8784.00,1.41
8783.00,1.41
8782.00,1.41
8781.00,1.41
8780.00,1.41
8779.00,1.41
8778.00,1.41
8777.00,1.41
8776.00,1.41
8775.00,1.41
8774.00,1.41
8773.00,1.41
8772.00,1.41
8771.00,1.41
8770.00,1.41
8769.00,1.40
8768.00,1.40
8767.00,1.40
8766.00,1.40
8765.00,1.40
8764.00,1.40
8763.00,1.39
8762.00,1.39
8761.00,1.39
8760.00,1.39
8759.00,1.39
8758.00,1.39
8757.00,1.39
8756.00,1.38
8755.00,1.38
8754.00,1.38
8753.00,1.38
8752.00,1.38
8751.00,1.38
8750.00,1.38
8749.00,1.38
8748.00,1.38
8747.00,1.39
8746.00,1.39
8745.00,1.39
8744.00,1.39
8743.00,1.39
8742.00,1.39
8741.00,1.39
8740.00,1.39
8739.00,1.39
8738.00,1.39
8737.00,1.39
8736.00,1.39
8735.00,1.39
8734.00,1.39
8733.00,1.39
8732.00,1.39
8731.00,1.39
8730.00,1.39
8729.00,1.39
8728.00,1.39
8727.00,1.39
8726.00,1.39
8725.00,1.39
8724.00,1.39
8723.00,1.39
8722.00,1.39
8721.00,1.39
8720.00,1.39
8719.00,1.39
8718.00,1.39
8717.00,1.39
8716.00,1.39
8715.00,1.39
8714.00,1.39
8713.00,1.39
8712.00,1.38
8711.00,1.38
8710.00,1.38
8709.00,1.38
8708.00,1.38
8707.00,1.38
8706.00,1.38
8705.00,1.38
8704.00,1.38
8703.00,1.38
8702.00,1.38
8701.00,1.38
8700.00,1.38
8699.00,1.38
8698.00,1.38
8697.00,1.37
8696.00,1.37
8695.00,1.37
8694.00,1.37
8693.00,1.37
8692.00,1.37
8691.00,1.37
8690.00,1.37
8689.00,1.38
8688.00,1.38
8687.00,1.38
8686.00,1.38
8685.00,1.38
8684.00,1.38
8683.00,1.38
8682.00,1.38
8681.00,1.38
8680.00,1.38
8679.00,1.38
8678.00,1.38
8677.00,1.38
8676.00,1.38
8675.00,1.38
8674.00,1.38
8673.00,1.38
8672.00,1.38
8671.00,1.38
8670.00,1.38
8669.00,1.38
8668.00,1.38
8667.00,1.38
8666.00,1.37
8665.00,1.37
8664.00,1.37
8663.00,1.37
8662.00,1.37
8661.00,1.37
8660.00,1.37
8659.00,1.37
8658.00,1.37
8657.00,1.37
8656.00,1.37
8655.00,1.37
8654.00,1.37
8653.00,1.37
8652.00,1.36
8651.00,1.36
8650.00,1.36
8649.00,1.36
8648.00,1.36
8647.00,1.36
8646.00,1.36
8645.00,1.36
8644.00,1.36
8643.00,1.36
8642.00,1.36
8641.00,1.36
8640.00,1.36
8639.00,1.36
8638.00,1.36
8637.00,1.36
8636.00,1.36
8635.00,1.36
8634.00,1.37
8633.00,1.37
8632.00,1.37
8631.00,1.37
8630.00,1.37
8629.00,1.37
8628.00,1.37
8627.00,1.37
8626.00,1.37
8625.00,1.37
8624.00,1.37
8623.00,1.37
8622.00,1.37
8621.00,1.37
8620.00,1.37
8619.00,1.37
8618.00,1.36
8617.00,1.36
8616.00,1.36
8615.00,1.36
8614.00,1.36
8613.00,1.35
8612.00,1.35
8611.00,1.35
8610.00,1.35
8609.00,1.35
8608.00,1.34
8607.00,1.34
8606.00,1.34
8605.00,1.34
8604.00,1.34
8603.00,1.34
8602.00,1.33
8601.00,1.33
8600.00,1.33
8599.00,1.33
8598.00,1.33
8597.00,1.33
8596.00,1.33
8595.00,1.33
8594.00,1.33
8593.00,1.33
8592.00,1.33
8591.00,1.33
8590.00,1.33
8589.00,1.33
8588.00,1.33
8587.00,1.33
8586.00,1.33
8585.00,1.34
8584.00,1.34
8583.00,1.34
8582.00,1.34
8581.00,1.34
8580.00,1.34
8579.00,1.34
8578.00,1.34
8577.00,1.34
8576.00,1.35
8575.00,1.35
8574.00,1.35
8573.00,1.35
8572.00,1.35
8571.00,1.35
8570.00,1.35
8569.00,1.35
8568.00,1.35
8567.00,1.35
8566.00,1.35
8565.00,1.35
8564.00,1.35
8563.00,1.35
8562.00,1.35
8561.00,1.35
8560.00,1.35
8559.00,1.35
8558.00,1.35
8557.00,1.35
8556.00,1.35
8555.00,1.35
8554.00,1.35
8553.00,1.35
8552.00,1.35
8551.00,1.35
8550.00,1.34
8549.00,1.34
8548.00,1.34
8547.00,1.34
8546.00,1.34
8545.00,1.34
8544.00,1.34
8543.00,1.33
8542.00,1.33
8541.00,1.33
8540.00,1.33
8539.00,1.33
8538.00,1.33
8537.00,1.33
8536.00,1.32
8535.00,1.32
8534.00,1.32
8533.00,1.32
8532.00,1.32
8531.00,1.32
8530.00,1.32
8529.00,1.32
8528.00,1.32
8527.00,1.32
8526.00,1.32
8525.00,1.32
8524.00,1.32
8523.00,1.32
8522.00,1.32
8521.00,1.32
8520.00,1.32
8519.00,1.32
8518.00,1.32
8517.00,1.32
8516.00,1.32
8515.00,1.32
8514.00,1.32
8513.00,1.32
8512.00,1.32
8511.00,1.32
8510.00,1.32
8509.00,1.32
8508.00,1.32
8507.00,1.32
8506.00,1.32
8505.00,1.32
8504.00,1.32
8503.00,1.32
8502.00,1.32
8501.00,1.32
8500.00,1.32
8499.00,1.32
8498.00,1.31
8497.00,1.31
8496.00,1.31
8495.00,1.31
8494.00,1.31
8493.00,1.31
8492.00,1.31
8491.00,1.31
8490.00,1.31
8489.00,1.31
8488.00,1.30
8487.00,1.30
8486.00,1.30
8485.00,1.30
8484.00,1.30
8483.00,1.30
8482.00,1.30
8481.00,1.30
8480.00,1.30
8479.00,1.30
8478.00,1.30
8477.00,1.30
8476.00,1.30
8475.00,1.30
8474.00,1.29
8473.00,1.29
8472.00,1.29
8471.00,1.29
8470.00,1.29
8469.00,1.29
8468.00,1.29
8467.00,1.29
8466.00,1.29
8465.00,1.29
8464.00,1.29
8463.00,1.29
8462.00,1.29
8461.00,1.29
8460.00,1.29
8459.00,1.29
8458.00,1.29
8457.00,1.29
8456.00,1.29
8455.00,1.29
8454.00,1.29
8453.00,1.29
8452.00,1.29
8451.00,1.29
8450.00,1.29
8449.00,1.29
8448.00,1.29
8447.00,1.29
8446.00,1.29
8445.00,1.28
8444.00,1.28
8443.00,1.28
8442.00,1.28
8441.00,1.28
8440.00,1.28
8439.00,1.27
8438.00,1.27
8437.00,1.27
8436.00,1.27
8435.00,1.27
8434.00,1.27
8433.00,1.27
8432.00,1.27
8431.00,1.27
8430.00,1.27
8429.00,1.27
8428.00,1.27
8427.00,1.27
8426.00,1.27
8425.00,1.27
8424.00,1.27
8423.00,1.27
8422.00,1.27
8421.00,1.27
8420.00,1.28
8419.00,1.28
8418.00,1.28
8417.00,1.28
8416.00,1.28
8415.00,1.28
8414.00,1.28
8413.00,1.28
8412.00,1.28
8411.00,1.28
8410.00,1.28
8409.00,1.28
8408.00,1.28
8407.00,1.29
8406.00,1.29
8405.00,1.29
8404.00,1.29
8403.00,1.29
8402.00,1.29
8401.00,1.30
8400.00,1.30
8399.00,1.30
8398.00,1.30
8397.00,1.30
8396.00,1.30
8395.00,1.30
8394.00,1.31
8393.00,1.31
8392.00,1.31
8391.00,1.31
8390.00,1.31
8389.00,1.31
8388.00,1.31
8387.00,1.31
8386.00,1.31
8385.00,1.32
8384.00,1.32
8383.00,1.32
8382.00,1.32
8381.00,1.32
8380.00,1.32
8379.00,1.32
8378.00,1.32
8377.00,1.32
8376.00,1.31
8375.00,1.31
8374.00,1.31
8373.00,1.31
8372.00,1.31
8371.00,1.31
8370.00,1.31
8369.00,1.31
8368.00,1.31
8367.00,1.30
8366.00,1.30
8365.00,1.30
8364.00,1.30
8363.00,1.30
8362.00,1.30
8361.00,1.30
8360.00,1.31
8359.00,1.31
8358.00,1.31
8357.00,1.31
8356.00,1.31
8355.00,1.31
8354.00,1.31
8353.00,1.32
8352.00,1.32
8351.00,1.32
8350.00,1.32
8349.00,1.32
8348.00,1.33
8347.00,1.33
8346.00,1.33
8345.00,1.33
8344.00,1.33
8343.00,1.33
8342.00,1.33
8341.00,1.33
8340.00,1.33
8339.00,1.33
8338.00,1.33
8337.00,1.33
8336.00,1.33
8335.00,1.33
8334.00,1.33
8333.00,1.33
8332.00,1.33
8331.00,1.33
8330.00,1.33
8329.00,1.33
8328.00,1.33
8327.00,1.33
8326.00,1.33
8325.00,1.33
8324.00,1.33
8323.00,1.33
8322.00,1.33
8321.00,1.33
8320.00,1.33
8319.00,1.33
8318.00,1.33
8317.00,1.33
8316.00,1.33
8315.00,1.33
8314.00,1.33
8313.00,1.33
8312.00,1.32
8311.00,1.32
8310.00,1.32
8309.00,1.32
8308.00,1.32
8307.00,1.32
8306.00,1.32
8305.00,1.32
8304.00,1.31
8303.00,1.31
8302.00,1.31
8301.00,1.31
8300.00,1.31
8299.00,1.31
8298.00,1.31
8297.00,1.31
8296.00,1.31
8295.00,1.31
8294.00,1.31
8293.00,1.31
8292.00,1.31
8291.00,1.31
8290.00,1.31
8289.00,1.32
8288.00,1.32
8287.00,1.32
8286.00,1.32
8285.00,1.32
8284.00,1.32
8283.00,1.32
8282.00,1.32
8281.00,1.33
8280.00,1.33
8279.00,1.33
8278.00,1.33
8277.00,1.33
8276.00,1.33
8275.00,1.33
8274.00,1.33
8273.00,1.33
8272.00,1.34
8271.00,1.34
8270.00,1.34
8269.00,1.34
8268.00,1.34
8267.00,1.34
8266.00,1.34
8265.00,1.34
8264.00,1.34
8263.00,1.34
8262.00,1.34
8261.00,1.34
8260.00,1.34
8259.00,1.34
8258.00,1.34
8257.00,1.34
8256.00,1.34
8255.00,1.34
8254.00,1.34
8253.00,1.34
8252.00,1.34
8251.00,1.34
8250.00,1.34
8249.00,1.34
8248.00,1.34
8247.00,1.34
8246.00,1.34
8245.00,1.34
8244.00,1.34
8243.00,1.34
8242.00,1.34
8241.00,1.34
8240.00,1.34
8239.00,1.34
8238.00,1.34
8237.00,1.34
8236.00,1.34
8235.00,1.34
8234.00,1.34
8233.00,1.34
8232.00,1.34
8231.00,1.34
8230.00,1.34
8229.00,1.34
8228.00,1.34
8227.00,1.34
8226.00,1.34
8225.00,1.34
8224.00,1.34
8223.00,1.34
8222.00,1.34
8221.00,1.34
8220.00,1.34
8219.00,1.34
8218.00,1.34
8217.00,1.34
8216.00,1.34
8215.00,1.34
8214.00,1.34
8213.00,1.34
8212.00,1.34
8211.00,1.34
8210.00,1.34
8209.00,1.34
8208.00,1.34
8207.00,1.35
8206.00,1.35
8205.00,1.35
8204.00,1.35
8203.00,1.35
8202.00,1.35
8201.00,1.35
8200.00,1.35
8199.00,1.35
8198.00,1.35
8197.00,1.35
8196.00,1.35
8195.00,1.35
8194.00,1.35
8193.00,1.35
8192.00,1.35
8191.00,1.35
8190.00,1.35
8189.00,1.35
8188.00,1.35
8187.00,1.35
8186.00,1.35
8185.00,1.35
8184.00,1.35
8183.00,1.35
8182.00,1.35
8181.00,1.35
8180.00,1.35
8179.00,1.35
8178.00,1.36
8177.00,1.36
8176.00,1.36
8175.00,1.36
8174.00,1.36
8173.00,1.36
8172.00,1.36
8171.00,1.36
8170.00,1.36
8169.00,1.37
8168.00,1.37
8167.00,1.37
8166.00,1.37
8165.00,1.37
8164.00,1.37
8163.00,1.37
8162.00,1.37
8161.00,1.37
8160.00,1.37
8159.00,1.37
8158.00,1.37
8157.00,1.37
8156.00,1.37
8155.00,1.37
8154.00,1.37
8153.00,1.37
8152.00,1.37
8151.00,1.37
8150.00,1.37
8149.00,1.37
8148.00,1.37
8147.00,1.37
8146.00,1.37
8145.00,1.37
8144.00,1.37
8143.00,1.37
8142.00,1.37
8141.00,1.37
8140.00,1.37
8139.00,1.37
8138.00,1.37
8137.00,1.37
8136.00,1.37
8135.00,1.37
8134.00,1.37
8133.00,1.37
8132.00,1.37
8131.00,1.37
8130.00,1.37
8129.00,1.37
8128.00,1.37
8127.00,1.37
8126.00,1.37
8125.00,1.37
8124.00,1.37
8123.00,1.37
8122.00,1.37
8121.00,1.37
8120.00,1.37
8119.00,1.37
8118.00,1.37
8117.00,1.37
8116.00,1.38
8115.00,1.38
8114.00,1.38
8113.00,1.38
8112.00,1.38
8111.00,1.38
8110.00,1.38
8109.00,1.38
8108.00,1.38
8107.00,1.38
8106.00,1.38
8105.00,1.38
8104.00,1.38
8103.00,1.38
8102.00,1.38
8101.00,1.38
8100.00,1.38
8099.00,1.38
8098.00,1.38
8097.00,1.38
8096.00,1.38
8095.00,1.38
8094.00,1.38
8093.00,1.38
8092.00,1.38
8091.00,1.38
8090.00,1.38
8089.00,1.38
8088.00,1.38
8087.00,1.38
8086.00,1.38
8085.00,1.38
8084.00,1.38
8083.00,1.38
8082.00,1.38
8081.00,1.38
8080.00,1.38
8079.00,1.39
8078.00,1.39
8077.00,1.39
8076.00,1.39
8075.00,1.39
8074.00,1.39
8073.00,1.39
8072.00,1.39
8071.00,1.39
8070.00,1.40
8069.00,1.40
8068.00,1.40
8067.00,1.40
8066.00,1.40
8065.00,1.40
8064.00,1.40
8063.00,1.40
8062.00,1.40
8061.00,1.40
8060.00,1.40
8059.00,1.40
8058.00,1.40
8057.00,1.40
8056.00,1.40
8055.00,1.40
8054.00,1.40
8053.00,1.40
8052.00,1.40
8051.00,1.40
8050.00,1.40
8049.00,1.40
8048.00,1.40
8047.00,1.40
8046.00,1.40
8045.00,1.40
8044.00,1.40
8043.00,1.40
8042.00,1.40
8041.00,1.40
8040.00,1.40
8039.00,1.40
8038.00,1.40
8037.00,1.40
8036.00,1.40
8035.00,1.40
8034.00,1.40
8033.00,1.40
8032.00,1.40
8031.00,1.39
8030.00,1.39
8029.00,1.39
8028.00,1.39
8027.00,1.39
8026.00,1.39
8025.00,1.39
8024.00,1.39
8023.00,1.39
8022.00,1.39
8021.00,1.39
8020.00,1.39
8019.00,1.39
8018.00,1.39
8017.00,1.39
8016.00,1.39
8015.00,1.39
8014.00,1.39
8013.00,1.39
8012.00,1.39
8011.00,1.39
8010.00,1.39
8009.00,1.39
8008.00,1.39
8007.00,1.40
8006.00,1.40
8005.00,1.40
8004.00,1.40
8003.00,1.40
8002.00,1.40
8001.00,1.40
8000.00,1.40
7999.00,1.40
7998.00,1.40
7997.00,1.40
7996.00,1.40
7995.00,1.40
7994.00,1.40
7993.00,1.40
7992.00,1.40
7991.00,1.40
7990.00,1.40
7989.00,1.40
7988.00,1.40
7987.00,1.41
7986.00,1.41
7985.00,1.41
7984.00,1.41
7983.00,1.41
7982.00,1.41
7981.00,1.41
7980.00,1.41
7979.00,1.41
7978.00,1.41
7977.00,1.41
7976.00,1.41
7975.00,1.41
7974.00,1.41
7973.00,1.41
7972.00,1.41
7971.00,1.41
7970.00,1.41
7969.00,1.41
7968.00,1.41
7967.00,1.41
7966.00,1.41
7965.00,1.41
7964.00,1.41
7963.00,1.41
7962.00,1.40
7961.00,1.40
7960.00,1.40
7959.00,1.40
7958.00,1.40
7957.00,1.40
7956.00,1.40
7955.00,1.40
7954.00,1.41
7953.00,1.41
7952.00,1.41
7951.00,1.41
7950.00,1.41
7949.00,1.41
7948.00,1.41
7947.00,1.41
7946.00,1.41
7945.00,1.41
7944.00,1.41
7943.00,1.41
7942.00,1.41
7941.00,1.41
7940.00,1.41
7939.00,1.41
7938.00,1.41
7937.00,1.41
7936.00,1.41
7935.00,1.41
7934.00,1.41
7933.00,1.41
7932.00,1.41
7931.00,1.41
7930.00,1.41
7929.00,1.41
7928.00,1.41
7927.00,1.41
7926.00,1.41
7925.00,1.42
7924.00,1.42
7923.00,1.42
7922.00,1.42
7921.00,1.42
7920.00,1.42
7919.00,1.42
7918.00,1.42
7917.00,1.42
7916.00,1.42
7915.00,1.42
7914.00,1.42
7913.00,1.42
7912.00,1.42
7911.00,1.42
7910.00,1.42
7909.00,1.42
7908.00,1.42
7907.00,1.42
7906.00,1.42
7905.00,1.42
7904.00,1.42
7903.00,1.42
7902.00,1.41
7901.00,1.41
7900.00,1.41
7899.00,1.41
7898.00,1.41
7897.00,1.41
7896.00,1.41
7895.00,1.41
7894.00,1.41
7893.00,1.41
7892.00,1.41
7891.00,1.41
7890.00,1.41
7889.00,1.41
7888.00,1.41
7887.00,1.41
7886.00,1.41
7885.00,1.41
7884.00,1.41
7883.00,1.41
7882.00,1.41
7881.00,1.41
7880.00,1.41
7879.00,1.41
7878.00,1.41
7877.00,1.41
7876.00,1.41
7875.00,1.42
7874.00,1.42
7873.00,1.42
7872.00,1.42
7871.00,1.42
7870.00,1.42
7869.00,1.42
7868.00,1.42
7867.00,1.42
7866.00,1.42
7865.00,1.42
7864.00,1.42
7863.00,1.42
7862.00,1.42
7861.00,1.42
7860.00,1.42
7859.00,1.42
7858.00,1.42
7857.00,1.42
7856.00,1.42
7855.00,1.42
7854.00,1.42
7853.00,1.42
7852.00,1.42
7851.00,1.42
7850.00,1.42
7849.00,1.42
7848.00,1.42
7847.00,1.42
7846.00,1.42
7845.00,1.42
7844.00,1.42
7843.00,1.42
7842.00,1.42
7841.00,1.42
7840.00,1.43
7839.00,1.43
7838.00,1.43
7837.00,1.43
7836.00,1.43
7835.00,1.43
7834.00,1.43
7833.00,1.43
7832.00,1.43
7831.00,1.43
7830.00,1.43
7829.00,1.43
7828.00,1.44
7827.00,1.44
7826.00,1.44
7825.00,1.44
7824.00,1.44
7823.00,1.44
7822.00,1.43
7821.00,1.43
7820.00,1.43
7819.00,1.43
7818.00,1.43
7817.00,1.43
7816.00,1.43
7815.00,1.43
7814.00,1.43
7813.00,1.43
7812.00,1.43
7811.00,1.43
7810.00,1.43
7809.00,1.42
7808.00,1.42
7807.00,1.42
7806.00,1.42
7805.00,1.42
7804.00,1.42
7803.00,1.42
7802.00,1.42
7801.00,1.42
7800.00,1.42
7799.00,1.42
7798.00,1.42
7797.00,1.42
7796.00,1.42
7795.00,1.42
7794.00,1.42
7793.00,1.42
7792.00,1.42
7791.00,1.42
7790.00,1.43
7789.00,1.43
7788.00,1.43
7787.00,1.43
7786.00,1.43
7785.00,1.43
7784.00,1.43
7783.00,1.43
7782.00,1.43
7781.00,1.43
7780.00,1.43
7779.00,1.43
7778.00,1.43
7777.00,1.43
7776.00,1.43
7775.00,1.43
7774.00,1.43
7773.00,1.43
7772.00,1.43
7771.00,1.43
7770.00,1.43
7769.00,1.43
7768.00,1.43
7767.00,1.43
7766.00,1.43
7765.00,1.43
7764.00,1.43
7763.00,1.43
7762.00,1.43
7761.00,1.43
7760.00,1.43
7759.00,1.43
7758.00,1.43
7757.00,1.43
7756.00,1.43
7755.00,1.43
7754.00,1.43
7753.00,1.43
7752.00,1.43
7751.00,1.43
7750.00,1.43
7749.00,1.43
7748.00,1.43
7747.00,1.43
7746.00,1.43
7745.00,1.43
7744.00,1.43
7743.00,1.42
7742.00,1.42
7741.00,1.42
7740.00,1.42
7739.00,1.42
7738.00,1.42
7737.00,1.42
7736.00,1.42
7735.00,1.42
7734.00,1.42
7733.00,1.42
7732.00,1.42
7731.00,1.42
7730.00,1.42
7729.00,1.42
7728.00,1.42
7727.00,1.42
7726.00,1.42
7725.00,1.42
7724.00,1.42
7723.00,1.43
7722.00,1.43
7721.00,1.43
7720.00,1.43
7719.00,1.43
7718.00,1.43
7717.00,1.43
7716.00,1.43
7715.00,1.43
7714.00,1.43
7713.00,1.43
7712.00,1.43
7711.00,1.43
7710.00,1.43
7709.00,1.43
7708.00,1.43
7707.00,1.43
7706.00,1.43
7705.00,1.43
7704.00,1.43
7703.00,1.43
7702.00,1.43
7701.00,1.43
7700.00,1.43
7699.00,1.43
7698.00,1.43
7697.00,1.43
7696.00,1.43
7695.00,1.43
7694.00,1.43
7693.00,1.43
7692.00,1.43
7691.00,1.43
7690.00,1.43
7689.00,1.43
7688.00,1.43
7687.00,1.43
7686.00,1.43
7685.00,1.43
7684.00,1.43
7683.00,1.44
7682.00,1.44
7681.00,1.44
7680.00,1.44
7679.00,1.44
7678.00,1.44
7677.00,1.44
7676.00,1.44
7675.00,1.44
7674.00,1.44
7673.00,1.44
7672.00,1.44
7671.00,1.44
7670.00,1.44
7669.00,1.44
7668.00,1.44
7667.00,1.44
7666.00,1.44
7665.00,1.44
7664.00,1.44
7663.00,1.44
7662.00,1.43
7661.00,1.43
7660.00,1.43
7659.00,1.43
7658.00,1.43
7657.00,1.43
7656.00,1.43
7655.00,1.43
7654.00,1.43
7653.00,1.43
7652.00,1.43
7651.00,1.43
7650.00,1.43
7649.00,1.43
7648.00,1.43
7647.00,1.43
7646.00,1.43
7645.00,1.43
7644.00,1.43
7643.00,1.43
7642.00,1.43
7641.00,1.43
7640.00,1.43
7639.00,1.44
7638.00,1.44
7637.00,1.44
7636.00,1.44
7635.00,1.44
7634.00,1.44
7633.00,1.44
7632.00,1.44
7631.00,1.44
7630.00,1.44
7629.00,1.44
7628.00,1.44
7627.00,1.44
7626.00,1.44
7625.00,1.44
7624.00,1.44
7623.00,1.44
7622.00,1.44
7621.00,1.44
7620.00,1.44
7619.00,1.44
7618.00,1.44
7617.00,1.44
7616.00,1.44
7615.00,1.44
7614.00,1.44
7613.00,1.44
7612.00,1.43
7611.00,1.43
7610.00,1.43
7609.00,1.43
7608.00,1.43
7607.00,1.43
7606.00,1.43
7605.00,1.43
7604.00,1.43
7603.00,1.43
7602.00,1.43
7601.00,1.43
7600.00,1.43
7599.00,1.43
7598.00,1.43
7597.00,1.43
7596.00,1.43
7595.00,1.43
7594.00,1.43
7593.00,1.43
7592.00,1.43
7591.00,1.43
7590.00,1.43
7589.00,1.43
7588.00,1.43
7587.00,1.43
7586.00,1.43
7585.00,1.43
7584.00,1.43
7583.00,1.43
7582.00,1.43
7581.00,1.43
7580.00,1.43
7579.00,1.43
7578.00,1.43
7577.00,1.43
7576.00,1.43
7575.00,1.43
7574.00,1.43
7573.00,1.43
7572.00,1.43
7571.00,1.43
7570.00,1.43
7569.00,1.43
7568.00,1.43
7567.00,1.43
7566.00,1.43
7565.00,1.43
7564.00,1.43
7563.00,1.43
7562.00,1.43
7561.00,1.42
7560.00,1.42
7559.00,1.42
7558.00,1.42
7557.00,1.42
7556.00,1.42
7555.00,1.42
7554.00,1.42
7553.00,1.42
7552.00,1.42
7551.00,1.42
7550.00,1.42
7549.00,1.42
7548.00,1.42
7547.00,1.42
7546.00,1.42
7545.00,1.42
7544.00,1.42
7543.00,1.42
7542.00,1.42
7541.00,1.42
7540.00,1.42
7539.00,1.42
7538.00,1.42
7537.00,1.42
7536.00,1.42
7535.00,1.42
7534.00,1.42
7533.00,1.42
7532.00,1.42
7531.00,1.42
7530.00,1.42
7529.00,1.42
7528.00,1.42
7527.00,1.42
7526.00,1.42
7525.00,1.42
7524.00,1.42
7523.00,1.42
7522.00,1.42
7521.00,1.42
7520.00,1.42
7519.00,1.42
7518.00,1.42
7517.00,1.42
7516.00,1.42
7515.00,1.42
7514.00,1.42
7513.00,1.42
7512.00,1.42
7511.00,1.42
7510.00,1.42
7509.00,1.42
7508.00,1.42
7507.00,1.42
7506.00,1.42
7505.00,1.42
7504.00,1.42
7503.00,1.41
7502.00,1.41
7501.00,1.41
7500.00,1.41
7499.00,1.41
7498.00,1.41
7497.00,1.41
7496.00,1.41
7495.00,1.41
7494.00,1.41
7493.00,1.41
7492.00,1.41
7491.00,1.41
7490.00,1.41
7489.00,1.40
7488.00,1.40
7487.00,1.40
7486.00,1.40
7485.00,1.40
7484.00,1.40
7483.00,1.40
7482.00,1.40
7481.00,1.40
7480.00,1.40
7479.00,1.40
7478.00,1.40
7477.00,1.40
7476.00,1.40
7475.00,1.40
7474.00,1.40
7473.00,1.40
7472.00,1.40
7471.00,1.40
7470.00,1.40
7469.00,1.40
7468.00,1.40
7467.00,1.40
7466.00,1.40
7465.00,1.40
7464.00,1.40
7463.00,1.40
7462.00,1.39
7461.00,1.39
7460.00,1.39
7459.00,1.39
7458.00,1.39
7457.00,1.39
7456.00,1.39
7455.00,1.39
7454.00,1.39
7453.00,1.39
7452.00,1.39
7451.00,1.39
7450.00,1.39
7449.00,1.39
7448.00,1.39
7447.00,1.39
7446.00,1.39
7445.00,1.39
7444.00,1.39
7443.00,1.39
7442.00,1.39
7441.00,1.39
7440.00,1.39
7439.00,1.39
7438.00,1.39
7437.00,1.39
7436.00,1.39
7435.00,1.39
7434.00,1.39
7433.00,1.39
7432.00,1.39
7431.00,1.39
7430.00,1.39
7429.00,1.39
7428.00,1.39
7427.00,1.39
7426.00,1.39
7425.00,1.38
7424.00,1.38
7423.00,1.38
7422.00,1.38
7421.00,1.38
7420.00,1.38
7419.00,1.38
7418.00,1.38
7417.00,1.38
7416.00,1.38
7415.00,1.38
7414.00,1.38
7413.00,1.38
7412.00,1.37
7411.00,1.37
7410.00,1.37
7409.00,1.37
7408.00,1.37
7407.00,1.37
7406.00,1.37
7405.00,1.37
7404.00,1.36
7403.00,1.36
7402.00,1.36
7401.00,1.36
7400.00,1.36
7399.00,1.36
7398.00,1.36
7397.00,1.36
7396.00,1.36
7395.00,1.35
7394.00,1.35
7393.00,1.35
7392.00,1.35
7391.00,1.35
7390.00,1.35
7389.00,1.35
7388.00,1.35
7387.00,1.35
7386.00,1.35
7385.00,1.35
7384.00,1.35
7383.00,1.35
7382.00,1.35
7381.00,1.35
7380.00,1.35
7379.00,1.35
7378.00,1.35
7377.00,1.35
7376.00,1.35
7375.00,1.35
7374.00,1.35
7373.00,1.35
7372.00,1.35
7371.00,1.35
7370.00,1.34
7369.00,1.34
7368.00,1.34
7367.00,1.34
7366.00,1.34
7365.00,1.34
7364.00,1.34
7363.00,1.34
7362.00,1.34
7361.00,1.34
7360.00,1.34
7359.00,1.34
7358.00,1.34
7357.00,1.34
7356.00,1.34
7355.00,1.34
7354.00,1.34
7353.00,1.33
7352.00,1.33
7351.00,1.33
7350.00,1.33
7349.00,1.33
7348.00,1.33
7347.00,1.33
7346.00,1.33
7345.00,1.33
7344.00,1.33
7343.00,1.32
7342.00,1.32
7341.00,1.32
7340.00,1.32
7339.00,1.32
7338.00,1.32
7337.00,1.32
7336.00,1.32
7335.00,1.32
7334.00,1.32
7333.00,1.32
7332.00,1.32
7331.00,1.32
7330.00,1.32
7329.00,1.32
7328.00,1.32
7327.00,1.32
7326.00,1.32
7325.00,1.32
7324.00,1.32
7323.00,1.32
7322.00,1.32
7321.00,1.32
7320.00,1.32
7319.00,1.32
7318.00,1.32
7317.00,1.32
7316.00,1.32
7315.00,1.31
7314.00,1.31
7313.00,1.31
7312.00,1.31
7311.00,1.31
7310.00,1.31
7309.00,1.31
7308.00,1.31
7307.00,1.31
7306.00,1.30
7305.00,1.30
7304.00,1.30
7303.00,1.30
7302.00,1.30
7301.00,1.30
7300.00,1.30
7299.00,1.30
7298.00,1.30
7297.00,1.30
7296.00,1.30
7295.00,1.29
7294.00,1.29
7293.00,1.29
7292.00,1.29
7291.00,1.29
7290.00,1.29
7289.00,1.29
7288.00,1.29
7287.00,1.28
7286.00,1.28
7285.00,1.28
7284.00,1.28
7283.00,1.28
7282.00,1.28
7281.00,1.28
7280.00,1.28
7279.00,1.27
7278.00,1.27
7277.00,1.27
7276.00,1.27
7275.00,1.27
7274.00,1.27
7273.00,1.27
7272.00,1.27
7271.00,1.27
7270.00,1.26
7269.00,1.26
7268.00,1.26
7267.00,1.26
7266.00,1.26
7265.00,1.26
7264.00,1.26
7263.00,1.26
7262.00,1.25
7261.00,1.25
7260.00,1.25
7259.00,1.25
7258.00,1.25
7257.00,1.25
7256.00,1.25
7255.00,1.25
7254.00,1.25
7253.00,1.24
7252.00,1.24
7251.00,1.24
7250.00,1.24
7249.00,1.24
7248.00,1.24
7247.00,1.24
7246.00,1.23
7245.00,1.23
7244.00,1.23
7243.00,1.23
7242.00,1.22
7241.00,1.22
7240.00,1.22
7239.00,1.22
7238.00,1.21
7237.00,1.21
7236.00,1.21
7235.00,1.20
7234.00,1.20
7233.00,1.20
7232.00,1.19
7231.00,1.19
7230.00,1.19
7229.00,1.18
7228.00,1.18
7227.00,1.18
7226.00,1.18
7225.00,1.17
7224.00,1.17
7223.00,1.17
7222.00,1.16
7221.00,1.16
7220.00,1.16
7219.00,1.16
7218.00,1.15
7217.00,1.15
7216.00,1.15
7215.00,1.15
7214.00,1.14
7213.00,1.14
7212.00,1.14
7211.00,1.14
7210.00,1.13
7209.00,1.13
7208.00,1.13
7207.00,1.13
7206.00,1.12
7205.00,1.12
7204.00,1.12
7203.00,1.12
7202.00,1.11
7201.00,1.11
7200.00,1.11
7199.00,1.10
7198.00,1.10
7197.00,1.10
7196.00,1.09
7195.00,1.09
7194.00,1.09
7193.00,1.08
7192.00,1.08
7191.00,1.07
7190.00,1.07
7189.00,1.07
7188.00,1.06
7187.00,1.06
7186.00,1.06
7185.00,1.05
7184.00,1.05
7183.00,1.05
7182.00,1.05
7181.00,1.04
7180.00,1.04
7179.00,1.04
7178.00,1.04
7177.00,1.03
7176.00,1.03
7175.00,1.03
7174.00,1.03
7173.00,1.03
7172.00,1.02
7171.00,1.02
7170.00,1.02
7169.00,1.02
7168.00,1.02
7167.00,1.01
7166.00,1.01
7165.00,1.01
7164.00,1.00
7163.00,1.00
7162.00,1.00
7161.00,1.00
7160.00,0.99
7159.00,0.99
7158.00,0.99
7157.00,0.99
7156.00,0.98
7155.00,0.98
7154.00,0.98
7153.00,0.98
7152.00,0.98
7151.00,0.97
7150.00,0.97
7149.00,0.97
7148.00,0.97
7147.00,0.96
7146.00,0.96
7145.00,0.96
7144.00,0.96
7143.00,0.96
7142.00,0.95
7141.00,0.95
7140.00,0.95
7139.00,0.95
7138.00,0.94
7137.00,0.94
7136.00,0.94
7135.00,0.94
7134.00,0.93
7133.00,0.93
7132.00,0.93
7131.00,0.93
7130.00,0.92
7129.00,0.92
7128.00,0.92
7127.00,0.92
7126.00,0.91
7125.00,0.91
7124.00,0.91
7123.00,0.91
7122.00,0.91
7121.00,0.90
7120.00,0.90
7119.00,0.90
7118.00,0.90
7117.00,0.89
7116.00,0.89
7115.00,0.89
7114.00,0.88
7113.00,0.88
7112.00,0.88
7111.00,0.88
7110.00,0.87
7109.00,0.87
7108.00,0.87
7107.00,0.87
7106.00,0.86
7105.00,0.86
7104.00,0.86
7103.00,0.86
7102.00,0.86
7101.00,0.85
7100.00,0.85
7099.00,0.85
7098.00,0.85
7097.00,0.84
7096.00,0.84
7095.00,0.84
7094.00,0.84
7093.00,0.84
7092.00,0.83
7091.00,0.83
7090.00,0.83
7089.00,0.83
7088.00,0.83
7087.00,0.83
7086.00,0.82
7085.00,0.82
7084.00,0.82
7083.00,0.82
7082.00,0.82
7081.00,0.82
7080.00,0.81
7079.00,0.81
7078.00,0.81
7077.00,0.81
7076.00,0.81
7075.00,0.81
7074.00,0.81
7073.00,0.80
7072.00,0.80
7071.00,0.80
7070.00,0.80
7069.00,0.80
7068.00,0.80
7067.00,0.80
7066.00,0.80
7065.00,0.80
7064.00,0.80
7063.00,0.80
7062.00,0.79
7061.00,0.79
7060.00,0.79
7059.00,0.79
7058.00,0.79
7057.00,0.79
7056.00,0.79
7055.00,0.79
7054.00,0.79
7053.00,0.79
7052.00,0.78
7051.00,0.78
7050.00,0.78
7049.00,0.78
7048.00,0.78
7047.00,0.77
7046.00,0.77
7045.00,0.77
7044.00,0.77
7043.00,0.77
7042.00,0.77
7041.00,0.76
7040.00,0.76
7039.00,0.76
7038.00,0.76
7037.00,0.76
7036.00,0.76
7035.00,0.76
7034.00,0.76
7033.00,0.75
7032.00,0.75
7031.00,0.75
7030.00,0.75
7029.00,0.75
7028.00,0.75
7027.00,0.75
7026.00,0.75
7025.00,0.74
7024.00,0.74
7023.00,0.74
7022.00,0.74
7021.00,0.74
7020.00,0.74
7019.00,0.74
7018.00,0.74
7017.00,0.74
7016.00,0.74
7015.00,0.74
7014.00,0.74
7013.00,0.74
7012.00,0.74
7011.00,0.74
7010.00,0.74
7009.00,0.74
7008.00,0.74
7007.00,0.74
7006.00,0.74
7005.00,0.74
7004.00,0.74
7003.00,0.74
7002.00,0.74
7001.00,0.74
7000.00,0.74
6999.00,0.74
6998.00,0.74
6997.00,0.74
6996.00,0.74
6995.00,0.74
6994.00,0.74
6993.00,0.74
6992.00,0.74
6991.00,0.74
6990.00,0.73
6989.00,0.73
6988.00,0.73
6987.00,0.73
6986.00,0.73
6985.00,0.73
6984.00,0.73
6983.00,0.73
6982.00,0.73
6981.00,0.73
6980.00,0.72
6979.00,0.72
6978.00,0.72
6977.00,0.72
6976.00,0.72
6975.00,0.72
6974.00,0.72
6973.00,0.72
6972.00,0.71
6971.00,0.71
6970.00,0.71
6969.00,0.71
6968.00,0.71
6967.00,0.71
6966.00,0.71
6965.00,0.71
6964.00,0.71
6963.00,0.71
6962.00,0.71
6961.00,0.71
6960.00,0.71
6959.00,0.71
6958.00,0.71
6957.00,0.71
6956.00,0.71
6955.00,0.71
6954.00,0.71
6953.00,0.71
6952.00,0.71
6951.00,0.71
6950.00,0.71
6949.00,0.71
6948.00,0.71
6947.00,0.70
6946.00,0.70
6945.00,0.70
6944.00,0.70
6943.00,0.70
6942.00,0.70
6941.00,0.70
6940.00,0.70
6939.00,0.70
6938.00,0.70
6937.00,0.70
6936.00,0.70
6935.00,0.70
6934.00,0.70
6933.00,0.70
6932.00,0.70
6931.00,0.70
6930.00,0.70
6929.00,0.70
6928.00,0.70
6927.00,0.70
6926.00,0.70
6925.00,0.70
6924.00,0.70
6923.00,0.70
6922.00,0.70
6921.00,0.70
6920.00,0.70
6919.00,0.70
6918.00,0.70
6917.00,0.70
6916.00,0.70
6915.00,0.70
6914.00,0.70
6913.00,0.69
6912.00,0.69
6911.00,0.69
6910.00,0.69
6909.00,0.69
6908.00,0.69
6907.00,0.69
6906.00,0.69
6905.00,0.69
6904.00,0.69
6903.00,0.69
6902.00,0.69
6901.00,0.69
6900.00,0.69
6899.00,0.69
6898.00,0.69
6897.00,0.69
6896.00,0.69
6895.00,0.70
6894.00,0.70
6893.00,0.70
6892.00,0.70
6891.00,0.70
6890.00,0.70
6889.00,0.70
6888.00,0.70
6887.00,0.70
6886.00,0.70
6885.00,0.70
6884.00,0.70
6883.00,0.70
6882.00,0.70
6881.00,0.70
6880.00,0.70
6879.00,0.70
6878.00,0.70
6877.00,0.70
6876.00,0.70
6875.00,0.70
6874.00,0.69
6873.00,0.69
6872.00,0.69
6871.00,0.69
6870.00,0.69
6869.00,0.69
6868.00,0.69
6867.00,0.69
6866.00,0.69
6865.00,0.69
6864.00,0.69
6863.00,0.69
6862.00,0.69
6861.00,0.69
6860.00,0.69
6859.00,0.69
6858.00,0.69
6857.00,0.69
6856.00,0.69
6855.00,0.69
6854.00,0.69
6853.00,0.69
6852.00,0.69
6851.00,0.69
6850.00,0.69
6849.00,0.69
6848.00,0.69
6847.00,0.69
6846.00,0.69
6845.00,0.69
6844.00,0.69
6843.00,0.69
6842.00,0.70
6841.00,0.70
6840.00,0.70
6839.00,0.70
6838.00,0.70
6837.00,0.70
6836.00,0.70
6835.00,0.70
6834.00,0.70
6833.00,0.70
6832.00,0.70
6831.00,0.70
6830.00,0.70
6829.00,0.70
6828.00,0.70
6827.00,0.70
6826.00,0.70
6825.00,0.70
6824.00,0.70
6823.00,0.70
6822.00,0.70
6821.00,0.71
6820.00,0.71
6819.00,0.71
6818.00,0.71
6817.00,0.71
6816.00,0.71
6815.00,0.71
6814.00,0.71
6813.00,0.71
6812.00,0.71
6811.00,0.71
6810.00,0.71
6809.00,0.71
6808.00,0.71
6807.00,0.71
6806.00,0.71
6805.00,0.71
6804.00,0.71
6803.00,0.71
6802.00,0.71
6801.00,0.71
6800.00,0.71
6799.00,0.71
6798.00,0.71
6797.00,0.71
6796.00,0.71
6795.00,0.71
6794.00,0.71
6793.00,0.71
6792.00,0.71
6791.00,0.72
6790.00,0.72
6789.00,0.72
6788.00,0.72
6787.00,0.72
6786.00,0.72
6785.00,0.72
6784.00,0.72
6783.00,0.72
6782.00,0.72
6781.00,0.72
6780.00,0.72
6779.00,0.72
6778.00,0.72
6777.00,0.72
6776.00,0.72
6775.00,0.72
6774.00,0.72
6773.00,0.72
6772.00,0.72
6771.00,0.72
6770.00,0.72
6769.00,0.73
6768.00,0.73
6767.00,0.73
6766.00,0.73
6765.00,0.73
6764.00,0.73
6763.00,0.73
6762.00,0.73
6761.00,0.73
6760.00,0.73
6759.00,0.73
6758.00,0.73
6757.00,0.73
6756.00,0.73
6755.00,0.73
6754.00,0.73
6753.00,0.73
6752.00,0.73
6751.00,0.73
6750.00,0.73
6749.00,0.73
6748.00,0.73
6747.00,0.73
6746.00,0.73
6745.00,0.73
6744.00,0.73
6743.00,0.73
6742.00,0.73
6741.00,0.73
6740.00,0.73
6739.00,0.74
6738.00,0.74
6737.00,0.74
6736.00,0.74
6735.00,0.74
6734.00,0.74
6733.00,0.74
6732.00,0.74
6731.00,0.75
6730.00,0.75
6729.00,0.75
6728.00,0.75
6727.00,0.75
6726.00,0.75
6725.00,0.75
6724.00,0.75
6723.00,0.75
6722.00,0.75
6721.00,0.75
6720.00,0.76
6719.00,0.76
6718.00,0.76
6717.00,0.76
6716.00,0.76
6715.00,0.76
6714.00,0.76
6713.00,0.76
6712.00,0.76
6711.00,0.76
6710.00,0.76
6709.00,0.76
6708.00,0.76
6707.00,0.76
6706.00,0.76
6705.00,0.76
6704.00,0.76
6703.00,0.76
6702.00,0.76
6701.00,0.76
6700.00,0.76
6699.00,0.76
6698.00,0.76
6697.00,0.77
6696.00,0.77
6695.00,0.77
6694.00,0.77
6693.00,0.77
6692.00,0.77
6691.00,0.77
6690.00,0.77
6689.00,0.77
6688.00,0.78
6687.00,0.78
6686.00,0.78
6685.00,0.78
6684.00,0.78
6683.00,0.78
6682.00,0.78
6681.00,0.78
6680.00,0.79
6679.00,0.79
6678.00,0.79
6677.00,0.79
6676.00,0.79
6675.00,0.79
6674.00,0.79
6673.00,0.79
6672.00,0.79
6671.00,0.79
6670.00,0.79
6669.00,0.79
6668.00,0.79
6667.00,0.79
6666.00,0.79
6665.00,0.79
6664.00,0.79
6663.00,0.79
6662.00,0.79
6661.00,0.79
6660.00,0.80
6659.00,0.80
6658.00,0.80
6657.00,0.80
6656.00,0.80
6655.00,0.80
6654.00,0.80
6653.00,0.80
6652.00,0.81
6651.00,0.81
6650.00,0.81
6649.00,0.81
6648.00,0.81
6647.00,0.81
6646.00,0.81
6645.00,0.81
6644.00,0.82
6643.00,0.82
6642.00,0.82
6641.00,0.82
6640.00,0.82
6639.00,0.82
6638.00,0.82
6637.00,0.82
6636.00,0.82
6635.00,0.82
6634.00,0.83
6633.00,0.83
6632.00,0.83
6631.00,0.83
6630.00,0.83
6629.00,0.83
6628.00,0.83
6627.00,0.83
6626.00,0.83
6625.00,0.83
6624.00,0.83
6623.00,0.83
6622.00,0.83
6621.00,0.84
6620.00,0.84
6619.00,0.84
6618.00,0.84
6617.00,0.84
6616.00,0.84
6615.00,0.84
6614.00,0.84
6613.00,0.84
6612.00,0.84
6611.00,0.84
6610.00,0.84
6609.00,0.84
6608.00,0.85
6607.00,0.85
6606.00,0.85
6605.00,0.85
6604.00,0.85
6603.00,0.85
6602.00,0.85
6601.00,0.85
6600.00,0.85
6599.00,0.85
6598.00,0.85
6597.00,0.86
6596.00,0.86
6595.00,0.86
6594.00,0.86
6593.00,0.86
6592.00,0.86
6591.00,0.86
6590.00,0.87
6589.00,0.87
6588.00,0.87
6587.00,0.87
6586.00,0.87
6585.00,0.87
6584.00,0.87
6583.00,0.87
6582.00,0.87
6581.00,0.87
6580.00,0.88
6579.00,0.88
6578.00,0.88
6577.00,0.88
6576.00,0.88
6575.00,0.88
6574.00,0.88
6573.00,0.88
6572.00,0.88
6571.00,0.88
6570.00,0.88
6569.00,0.88
6568.00,0.88
6567.00,0.88
6566.00,0.88
6565.00,0.89
6564.00,0.89
6563.00,0.89
6562.00,0.89
6561.00,0.89
6560.00,0.89
6559.00,0.89
6558.00,0.89
6557.00,0.89
6556.00,0.89
6555.00,0.89
6554.00,0.89
6553.00,0.89
6552.00,0.90
6551.00,0.90
6550.00,0.90
6549.00,0.90
6548.00,0.90
6547.00,0.90
6546.00,0.90
6545.00,0.90
6544.00,0.90
6543.00,0.90
6542.00,0.90
6541.00,0.90
6540.00,0.91
6539.00,0.91
6538.00,0.91
6537.00,0.91
6536.00,0.91
6535.00,0.91
6534.00,0.91
6533.00,0.91
6532.00,0.91
6531.00,0.91
6530.00,0.91
6529.00,0.91
6528.00,0.91
6527.00,0.92
6526.00,0.92
6525.00,0.92
6524.00,0.92
6523.00,0.92
6522.00,0.92
6521.00,0.92
6520.00,0.92
6519.00,0.92
6518.00,0.92
6517.00,0.92
6516.00,0.92
6515.00,0.92
6514.00,0.92
6513.00,0.92
6512.00,0.93
6511.00,0.93
6510.00,0.93
6509.00,0.93
6508.00,0.93
6507.00,0.93
6506.00,0.93
6505.00,0.93
6504.00,0.93
6503.00,0.93
6502.00,0.93
6501.00,0.93
6500.00,0.94
6499.00,0.94
6498.00,0.94
6497.00,0.94
6496.00,0.94
6495.00,0.94
6494.00,0.94
6493.00,0.94
6492.00,0.94
6491.00,0.94
6490.00,0.94
6489.00,0.94
6488.00,0.94
6487.00,0.94
6486.00,0.94
6485.00,0.94
6484.00,0.94
6483.00,0.94
6482.00,0.94
6481.00,0.94
6480.00,0.94
6479.00,0.94
6478.00,0.94
6477.00,0.94
6476.00,0.95
6475.00,0.95
6474.00,0.95
6473.00,0.95
6472.00,0.95
6471.00,0.95
6470.00,0.95
6469.00,0.95
6468.00,0.95
6467.00,0.95
6466.00,0.95
6465.00,0.96
6464.00,0.96
6463.00,0.96
6462.00,0.96
6461.00,0.96
6460.00,0.96
6459.00,0.96
6458.00,0.96
6457.00,0.96
6456.00,0.96
6455.00,0.96
6454.00,0.96
6453.00,0.96
6452.00,0.96
6451.00,0.96
6450.00,0.96
6449.00,0.96
6448.00,0.96
6447.00,0.96
6446.00,0.96
6445.00,0.96
6444.00,0.96
6443.00,0.96
6442.00,0.96
6441.00,0.96
6440.00,0.96
6439.00,0.96
6438.00,0.97
6437.00,0.97
6436.00,0.97
6435.00,0.97
6434.00,0.97
6433.00,0.97
6432.00,0.97
6431.00,0.97
6430.00,0.97
6429.00,0.97
6428.00,0.97
6427.00,0.97
6426.00,0.97
6425.00,0.97
6424.00,0.97
6423.00,0.97
6422.00,0.97
6421.00,0.97
6420.00,0.97
6419.00,0.97
6418.00,0.97
6417.00,0.98
6416.00,0.98
6415.00,0.98
6414.00,0.98
6413.00,0.98
6412.00,0.98
6411.00,0.98
6410.00,0.98
6409.00,0.98
6408.00,0.98
6407.00,0.98
6406.00,0.98
6405.00,0.98
6404.00,0.99
6403.00,0.99
6402.00,0.99
6401.00,0.99
6400.00,0.99
6399.00,0.99
6398.00,0.99
6397.00,0.99
6396.00,0.99
6395.00,0.99
6394.00,0.99
6393.00,0.99
6392.00,0.99
6391.00,0.99
6390.00,0.99
6389.00,0.99
6388.00,0.99
6387.00,0.99
6386.00,0.99
6385.00,0.99
6384.00,1.00
6383.00,1.00
6382.00,1.00
6381.00,1.00
6380.00,1.00
6379.00,1.00
6378.00,1.00
6377.00,1.00
6376.00,1.00
6375.00,1.00
6374.00,1.00
6373.00,1.00
6372.00,1.00
6371.00,1.01
6370.00,1.01
6369.00,1.01
6368.00,1.01
6367.00,1.01
6366.00,1.01
6365.00,1.01
6364.00,1.01
6363.00,1.01
6362.00,1.01
6361.00,1.01
6360.00,1.01
6359.00,1.01
6358.00,1.01
6357.00,1.01
6356.00,1.01
6355.00,1.01
6354.00,1.01
6353.00,1.02
6352.00,1.02
6351.00,1.02
6350.00,1.02
6349.00,1.02
6348.00,1.02
6347.00,1.02
6346.00,1.02
6345.00,1.02
6344.00,1.02
6343.00,1.02
6342.00,1.02
6341.00,1.02
6340.00,1.02
6339.00,1.03
6338.00,1.03
6337.00,1.03
6336.00,1.03
6335.00,1.03
6334.00,1.03
6333.00,1.03
6332.00,1.03
6331.00,1.04
6330.00,1.04
6329.00,1.04
6328.00,1.04
6327.00,1.04
6326.00,1.04
6325.00,1.04
6324.00,1.04
6323.00,1.04
6322.00,1.05
6321.00,1.05
6320.00,1.05
6319.00,1.05
6318.00,1.05
6317.00,1.05
6316.00,1.05
6315.00,1.05
6314.00,1.05
6313.00,1.05
6312.00,1.05
6311.00,1.05
6310.00,1.05
6309.00,1.05
6308.00,1.06
6307.00,1.06
6306.00,1.06
6305.00,1.06
6304.00,1.06
6303.00,1.06
6302.00,1.06
6301.00,1.06
6300.00,1.06
6299.00,1.07
6298.00,1.07
6297.00,1.07
6296.00,1.07
6295.00,1.07
6294.00,1.07
6293.00,1.07
6292.00,1.07
6291.00,1.07
6290.00,1.08
6289.00,1.08
6288.00,1.08
6287.00,1.08
6286.00,1.08
6285.00,1.08
6284.00,1.08
6283.00,1.08
6282.00,1.08
6281.00,1.08
6280.00,1.08
6279.00,1.08
6278.00,1.08
6277.00,1.08
6276.00,1.08
6275.00,1.08
6274.00,1.08
6273.00,1.08
6272.00,1.09
6271.00,1.09
6270.00,1.09
6269.00,1.09
6268.00,1.09
6267.00,1.09
6266.00,1.09
6265.00,1.10
6264.00,1.10
6263.00,1.10
6262.00,1.10
6261.00,1.10
6260.00,1.11
6259.00,1.11
6258.00,1.11
6257.00,1.11
6256.00,1.11
6255.00,1.11
6254.00,1.11
6253.00,1.12
6252.00,1.12
6251.00,1.12
6250.00,1.12
6249.00,1.12
6248.00,1.12
6247.00,1.12
6246.00,1.12
6245.00,1.12
6244.00,1.12
6243.00,1.12
6242.00,1.12
6241.00,1.13
6240.00,1.13
6239.00,1.13
6238.00,1.13
6237.00,1.13
6236.00,1.13
6235.00,1.13
6234.00,1.13
6233.00,1.13
6232.00,1.13
6231.00,1.13
6230.00,1.13
6229.00,1.13
6228.00,1.13
6227.00,1.14
6226.00,1.14
6225.00,1.14
6224.00,1.14
6223.00,1.14
6222.00,1.14
6221.00,1.14
6220.00,1.14
6219.00,1.14
6218.00,1.15
6217.00,1.15
6216.00,1.15
6215.00,1.15
6214.00,1.15
6213.00,1.15
6212.00,1.15
6211.00,1.16
6210.00,1.16
6209.00,1.16
6208.00,1.16
6207.00,1.16
6206.00,1.16
6205.00,1.16
6204.00,1.16
6203.00,1.17
6202.00,1.17
6201.00,1.17
6200.00,1.17
6199.00,1.17
6198.00,1.17
6197.00,1.17
6196.00,1.17
6195.00,1.17
6194.00,1.18
6193.00,1.18
6192.00,1.18
6191.00,1.18
6190.00,1.18
6189.00,1.18
6188.00,1.18
6187.00,1.19
6186.00,1.19
6185.00,1.19
6184.00,1.19
6183.00,1.19
6182.00,1.19
6181.00,1.19
6180.00,1.19
6179.00,1.19
6178.00,1.19
6177.00,1.20
6176.00,1.20
6175.00,1.20
6174.00,1.20
6173.00,1.20
6172.00,1.20
6171.00,1.20
6170.00,1.20
6169.00,1.20
6168.00,1.20
6167.00,1.21
6166.00,1.21
6165.00,1.21
6164.00,1.21
6163.00,1.21
6162.00,1.21
6161.00,1.21
6160.00,1.22
6159.00,1.22
6158.00,1.22
6157.00,1.22
6156.00,1.22
6155.00,1.22
6154.00,1.23
6153.00,1.23
6152.00,1.23
6151.00,1.23
6150.00,1.23
6149.00,1.23
6148.00,1.23
6147.00,1.23
6146.00,1.24
6145.00,1.24
6144.00,1.24
6143.00,1.24
6142.00,1.24
6141.00,1.24
6140.00,1.24
6139.00,1.24
6138.00,1.25
6137.00,1.25
6136.00,1.25
6135.00,1.25
6134.00,1.25
6133.00,1.25
6132.00,1.25
6131.00,1.26
6130.00,1.26
6129.00,1.26
6128.00,1.26
6127.00,1.26
6126.00,1.26
6125.00,1.26
6124.00,1.27
6123.00,1.27
6122.00,1.27
6121.00,1.27
6120.00,1.27
6119.00,1.27
6118.00,1.27
6117.00,1.27
6116.00,1.28
6115.00,1.28
6114.00,1.28
6113.00,1.28
6112.00,1.28
6111.00,1.28
6110.00,1.28
6109.00,1.28
6108.00,1.28
6107.00,1.29
6106.00,1.29
6105.00,1.29
6104.00,1.29
6103.00,1.29
6102.00,1.29
6101.00,1.29
6100.00,1.29
6099.00,1.29
6098.00,1.30
6097.00,1.30
6096.00,1.30
6095.00,1.30
6094.00,1.30
6093.00,1.30
6092.00,1.30
6091.00,1.30
6090.00,1.30
6089.00,1.31
6088.00,1.31
6087.00,1.31
6086.00,1.31
6085.00,1.31
6084.00,1.31
6083.00,1.31
6082.00,1.31
6081.00,1.32
6080.00,1.32
6079.00,1.32
6078.00,1.32
6077.00,1.32
6076.00,1.32
6075.00,1.32
6074.00,1.32
6073.00,1.33
6072.00,1.33
6071.00,1.33
6070.00,1.33
6069.00,1.33
6068.00,1.33
6067.00,1.33
6066.00,1.33
6065.00,1.33
6064.00,1.34
6063.00,1.34
6062.00,1.34
6061.00,1.34
6060.00,1.34
6059.00,1.34
6058.00,1.34
6057.00,1.34
6056.00,1.34
6055.00,1.34
6054.00,1.34
6053.00,1.35
6052.00,1.35
6051.00,1.35
6050.00,1.35
6049.00,1.35
6048.00,1.35
6047.00,1.35
6046.00,1.35
6045.00,1.35
6044.00,1.35
6043.00,1.35
6042.00,1.35
6041.00,1.35
6040.00,1.35
6039.00,1.35
6038.00,1.35
6037.00,1.36
6036.00,1.36
6035.00,1.36
6034.00,1.36
6033.00,1.36
6032.00,1.36
6031.00,1.36
6030.00,1.36
6029.00,1.36
6028.00,1.36
6027.00,1.36
6026.00,1.36
6025.00,1.36
6024.00,1.36
6023.00,1.36
6022.00,1.35
6021.00,1.35
6020.00,1.35
6019.00,1.35
6018.00,1.35
6017.00,1.35
6016.00,1.36
6015.00,1.36
6014.00,1.36
6013.00,1.36
6012.00,1.36
6011.00,1.36
6010.00,1.36
6009.00,1.36
6008.00,1.36
6007.00,1.36
6006.00,1.36
6005.00,1.36
6004.00,1.36
6003.00,1.36
6002.00,1.36
6001.00,1.36
6000.00,1.36
5999.00,1.36
5998.00,1.35
5997.00,1.35
5996.00,1.35
5995.00,1.35
5994.00,1.35
5993.00,1.35
5992.00,1.35
5991.00,1.35
5990.00,1.34
5989.00,1.34
5988.00,1.34
5987.00,1.34
5986.00,1.34
5985.00,1.33
5984.00,1.33
5983.00,1.33
5982.00,1.33
5981.00,1.32
5980.00,1.32
5979.00,1.32
5978.00,1.31
5977.00,1.31
5976.00,1.30
5975.00,1.30
5974.00,1.30
5973.00,1.29
5972.00,1.29
5971.00,1.28
5970.00,1.28
5969.00,1.27
5968.00,1.26
5967.00,1.26
5966.00,1.25
5965.00,1.25
5964.00,1.24
5963.00,1.23
5962.00,1.23
5961.00,1.22
5960.00,1.22
5959.00,1.21
5958.00,1.20
5957.00,1.20
5956.00,1.19
5955.00,1.19
5954.00,1.18
5953.00,1.18
5952.00,1.17
5951.00,1.17
5950.00,1.16
5949.00,1.16
5948.00,1.15
5947.00,1.15
5946.00,1.14
5945.00,1.14
5944.00,1.14
5943.00,1.14
5942.00,1.13
5941.00,1.13
5940.00,1.13
5939.00,1.13
5938.00,1.13
5937.00,1.13
5936.00,1.12
5935.00,1.12
5934.00,1.12
5933.00,1.12
5932.00,1.12
5931.00,1.12
5930.00,1.12
5929.00,1.12
5928.00,1.11
5927.00,1.11
5926.00,1.11
5925.00,1.11
5924.00,1.11
5923.00,1.11
5922.00,1.10
5921.00,1.10
5920.00,1.10
5919.00,1.10
5918.00,1.09
5917.00,1.09
5916.00,1.09
5915.00,1.09
5914.00,1.08
5913.00,1.08
5912.00,1.08
5911.00,1.08
5910.00,1.07
5909.00,1.07
5908.00,1.07
5907.00,1.07
5906.00,1.07
5905.00,1.07
5904.00,1.07
5903.00,1.07
5902.00,1.07
5901.00,1.07
5900.00,1.07
5899.00,1.07
5898.00,1.07
5897.00,1.07
5896.00,1.07
5895.00,1.07
5894.00,1.08
5893.00,1.08
5892.00,1.08
5891.00,1.08
5890.00,1.09
5889.00,1.09
5888.00,1.09
5887.00,1.10
5886.00,1.10
5885.00,1.10
5884.00,1.11
5883.00,1.11
5882.00,1.11
5881.00,1.12
5880.00,1.12
5879.00,1.12
5878.00,1.12
5877.00,1.13
5876.00,1.13
5875.00,1.13
5874.00,1.13
5873.00,1.14
5872.00,1.14
5871.00,1.14
5870.00,1.14
5869.00,1.14
5868.00,1.14
5867.00,1.15
5866.00,1.15
5865.00,1.15
5864.00,1.15
5863.00,1.15
5862.00,1.15
5861.00,1.15
5860.00,1.15
5859.00,1.16
5858.00,1.16
5857.00,1.16
5856.00,1.16
5855.00,1.16
5854.00,1.16
5853.00,1.16
5852.00,1.16
5851.00,1.16
5850.00,1.16
5849.00,1.16
5848.00,1.16
5847.00,1.16
5846.00,1.17
5845.00,1.17
5844.00,1.17
5843.00,1.17
5842.00,1.17
5841.00,1.17
5840.00,1.17
5839.00,1.17
5838.00,1.16
5837.00,1.16
5836.00,1.16
5835.00,1.16
5834.00,1.16
5833.00,1.16
5832.00,1.16
5831.00,1.16
5830.00,1.16
5829.00,1.16
5828.00,1.16
5827.00,1.16
5826.00,1.16
5825.00,1.16
5824.00,1.16
5823.00,1.16
5822.00,1.16
5821.00,1.16
5820.00,1.16
5819.00,1.16
5818.00,1.16
5817.00,1.16
5816.00,1.16
5815.00,1.16
5814.00,1.16
5813.00,1.16
5812.00,1.16
5811.00,1.16
5810.00,1.16
5809.00,1.16
5808.00,1.16
5807.00,1.16
5806.00,1.16
5805.00,1.16
5804.00,1.16
5803.00,1.16
5802.00,1.16
5801.00,1.16
5800.00,1.16
5799.00,1.15
5798.00,1.15
5797.00,1.15
5796.00,1.15
5795.00,1.15
5794.00,1.15
5793.00,1.15
5792.00,1.14
5791.00,1.14
5790.00,1.14
5789.00,1.14
5788.00,1.14
5787.00,1.13
5786.00,1.13
5785.00,1.13
5784.00,1.13
5783.00,1.12
5782.00,1.12
5781.00,1.12
5780.00,1.12
5779.00,1.12
5778.00,1.12
5777.00,1.11
5776.00,1.11
5775.00,1.11
5774.00,1.11
5773.00,1.11
5772.00,1.11
5771.00,1.11
5770.00,1.11
5769.00,1.11
5768.00,1.11
5767.00,1.12
5766.00,1.12
5765.00,1.12
5764.00,1.12
5763.00,1.12
5762.00,1.12
5761.00,1.13
5760.00,1.13
5759.00,1.13
5758.00,1.13
5757.00,1.14
5756.00,1.14
5755.00,1.14
5754.00,1.14
5753.00,1.15
5752.00,1.15
5751.00,1.15
5750.00,1.16
5749.00,1.16
5748.00,1.17
5747.00,1.17
5746.00,1.17
5745.00,1.18
5744.00,1.18
5743.00,1.18
5742.00,1.19
5741.00,1.19
5740.00,1.19
5739.00,1.20
5738.00,1.20
5737.00,1.20
5736.00,1.20
5735.00,1.21
5734.00,1.21
5733.00,1.21
5732.00,1.21
5731.00,1.21
5730.00,1.21
5729.00,1.21
5728.00,1.22
5727.00,1.22
5726.00,1.22
5725.00,1.22
5724.00,1.22
5723.00,1.22
5722.00,1.22
5721.00,1.22
5720.00,1.22
5719.00,1.22
5718.00,1.22
5717.00,1.22
5716.00,1.22
5715.00,1.22
5714.00,1.22
5713.00,1.22
5712.00,1.22
5711.00,1.22
5710.00,1.22
5709.00,1.22
5708.00,1.22
5707.00,1.22
5706.00,1.22
5705.00,1.22
5704.00,1.21
5703.00,1.21
5702.00,1.21
5701.00,1.21
5700.00,1.21
5699.00,1.21
5698.00,1.21
5697.00,1.21
5696.00,1.21
5695.00,1.21
5694.00,1.20
5693.00,1.20
5692.00,1.20
5691.00,1.20
5690.00,1.20
5689.00,1.20
5688.00,1.20
5687.00,1.19
5686.00,1.19
5685.00,1.19
5684.00,1.19
5683.00,1.19
5682.00,1.19
5681.00,1.19
5680.00,1.19
5679.00,1.19
5678.00,1.19
5677.00,1.18
5676.00,1.18
5675.00,1.18
5674.00,1.18
5673.00,1.18
5672.00,1.18
5671.00,1.18
5670.00,1.18
5669.00,1.18
5668.00,1.18
5667.00,1.19
5666.00,1.19
5665.00,1.19
5664.00,1.19
5663.00,1.19
5662.00,1.19
5661.00,1.19
5660.00,1.19
5659.00,1.19
5658.00,1.20
5657.00,1.20
5656.00,1.20
5655.00,1.20
5654.00,1.20
5653.00,1.20
5652.00,1.21
5651.00,1.21
5650.00,1.21
5649.00,1.21
5648.00,1.21
5647.00,1.21
5646.00,1.22
5645.00,1.22
5644.00,1.22
5643.00,1.22
5642.00,1.22
5641.00,1.22
5640.00,1.23
5639.00,1.23
5638.00,1.23
5637.00,1.23
5636.00,1.23
5635.00,1.23
5634.00,1.23
5633.00,1.24
5632.00,1.24
5631.00,1.24
5630.00,1.24
5629.00,1.24
5628.00,1.24
5627.00,1.25
5626.00,1.25
5625.00,1.25
5624.00,1.25
5623.00,1.25
5622.00,1.25
5621.00,1.26
5620.00,1.26
5619.00,1.26
5618.00,1.26
5617.00,1.26
5616.00,1.26
5615.00,1.26
5614.00,1.26
5613.00,1.27
5612.00,1.27
5611.00,1.27
5610.00,1.27
5609.00,1.27
5608.00,1.27
5607.00,1.27
5606.00,1.27
5605.00,1.28
5604.00,1.28
5603.00,1.28
5602.00,1.28
5601.00,1.28
5600.00,1.28
5599.00,1.28
5598.00,1.29
5597.00,1.29
5596.00,1.29
5595.00,1.29
5594.00,1.29
5593.00,1.29
5592.00,1.29
5591.00,1.29
5590.00,1.30
5589.00,1.30
5588.00,1.30
5587.00,1.30
5586.00,1.30
5585.00,1.30
5584.00,1.30
5583.00,1.30
5582.00,1.30
5581.00,1.31
5580.00,1.31
5579.00,1.31
5578.00,1.31
5577.00,1.31
5576.00,1.31
5575.00,1.32
5574.00,1.32
5573.00,1.32
5572.00,1.32
5571.00,1.32
5570.00,1.33
5569.00,1.33
5568.00,1.33
5567.00,1.33
5566.00,1.33
5565.00,1.33
5564.00,1.33
5563.00,1.33
5562.00,1.34
5561.00,1.34
5560.00,1.34
5559.00,1.34
5558.00,1.34
5557.00,1.34
5556.00,1.34
5555.00,1.34
5554.00,1.34
5553.00,1.34
5552.00,1.35
5551.00,1.35
5550.00,1.35
5549.00,1.35
5548.00,1.35
5547.00,1.35
5546.00,1.35
5545.00,1.35
5544.00,1.35
5543.00,1.36
5542.00,1.36
5541.00,1.36
5540.00,1.36
5539.00,1.36
5538.00,1.36
5537.00,1.36
5536.00,1.36
5535.00,1.36
5534.00,1.37
5533.00,1.37
5532.00,1.37
5531.00,1.37
5530.00,1.37
5529.00,1.37
5528.00,1.37
5527.00,1.37
5526.00,1.37
5525.00,1.37
5524.00,1.37
5523.00,1.37
5522.00,1.37
5521.00,1.37
5520.00,1.37
5519.00,1.37
5518.00,1.37
5517.00,1.38
5516.00,1.38
5515.00,1.38
5514.00,1.38
5513.00,1.38
5512.00,1.38
5511.00,1.38
5510.00,1.38
5509.00,1.38
5508.00,1.38
5507.00,1.38
5506.00,1.38
5505.00,1.39
5504.00,1.39
5503.00,1.39
5502.00,1.39
5501.00,1.39
5500.00,1.39
5499.00,1.39
5498.00,1.39
5497.00,1.39
5496.00,1.39
5495.00,1.39
5494.00,1.39
5493.00,1.39
5492.00,1.39
5491.00,1.39
5490.00,1.39
5489.00,1.40
5488.00,1.40
5487.00,1.40
5486.00,1.40
5485.00,1.40
5484.00,1.40
5483.00,1.40
5482.00,1.40
5481.00,1.40
5480.00,1.41
5479.00,1.41
5478.00,1.41
5477.00,1.41
5476.00,1.41
5475.00,1.41
5474.00,1.41
5473.00,1.41
5472.00,1.41
5471.00,1.42
5470.00,1.42
5469.00,1.42
5468.00,1.42
5467.00,1.42
5466.00,1.42
5465.00,1.42
5464.00,1.42
5463.00,1.42
5462.00,1.42
5461.00,1.43
5460.00,1.43
5459.00,1.43
5458.00,1.43
5457.00,1.43
5456.00,1.43
5455.00,1.43
5454.00,1.43
5453.00,1.43
5452.00,1.43
5451.00,1.43
5450.00,1.43
5449.00,1.43
5448.00,1.43
5447.00,1.43
5446.00,1.43
5445.00,1.43
5444.00,1.43
5443.00,1.43
5442.00,1.43
5441.00,1.43
5440.00,1.43
5439.00,1.44
5438.00,1.44
5437.00,1.44
5436.00,1.44
5435.00,1.44
5434.00,1.44
5433.00,1.44
5432.00,1.44
5431.00,1.44
5430.00,1.44
5429.00,1.44
5428.00,1.44
5427.00,1.44
5426.00,1.44
5425.00,1.44
5424.00,1.44
5423.00,1.44
5422.00,1.44
5421.00,1.44
5420.00,1.44
5419.00,1.44
5418.00,1.44
5417.00,1.44
5416.00,1.44
5415.00,1.44
5414.00,1.44
5413.00,1.44
5412.00,1.44
5411.00,1.44
5410.00,1.44
5409.00,1.44
5408.00,1.44
5407.00,1.44
5406.00,1.44
5405.00,1.44
5404.00,1.44
5403.00,1.44
5402.00,1.44
5401.00,1.44
5400.00,1.44
5399.00,1.43
5398.00,1.43
5397.00,1.43
5396.00,1.43
5395.00,1.43
5394.00,1.43
5393.00,1.43
5392.00,1.42
5391.00,1.42
5390.00,1.42
5389.00,1.42
5388.00,1.42
5387.00,1.42
5386.00,1.41
5385.00,1.41
5384.00,1.41
5383.00,1.41
5382.00,1.41
5381.00,1.40
5380.00,1.40
5379.00,1.40
5378.00,1.40
5377.00,1.39
5376.00,1.39
5375.00,1.39
5374.00,1.38
5373.00,1.38
5372.00,1.38
5371.00,1.37
5370.00,1.37
5369.00,1.36
5368.00,1.36
5367.00,1.35
5366.00,1.35
5365.00,1.34
5364.00,1.34
5363.00,1.33
5362.00,1.33
5361.00,1.32
5360.00,1.32
5359.00,1.31
5358.00,1.30
5357.00,1.30
5356.00,1.29
5355.00,1.28
5354.00,1.28
5353.00,1.27
5352.00,1.26
5351.00,1.26
5350.00,1.25
5349.00,1.24
5348.00,1.23
5347.00,1.22
5346.00,1.22
5345.00,1.21
5344.00,1.20
5343.00,1.19
5342.00,1.18
5341.00,1.17
5340.00,1.16
5339.00,1.15
5338.00,1.14
5337.00,1.14
5336.00,1.13
5335.00,1.12
5334.00,1.11
5333.00,1.10
5332.00,1.09
5331.00,1.08
5330.00,1.07
5329.00,1.06
5328.00,1.05
5327.00,1.05
5326.00,1.04
5325.00,1.03
5324.00,1.02
5323.00,1.01
5322.00,1.00
5321.00,0.99
5320.00,0.98
5319.00,0.97
5318.00,0.96
5317.00,0.96
5316.00,0.95
5315.00,0.94
5314.00,0.93
5313.00,0.92
5312.00,0.91
5311.00,0.91
5310.00,0.90
5309.00,0.89
5308.00,0.89
5307.00,0.88
5306.00,0.87
5305.00,0.87
5304.00,0.86
5303.00,0.86
5302.00,0.85
5301.00,0.84
5300.00,0.84
5299.00,0.84
5298.00,0.83
5297.00,0.83
5296.00,0.82
5295.00,0.82
5294.00,0.82
5293.00,0.81
5292.00,0.81
5291.00,0.81
5290.00,0.80
5289.00,0.80
5288.00,0.80
5287.00,0.79
5286.00,0.79
5285.00,0.79
5284.00,0.79
5283.00,0.79
5282.00,0.79
5281.00,0.78
5280.00,0.78
5279.00,0.78
5278.00,0.78
5277.00,0.78
5276.00,0.78
5275.00,0.78
5274.00,0.78
5273.00,0.78
5272.00,0.78
5271.00,0.78
5270.00,0.78
5269.00,0.78
5268.00,0.78
5267.00,0.77
5266.00,0.77
5265.00,0.77
5264.00,0.77
5263.00,0.77
5262.00,0.77
5261.00,0.77
5260.00,0.77
5259.00,0.77
5258.00,0.77
5257.00,0.77
5256.00,0.77
5255.00,0.77
5254.00,0.77
5253.00,0.77
5252.00,0.77
5251.00,0.76
5250.00,0.76
5249.00,0.76
5248.00,0.76
5247.00,0.76
5246.00,0.76
5245.00,0.77
5244.00,0.77
5243.00,0.77
5242.00,0.77
5241.00,0.77
5240.00,0.77
5239.00,0.77
5238.00,0.77
5237.00,0.77
5236.00,0.77
5235.00,0.77
5234.00,0.77
5233.00,0.77
5232.00,0.77
5231.00,0.77
5230.00,0.77
5229.00,0.77
5228.00,0.77
5227.00,0.77
5226.00,0.77
5225.00,0.77
5224.00,0.77
5223.00,0.77
5222.00,0.77
5221.00,0.77
5220.00,0.77
5219.00,0.77
5218.00,0.77
5217.00,0.78
5216.00,0.78
5215.00,0.78
5214.00,0.78
5213.00,0.78
5212.00,0.78
5211.00,0.78
5210.00,0.78
5209.00,0.78
5208.00,0.78
5207.00,0.78
5206.00,0.78
5205.00,0.78
5204.00,0.78
5203.00,0.78
5202.00,0.78
5201.00,0.78
5200.00,0.78
5199.00,0.79
5198.00,0.79
5197.00,0.79
5196.00,0.79
5195.00,0.79
5194.00,0.79
5193.00,0.79
5192.00,0.79
5191.00,0.79
5190.00,0.79
5189.00,0.79
5188.00,0.79
5187.00,0.79
5186.00,0.79
5185.00,0.79
5184.00,0.79
5183.00,0.79
5182.00,0.79
5181.00,0.79
5180.00,0.79
5179.00,0.79
5178.00,0.79
5177.00,0.79
5176.00,0.79
5175.00,0.79
5174.00,0.79
5173.00,0.79
5172.00,0.79
5171.00,0.79
5170.00,0.80
5169.00,0.80
5168.00,0.80
5167.00,0.80
5166.00,0.80
5165.00,0.79
5164.00,0.79
5163.00,0.79
5162.00,0.79
5161.00,0.79
5160.00,0.79
5159.00,0.79
5158.00,0.80
5157.00,0.80
5156.00,0.80
5155.00,0.80
5154.00,0.80
5153.00,0.80
5152.00,0.80
5151.00,0.80
5150.00,0.80
5149.00,0.80
5148.00,0.80
5147.00,0.80
5146.00,0.80
5145.00,0.80
5144.00,0.81
5143.00,0.81
5142.00,0.81
5141.00,0.81
5140.00,0.81
5139.00,0.81
5138.00,0.81
5137.00,0.81
5136.00,0.81
5135.00,0.81
5134.00,0.81
5133.00,0.81
5132.00,0.81
5131.00,0.81
5130.00,0.81
5129.00,0.81
5128.00,0.81
5127.00,0.81
5126.00,0.81
5125.00,0.81
5124.00,0.81
5123.00,0.81
5122.00,0.81
5121.00,0.81
5120.00,0.81
5119.00,0.81
5118.00,0.82
5117.00,0.82
5116.00,0.82
5115.00,0.82
5114.00,0.82
5113.00,0.82
5112.00,0.82
5111.00,0.82
5110.00,0.82
5109.00,0.82
5108.00,0.82
5107.00,0.82
5106.00,0.82
5105.00,0.82
5104.00,0.83
5103.00,0.83
5102.00,0.83
5101.00,0.83
5100.00,0.83
5099.00,0.83
5098.00,0.83
5097.00,0.83
5096.00,0.83
5095.00,0.83
5094.00,0.83
5093.00,0.83
5092.00,0.83
5091.00,0.83
5090.00,0.83
5089.00,0.83
5088.00,0.83
5087.00,0.83
5086.00,0.83
5085.00,0.83
5084.00,0.83
5083.00,0.83
5082.00,0.83
5081.00,0.83
5080.00,0.83
5079.00,0.83
5078.00,0.83
5077.00,0.83
5076.00,0.83
5075.00,0.83
5074.00,0.83
5073.00,0.83
5072.00,0.84
5071.00,0.84
5070.00,0.84
5069.00,0.84
5068.00,0.84
5067.00,0.84
5066.00,0.84
5065.00,0.84
5064.00,0.84
5063.00,0.84
5062.00,0.84
5061.00,0.85
5060.00,0.85
5059.00,0.85
5058.00,0.85
5057.00,0.85
5056.00,0.85
5055.00,0.85
5054.00,0.85
5053.00,0.85
5052.00,0.86
5051.00,0.86
5050.00,0.86
5049.00,0.86
5048.00,0.86
5047.00,0.86
5046.00,0.86
5045.00,0.86
5044.00,0.86
5043.00,0.86
5042.00,0.86
5041.00,0.86
5040.00,0.86
5039.00,0.87
5038.00,0.87
5037.00,0.87
5036.00,0.87
5035.00,0.87
5034.00,0.87
5033.00,0.87
5032.00,0.87
5031.00,0.87
5030.00,0.87
5029.00,0.87
5028.00,0.87
5027.00,0.87
5026.00,0.87
5025.00,0.87
5024.00,0.87
5023.00,0.87
5022.00,0.87
5021.00,0.87
5020.00,0.88
5019.00,0.88
5018.00,0.88
5017.00,0.88
5016.00,0.88
5015.00,0.88
5014.00,0.88
5013.00,0.88
5012.00,0.88
5011.00,0.88
5010.00,0.89
5009.00,0.89
5008.00,0.89
5007.00,0.89
5006.00,0.89
5005.00,0.89
5004.00,0.89
5003.00,0.89
5002.00,0.89
5001.00,0.89
5000.00,0.89
4999.00,0.89
4998.00,0.89
4997.00,0.89
4996.00,0.89
4995.00,0.90
4994.00,0.90
4993.00,0.90
4992.00,0.90
4991.00,0.90
4990.00,0.90
4989.00,0.90
4988.00,0.90
4987.00,0.90
4986.00,0.90
4985.00,0.90
4984.00,0.90
4983.00,0.90
4982.00,0.90
4981.00,0.90
4980.00,0.90
4979.00,0.90
4978.00,0.91
4977.00,0.91
4976.00,0.91
4975.00,0.91
4974.00,0.91
4973.00,0.91
4972.00,0.91
4971.00,0.91
4970.00,0.91
4969.00,0.91
4968.00,0.91
4967.00,0.91
4966.00,0.92
4965.00,0.92
4964.00,0.92
4963.00,0.92
4962.00,0.92
4961.00,0.92
4960.00,0.92
4959.00,0.92
4958.00,0.93
4957.00,0.93
4956.00,0.93
4955.00,0.93
4954.00,0.93
4953.00,0.93
4952.00,0.93
4951.00,0.93
4950.00,0.93
4949.00,0.93
4948.00,0.94
4947.00,0.94
4946.00,0.94
4945.00,0.94
4944.00,0.94
4943.00,0.94
4942.00,0.94
4941.00,0.94
4940.00,0.94
4939.00,0.94
4938.00,0.94
4937.00,0.94
4936.00,0.94
4935.00,0.94
4934.00,0.94
4933.00,0.94
4932.00,0.94
4931.00,0.94
4930.00,0.95
4929.00,0.95
4928.00,0.95
4927.00,0.95
4926.00,0.95
4925.00,0.95
4924.00,0.95
4923.00,0.95
4922.00,0.95
4921.00,0.95
4920.00,0.96
4919.00,0.96
4918.00,0.96
4917.00,0.96
4916.00,0.96
4915.00,0.96
4914.00,0.96
4913.00,0.96
4912.00,0.96
4911.00,0.96
4910.00,0.96
4909.00,0.96
4908.00,0.96
4907.00,0.96
4906.00,0.96
4905.00,0.96
4904.00,0.96
4903.00,0.96
4902.00,0.96
4901.00,0.96
4900.00,0.96
4899.00,0.96
4898.00,0.96
4897.00,0.96
4896.00,0.97
4895.00,0.97
4894.00,0.97
4893.00,0.97
4892.00,0.97
4891.00,0.97
4890.00,0.97
4889.00,0.97
4888.00,0.97
4887.00,0.97
4886.00,0.97
4885.00,0.97
4884.00,0.97
4883.00,0.97
4882.00,0.97
4881.00,0.98
4880.00,0.98
4879.00,0.98
4878.00,0.98
4877.00,0.98
4876.00,0.98
4875.00,0.98
4874.00,0.98
4873.00,0.98
4872.00,0.98
4871.00,0.98
4870.00,0.98
4869.00,0.98
4868.00,0.99
4867.00,0.99
4866.00,0.99
4865.00,0.99
4864.00,0.99
4863.00,0.99
4862.00,0.99
4861.00,0.99
4860.00,0.99
4859.00,0.99
4858.00,0.99
4857.00,0.99
4856.00,0.99
4855.00,0.99
4854.00,0.99
4853.00,1.00
4852.00,1.00
4851.00,1.00
4850.00,1.00
4849.00,1.00
4848.00,1.00
4847.00,1.00
4846.00,1.00
4845.00,1.00
4844.00,1.00
4843.00,1.00
4842.00,1.00
4841.00,1.00
4840.00,1.01
4839.00,1.01
4838.00,1.01
4837.00,1.01
4836.00,1.01
4835.00,1.01
4834.00,1.01
4833.00,1.01
4832.00,1.01
4831.00,1.01
4830.00,1.01
4829.00,1.01
4828.00,1.01
4827.00,1.01
4826.00,1.02
4825.00,1.02
4824.00,1.02
4823.00,1.02
4822.00,1.02
4821.00,1.02
4820.00,1.02
4819.00,1.02
4818.00,1.02
4817.00,1.02
4816.00,1.02
4815.00,1.02
4814.00,1.02
4813.00,1.03
4812.00,1.03
4811.00,1.03
4810.00,1.03
4809.00,1.03
4808.00,1.03
4807.00,1.03
4806.00,1.03
4805.00,1.03
4804.00,1.03
4803.00,1.04
4802.00,1.04
4801.00,1.04
4800.00,1.04
4799.00,1.04
4798.00,1.04
4797.00,1.04
4796.00,1.04
4795.00,1.04
4794.00,1.04
4793.00,1.04
4792.00,1.04
4791.00,1.04
4790.00,1.04
4789.00,1.04
4788.00,1.05
4787.00,1.05
4786.00,1.05
4785.00,1.05
4784.00,1.05
4783.00,1.05
4782.00,1.05
4781.00,1.05
4780.00,1.06
4779.00,1.06
4778.00,1.06
4777.00,1.06
4776.00,1.06
4775.00,1.06
4774.00,1.06
4773.00,1.06
4772.00,1.07
4771.00,1.07
4770.00,1.07
4769.00,1.07
4768.00,1.07
4767.00,1.07
4766.00,1.07
4765.00,1.07
4764.00,1.07
4763.00,1.08
4762.00,1.08
4761.00,1.08
4760.00,1.08
4759.00,1.08
4758.00,1.08
4757.00,1.09
4756.00,1.09
4755.00,1.09
4754.00,1.09
4753.00,1.09
4752.00,1.09
4751.00,1.09
4750.00,1.09
4749.00,1.10
4748.00,1.10
4747.00,1.10
4746.00,1.10
4745.00,1.10
4744.00,1.10
4743.00,1.10
4742.00,1.10
4741.00,1.10
4740.00,1.11
4739.00,1.11
4738.00,1.11
4737.00,1.11
4736.00,1.11
4735.00,1.11
4734.00,1.12
4733.00,1.12
4732.00,1.12
4731.00,1.12
4730.00,1.12
4729.00,1.13
4728.00,1.13
4727.00,1.13
4726.00,1.13
4725.00,1.13
4724.00,1.13
4723.00,1.14
4722.00,1.14
4721.00,1.14
4720.00,1.14
4719.00,1.14
4718.00,1.14
4717.00,1.14
4716.00,1.15
4715.00,1.15
4714.00,1.15
4713.00,1.15
4712.00,1.15
4711.00,1.15
4710.00,1.16
4709.00,1.16
4708.00,1.16
4707.00,1.16
4706.00,1.16
4705.00,1.17
4704.00,1.17
4703.00,1.17
4702.00,1.17
4701.00,1.17
4700.00,1.18
4699.00,1.18
4698.00,1.18
4697.00,1.18
4696.00,1.18
4695.00,1.18
4694.00,1.18
4693.00,1.19
4692.00,1.19
4691.00,1.19
4690.00,1.19
4689.00,1.19
4688.00,1.19
4687.00,1.19
4686.00,1.19
4685.00,1.20
4684.00,1.20
4683.00,1.20
4682.00,1.20
4681.00,1.20
4680.00,1.20
4679.00,1.20
4678.00,1.20
4677.00,1.21
4676.00,1.21
4675.00,1.21
4674.00,1.21
4673.00,1.21
4672.00,1.21
4671.00,1.21
4670.00,1.22
4669.00,1.22
4668.00,1.22
4667.00,1.22
4666.00,1.22
4665.00,1.22
4664.00,1.22
4663.00,1.23
4662.00,1.23
4661.00,1.23
4660.00,1.23
4659.00,1.23
4658.00,1.23
4657.00,1.23
4656.00,1.23
4655.00,1.24
4654.00,1.24
4653.00,1.24
4652.00,1.24
4651.00,1.24
4650.00,1.24
4649.00,1.24
4648.00,1.24
4647.00,1.24
4646.00,1.24
4645.00,1.24
4644.00,1.25
4643.00,1.25
4642.00,1.25
4641.00,1.25
4640.00,1.25
4639.00,1.25
4638.00,1.25
4637.00,1.25
4636.00,1.26
4635.00,1.26
4634.00,1.26
4633.00,1.26
4632.00,1.26
4631.00,1.26
4630.00,1.26
4629.00,1.27
4628.00,1.27
4627.00,1.27
4626.00,1.27
4625.00,1.27
4624.00,1.27
4623.00,1.27
4622.00,1.27
4621.00,1.27
4620.00,1.28
4619.00,1.28
4618.00,1.28
4617.00,1.28
4616.00,1.28
4615.00,1.28
4614.00,1.28
4613.00,1.28
4612.00,1.28
4611.00,1.28
4610.00,1.28
4609.00,1.28
4608.00,1.28
4607.00,1.28
4606.00,1.28
4605.00,1.28
4604.00,1.28
4603.00,1.29
4602.00,1.29
4601.00,1.29
4600.00,1.29
4599.00,1.29
4598.00,1.29
4597.00,1.29
4596.00,1.29
4595.00,1.29
4594.00,1.29
4593.00,1.29
4592.00,1.30
4591.00,1.30
4590.00,1.30
4589.00,1.30
4588.00,1.30
4587.00,1.30
4586.00,1.30
4585.00,1.30
4584.00,1.30
4583.00,1.30
4582.00,1.30
4581.00,1.30
4580.00,1.30
4579.00,1.30
4578.00,1.30
4577.00,1.31
4576.00,1.31
4575.00,1.31
4574.00,1.31
4573.00,1.31
4572.00,1.31
4571.00,1.31
4570.00,1.31
4569.00,1.31
4568.00,1.32
4567.00,1.32
4566.00,1.32
4565.00,1.32
4564.00,1.32
4563.00,1.32
4562.00,1.32
4561.00,1.33
4560.00,1.33
4559.00,1.33
4558.00,1.33
4557.00,1.33
4556.00,1.33
4555.00,1.33
4554.00,1.33
4553.00,1.34
4552.00,1.34
4551.00,1.34
4550.00,1.34
4549.00,1.34
4548.00,1.34
4547.00,1.34
4546.00,1.34
4545.00,1.35
4544.00,1.35
4543.00,1.35
4542.00,1.35
4541.00,1.35
4540.00,1.35
4539.00,1.35
4538.00,1.35
4537.00,1.35
4536.00,1.35
4535.00,1.35
4534.00,1.35
4533.00,1.35
4532.00,1.35
4531.00,1.35
4530.00,1.35
4529.00,1.36
4528.00,1.36
4527.00,1.36
4526.00,1.36
4525.00,1.36
4524.00,1.36
4523.00,1.36
4522.00,1.36
4521.00,1.36
4520.00,1.36
4519.00,1.36
4518.00,1.36
4517.00,1.36
4516.00,1.36
4515.00,1.36
4514.00,1.36
4513.00,1.35
4512.00,1.35
4511.00,1.35
4510.00,1.35
4509.00,1.35
4508.00,1.35
4507.00,1.35
4506.00,1.35
4505.00,1.35
4504.00,1.35
4503.00,1.35
4502.00,1.35
4501.00,1.35
4500.00,1.35
4499.00,1.35
4498.00,1.35
4497.00,1.35
4496.00,1.35
4495.00,1.35
4494.00,1.35
4493.00,1.35
4492.00,1.35
4491.00,1.35
4490.00,1.34
4489.00,1.34
4488.00,1.34
4487.00,1.34
4486.00,1.34
4485.00,1.34
4484.00,1.34
4483.00,1.34
4482.00,1.34
4481.00,1.34
4480.00,1.33
4479.00,1.33
4478.00,1.33
4477.00,1.33
4476.00,1.33
4475.00,1.33
4474.00,1.33
4473.00,1.33
4472.00,1.32
4471.00,1.32
4470.00,1.32
4469.00,1.32
4468.00,1.32
4467.00,1.31
4466.00,1.31
4465.00,1.31
4464.00,1.31
4463.00,1.30
4462.00,1.30
4461.00,1.30
4460.00,1.29
4459.00,1.29
4458.00,1.29
4457.00,1.28
4456.00,1.28
4455.00,1.27
4454.00,1.27
4453.00,1.27
4452.00,1.26
4451.00,1.26
4450.00,1.25
4449.00,1.25
4448.00,1.24
4447.00,1.24
4446.00,1.23
4445.00,1.23
4444.00,1.23
4443.00,1.22
4442.00,1.22
4441.00,1.21
4440.00,1.21
4439.00,1.20
4438.00,1.20
4437.00,1.20
4436.00,1.19
4435.00,1.19
4434.00,1.19
4433.00,1.19
4432.00,1.18
4431.00,1.18
4430.00,1.18
4429.00,1.18
4428.00,1.18
4427.00,1.17
4426.00,1.17
4425.00,1.17
4424.00,1.17
4423.00,1.17
4422.00,1.17
4421.00,1.17
4420.00,1.16
4419.00,1.16
4418.00,1.16
4417.00,1.16
4416.00,1.16
4415.00,1.16
4414.00,1.16
4413.00,1.16
4412.00,1.16
4411.00,1.16
4410.00,1.16
4409.00,1.16
4408.00,1.16
4407.00,1.16
4406.00,1.16
4405.00,1.16
4404.00,1.17
4403.00,1.17
4402.00,1.17
4401.00,1.17
4400.00,1.17
4399.00,1.17
4398.00,1.17
4397.00,1.17
4396.00,1.17
4395.00,1.18
4394.00,1.18
4393.00,1.18
4392.00,1.18
4391.00,1.18
4390.00,1.18
4389.00,1.18
4388.00,1.19
4387.00,1.19
4386.00,1.19
4385.00,1.19
4384.00,1.19
4383.00,1.19
4382.00,1.20
4381.00,1.20
4380.00,1.20
4379.00,1.20
4378.00,1.20
4377.00,1.21
4376.00,1.21
4375.00,1.21
4374.00,1.21
4373.00,1.21
4372.00,1.21
4371.00,1.21
4370.00,1.21
4369.00,1.21
4368.00,1.21
4367.00,1.21
4366.00,1.21
4365.00,1.21
4364.00,1.21
4363.00,1.21
4362.00,1.21
4361.00,1.21
4360.00,1.21
4359.00,1.21
4358.00,1.21
4357.00,1.21
4356.00,1.21
4355.00,1.21
4354.00,1.21
4353.00,1.21
4352.00,1.21
4351.00,1.21
4350.00,1.21
4349.00,1.21
4348.00,1.21
4347.00,1.21
4346.00,1.21
4345.00,1.21
4344.00,1.21
4343.00,1.21
4342.00,1.21
4341.00,1.21
4340.00,1.21
4339.00,1.21
4338.00,1.21
4337.00,1.21
4336.00,1.21
4335.00,1.21
4334.00,1.21
4333.00,1.21
4332.00,1.21
4331.00,1.21
4330.00,1.21
4329.00,1.21
4328.00,1.22
4327.00,1.22
4326.00,1.22
4325.00,1.22
4324.00,1.22
4323.00,1.22
4322.00,1.22
4321.00,1.22
4320.00,1.23
4319.00,1.23
4318.00,1.23
4317.00,1.23
4316.00,1.23
4315.00,1.23
4314.00,1.23
4313.00,1.24
4312.00,1.24
4311.00,1.24
4310.00,1.24
4309.00,1.24
4308.00,1.24
4307.00,1.25
4306.00,1.25
4305.00,1.25
4304.00,1.25
4303.00,1.25
4302.00,1.25
4301.00,1.26
4300.00,1.26
4299.00,1.26
4298.00,1.26
4297.00,1.26
4296.00,1.26
4295.00,1.27
4294.00,1.27
4293.00,1.27
4292.00,1.27
4291.00,1.27
4290.00,1.27
4289.00,1.28
4288.00,1.28
4287.00,1.28
4286.00,1.28
4285.00,1.28
4284.00,1.28
4283.00,1.28
4282.00,1.28
4281.00,1.28
4280.00,1.28
4279.00,1.28
4278.00,1.28
4277.00,1.28
4276.00,1.28
4275.00,1.28
4274.00,1.28
4273.00,1.28
4272.00,1.28
4271.00,1.28
4270.00,1.28
4269.00,1.28
4268.00,1.28
4267.00,1.28
4266.00,1.28
4265.00,1.28
4264.00,1.28
4263.00,1.28
4262.00,1.28
4261.00,1.28
4260.00,1.28
4259.00,1.28
4258.00,1.28
4257.00,1.28
4256.00,1.27
4255.00,1.27
4254.00,1.27
4253.00,1.27
4252.00,1.27
4251.00,1.27
4250.00,1.27
4249.00,1.27
4248.00,1.27
4247.00,1.27
4246.00,1.28
4245.00,1.28
4244.00,1.28
4243.00,1.28
4242.00,1.28
4241.00,1.28
4240.00,1.28
4239.00,1.29
4238.00,1.29
4237.00,1.29
4236.00,1.29
4235.00,1.29
4234.00,1.29
4233.00,1.30
4232.00,1.30
4231.00,1.30
4230.00,1.30
4229.00,1.30
4228.00,1.30
4227.00,1.30
4226.00,1.30
4225.00,1.30
4224.00,1.30
4223.00,1.30
4222.00,1.30
4221.00,1.30
4220.00,1.30
4219.00,1.30
4218.00,1.30
4217.00,1.30
4216.00,1.30
4215.00,1.30
4214.00,1.30
4213.00,1.30
4212.00,1.30
4211.00,1.30
4210.00,1.30
4209.00,1.30
4208.00,1.31
4207.00,1.31
4206.00,1.31
4205.00,1.31
4204.00,1.31
4203.00,1.31
4202.00,1.31
4201.00,1.31
4200.00,1.31
4199.00,1.31
4198.00,1.31
4197.00,1.31
4196.00,1.32
4195.00,1.32
4194.00,1.32
4193.00,1.32
4192.00,1.32
4191.00,1.32
4190.00,1.32
4189.00,1.32
4188.00,1.32
4187.00,1.32
4186.00,1.32
4185.00,1.32
4184.00,1.32
4183.00,1.32
4182.00,1.32
4181.00,1.32
4180.00,1.32
4179.00,1.32
4178.00,1.32
4177.00,1.32
4176.00,1.32
4175.00,1.33
4174.00,1.33
4173.00,1.33
4172.00,1.33
4171.00,1.33
4170.00,1.33
4169.00,1.33
4168.00,1.33
4167.00,1.33
4166.00,1.33
4165.00,1.33
4164.00,1.33
4163.00,1.33
4162.00,1.33
4161.00,1.33
4160.00,1.33
4159.00,1.33
4158.00,1.33
4157.00,1.33
4156.00,1.33
4155.00,1.33
4154.00,1.33
4153.00,1.33
4152.00,1.33
4151.00,1.33
4150.00,1.33
4149.00,1.33
4148.00,1.33
4147.00,1.33
4146.00,1.33
4145.00,1.33
4144.00,1.33
4143.00,1.34
4142.00,1.34
4141.00,1.34
4140.00,1.34
4139.00,1.34
4138.00,1.34
4137.00,1.34
4136.00,1.34
4135.00,1.35
4134.00,1.35
4133.00,1.35
4132.00,1.35
4131.00,1.35
4130.00,1.35
4129.00,1.35
4128.00,1.36
4127.00,1.36
4126.00,1.36
4125.00,1.36
4124.00,1.36
4123.00,1.36
4122.00,1.36
4121.00,1.36
4120.00,1.36
4119.00,1.36
4118.00,1.36
4117.00,1.36
4116.00,1.36
4115.00,1.36
4114.00,1.36
4113.00,1.36
4112.00,1.36
4111.00,1.36
4110.00,1.36
4109.00,1.36
4108.00,1.36
4107.00,1.36
4106.00,1.36
4105.00,1.36
4104.00,1.36
4103.00,1.36
4102.00,1.37
4101.00,1.37
4100.00,1.37
4099.00,1.37
4098.00,1.37
4097.00,1.37
4096.00,1.37
4095.00,1.37
4094.00,1.37
4093.00,1.37
4092.00,1.37
4091.00,1.37
4090.00,1.37
4089.00,1.37
4088.00,1.37
4087.00,1.37
4086.00,1.37
4085.00,1.37
4084.00,1.37
4083.00,1.37
4082.00,1.37
4081.00,1.37
4080.00,1.37
4079.00,1.37
4078.00,1.37
4077.00,1.38
4076.00,1.38
4075.00,1.38
4074.00,1.38
4073.00,1.38
4072.00,1.38
4071.00,1.38
4070.00,1.39
4069.00,1.39
4068.00,1.39
4067.00,1.39
4066.00,1.39
4065.00,1.39
4064.00,1.39
4063.00,1.39
4062.00,1.39
4061.00,1.39
4060.00,1.39
4059.00,1.39
4058.00,1.39
4057.00,1.39
4056.00,1.39
4055.00,1.39
4054.00,1.39
4053.00,1.39
4052.00,1.39
4051.00,1.39
4050.00,1.39
4049.00,1.39
4048.00,1.39
4047.00,1.38
4046.00,1.38
4045.00,1.38
4044.00,1.38
4043.00,1.39
4042.00,1.39
4041.00,1.39
4040.00,1.39
4039.00,1.39
4038.00,1.39
4037.00,1.39
4036.00,1.39
4035.00,1.39
4034.00,1.39
4033.00,1.39
4032.00,1.39
4031.00,1.39
4030.00,1.39
4029.00,1.39
4028.00,1.40
4027.00,1.40
4026.00,1.40
4025.00,1.40
4024.00,1.40
4023.00,1.40
4022.00,1.40
4021.00,1.40
4020.00,1.40
4019.00,1.41
4018.00,1.41
4017.00,1.41
4016.00,1.41
4015.00,1.41
4014.00,1.41
4013.00,1.42
4012.00,1.42
4011.00,1.42
4010.00,1.42
4009.00,1.42
4008.00,1.43
4007.00,1.43
4006.00,1.43
4005.00,1.43
4004.00,1.44
4003.00,1.44
4002.00,1.44
4001.00,1.44
4000.00,1.44
