创建为新数据集,样品 045 用户 Administrator 日期 星期三, 十一月 01 2017
cm-1,%T
10000.00,1.39
9999.00,1.39
9998.00,1.38
9997.00,1.38
9996.00,1.38
9995.00,1.38
9994.00,1.38
9993.00,1.38
9992.00,1.38
9991.00,1.38
9990.00,1.38
9989.00,1.38
9988.00,1.37
9987.00,1.37
9986.00,1.37
9985.00,1.37
9984.00,1.37
9983.00,1.37
9982.00,1.37
9981.00,1.37
9980.00,1.37
9979.00,1.37
9978.00,1.36
9977.00,1.36
9976.00,1.36
9975.00,1.36
9974.00,1.36
9973.00,1.36
9972.00,1.36
9971.00,1.36
9970.00,1.36
9969.00,1.36
9968.00,1.36
9967.00,1.36
9966.00,1.36
9965.00,1.36
9964.00,1.36
9963.00,1.36
9962.00,1.36
9961.00,1.36
9960.00,1.36
9959.00,1.36
9958.00,1.36
9957.00,1.36
9956.00,1.36
9955.00,1.36
9954.00,1.36
9953.00,1.36
9952.00,1.36
9951.00,1.36
9950.00,1.37
9949.00,1.37
9948.00,1.37
9947.00,1.37
9946.00,1.37
9945.00,1.38
9944.00,1.38
9943.00,1.38
9942.00,1.38
9941.00,1.38
9940.00,1.38
9939.00,1.38
9938.00,1.38
9937.00,1.38
9936.00,1.38
9935.00,1.38
9934.00,1.38
9933.00,1.38
9932.00,1.38
9931.00,1.38
9930.00,1.38
9929.00,1.38
9928.00,1.38
9927.00,1.38
9926.00,1.38
9925.00,1.38
9924.00,1.38
9923.00,1.38
9922.00,1.38
9921.00,1.38
9920.00,1.38
9919.00,1.38
9918.00,1.37
9917.00,1.37
9916.00,1.37
9915.00,1.37
9914.00,1.37
9913.00,1.37
9912.00,1.37
9911.00,1.37
9910.00,1.36
9909.00,1.36
9908.00,1.36
9907.00,1.36
9906.00,1.36
9905.00,1.36
9904.00,1.36
9903.00,1.36
9902.00,1.36
9901.00,1.36
9900.00,1.36
9899.00,1.36
9898.00,1.36
9897.00,1.36
9896.00,1.36
9895.00,1.37
9894.00,1.37
9893.00,1.37
9892.00,1.37
9891.00,1.37
9890.00,1.37
9889.00,1.37
9888.00,1.37
9887.00,1.37
9886.00,1.37
9885.00,1.38
9884.00,1.38
9883.00,1.38
9882.00,1.38
9881.00,1.38
9880.00,1.38
9879.00,1.38
9878.00,1.38
9877.00,1.38
9876.00,1.38
9875.00,1.38
9874.00,1.38
9873.00,1.38
9872.00,1.38
9871.00,1.37
9870.00,1.37
9869.00,1.37
9868.00,1.37
9867.00,1.37
9866.00,1.37
9865.00,1.36
9864.00,1.36
9863.00,1.36
9862.00,1.36
9861.00,1.36
9860.00,1.36
9859.00,1.35
9858.00,1.35
9857.00,1.35
9856.00,1.35
9855.00,1.35
9854.00,1.34
9853.00,1.34
9852.00,1.34
9851.00,1.34
9850.00,1.34
9849.00,1.34
9848.00,1.34
9847.00,1.34
9846.00,1.34
9845.00,1.34
9844.00,1.34
9843.00,1.34
9842.00,1.34
9841.00,1.34
9840.00,1.34
9839.00,1.34
9838.00,1.34
9837.00,1.34
9836.00,1.34
9835.00,1.35
9834.00,1.35
9833.00,1.35
9832.00,1.35
9831.00,1.35
9830.00,1.35
9829.00,1.35
9828.00,1.35
9827.00,1.35
9826.00,1.35
9825.00,1.35
9824.00,1.35
9823.00,1.35
9822.00,1.35
9821.00,1.35
9820.00,1.35
9819.00,1.35
9818.00,1.35
9817.00,1.35
9816.00,1.35
9815.00,1.35
9814.00,1.35
9813.00,1.35
9812.00,1.35
9811.00,1.35
9810.00,1.35
9809.00,1.35
9808.00,1.35
9807.00,1.35
9806.00,1.35
9805.00,1.35
9804.00,1.35
9803.00,1.35
9802.00,1.35
9801.00,1.35
9800.00,1.35
9799.00,1.35
9798.00,1.35
9797.00,1.35
9796.00,1.35
9795.00,1.35
9794.00,1.35
9793.00,1.35
9792.00,1.35
9791.00,1.35
9790.00,1.35
9789.00,1.35
9788.00,1.35
9787.00,1.35
9786.00,1.35
9785.00,1.35
9784.00,1.35
9783.00,1.35
9782.00,1.35
9781.00,1.35
9780.00,1.35
9779.00,1.35
9778.00,1.35
9777.00,1.36
9776.00,1.36
9775.00,1.36
9774.00,1.36
9773.00,1.37
9772.00,1.37
9771.00,1.37
9770.00,1.37
9769.00,1.37
9768.00,1.38
9767.00,1.38
9766.00,1.38
9765.00,1.38
9764.00,1.38
9763.00,1.38
9762.00,1.38
9761.00,1.38
9760.00,1.38
9759.00,1.38
9758.00,1.38
9757.00,1.38
9756.00,1.38
9755.00,1.38
9754.00,1.38
9753.00,1.38
9752.00,1.38
9751.00,1.38
9750.00,1.38
9749.00,1.38
9748.00,1.38
9747.00,1.38
9746.00,1.38
9745.00,1.38
9744.00,1.37
9743.00,1.37
9742.00,1.37
9741.00,1.37
9740.00,1.37
9739.00,1.36
9738.00,1.36
9737.00,1.36
9736.00,1.36
9735.00,1.36
9734.00,1.35
9733.00,1.35
9732.00,1.35
9731.00,1.35
9730.00,1.35
9729.00,1.35
9728.00,1.35
9727.00,1.35
9726.00,1.35
9725.00,1.36
9724.00,1.36
9723.00,1.36
9722.00,1.36
9721.00,1.36
9720.00,1.36
9719.00,1.37
9718.00,1.37
9717.00,1.37
9716.00,1.37
9715.00,1.37
9714.00,1.37
9713.00,1.37
9712.00,1.37
9711.00,1.37
9710.00,1.37
9709.00,1.37
9708.00,1.37
9707.00,1.37
9706.00,1.37
9705.00,1.37
9704.00,1.37
9703.00,1.37
9702.00,1.37
9701.00,1.37
9700.00,1.37
9699.00,1.37
9698.00,1.36
9697.00,1.36
9696.00,1.36
9695.00,1.36
9694.00,1.36
9693.00,1.36
9692.00,1.36
9691.00,1.36
9690.00,1.36
9689.00,1.36
9688.00,1.37
9687.00,1.37
9686.00,1.37
9685.00,1.37
9684.00,1.37
9683.00,1.37
9682.00,1.37
9681.00,1.38
9680.00,1.38
9679.00,1.38
9678.00,1.38
9677.00,1.38
9676.00,1.38
9675.00,1.38
9674.00,1.38
9673.00,1.38
9672.00,1.38
9671.00,1.38
9670.00,1.38
9669.00,1.38
9668.00,1.38
9667.00,1.38
9666.00,1.38
9665.00,1.38
9664.00,1.38
9663.00,1.38
9662.00,1.38
9661.00,1.38
9660.00,1.38
9659.00,1.38
9658.00,1.38
9657.00,1.38
9656.00,1.38
9655.00,1.38
9654.00,1.38
9653.00,1.38
9652.00,1.38
9651.00,1.37
9650.00,1.37
9649.00,1.37
9648.00,1.37
9647.00,1.37
9646.00,1.37
9645.00,1.37
9644.00,1.37
9643.00,1.37
9642.00,1.37
9641.00,1.37
9640.00,1.37
9639.00,1.37
9638.00,1.37
9637.00,1.37
9636.00,1.37
9635.00,1.37
9634.00,1.37
9633.00,1.37
9632.00,1.37
9631.00,1.37
9630.00,1.38
9629.00,1.38
9628.00,1.38
9627.00,1.38
9626.00,1.38
9625.00,1.38
9624.00,1.38
9623.00,1.38
9622.00,1.38
9621.00,1.38
9620.00,1.38
9619.00,1.38
9618.00,1.38
9617.00,1.38
9616.00,1.38
9615.00,1.38
9614.00,1.38
9613.00,1.38
9612.00,1.38
9611.00,1.38
9610.00,1.38
9609.00,1.38
9608.00,1.38
9607.00,1.38
9606.00,1.38
9605.00,1.38
9604.00,1.38
9603.00,1.37
9602.00,1.37
9601.00,1.37
9600.00,1.37
9599.00,1.37
9598.00,1.36
9597.00,1.36
9596.00,1.36
9595.00,1.36
9594.00,1.36
9593.00,1.36
9592.00,1.36
9591.00,1.36
9590.00,1.36
9589.00,1.36
9588.00,1.37
9587.00,1.37
9586.00,1.37
9585.00,1.37
9584.00,1.37
9583.00,1.37
9582.00,1.37
9581.00,1.38
9580.00,1.38
9579.00,1.38
9578.00,1.38
9577.00,1.38
9576.00,1.38
9575.00,1.38
9574.00,1.38
9573.00,1.38
9572.00,1.37
9571.00,1.37
9570.00,1.37
9569.00,1.37
9568.00,1.37
9567.00,1.36
9566.00,1.36
9565.00,1.36
9564.00,1.36
9563.00,1.36
9562.00,1.36
9561.00,1.36
9560.00,1.36
9559.00,1.36
9558.00,1.36
9557.00,1.36
9556.00,1.36
9555.00,1.36
9554.00,1.36
9553.00,1.36
9552.00,1.36
9551.00,1.36
9550.00,1.37
9549.00,1.37
9548.00,1.37
9547.00,1.37
9546.00,1.37
9545.00,1.37
9544.00,1.37
9543.00,1.37
9542.00,1.37
9541.00,1.37
9540.00,1.37
9539.00,1.37
9538.00,1.37
9537.00,1.37
9536.00,1.37
9535.00,1.37
9534.00,1.37
9533.00,1.37
9532.00,1.37
9531.00,1.37
9530.00,1.36
9529.00,1.36
9528.00,1.36
9527.00,1.36
9526.00,1.36
9525.00,1.36
9524.00,1.36
9523.00,1.36
9522.00,1.35
9521.00,1.35
9520.00,1.35
9519.00,1.35
9518.00,1.35
9517.00,1.35
9516.00,1.35
9515.00,1.35
9514.00,1.36
9513.00,1.36
9512.00,1.36
9511.00,1.36
9510.00,1.36
9509.00,1.36
9508.00,1.36
9507.00,1.36
9506.00,1.36
9505.00,1.36
9504.00,1.36
9503.00,1.36
9502.00,1.36
9501.00,1.36
9500.00,1.36
9499.00,1.36
9498.00,1.36
9497.00,1.36
9496.00,1.36
9495.00,1.35
9494.00,1.35
9493.00,1.35
9492.00,1.35
9491.00,1.35
9490.00,1.35
9489.00,1.35
9488.00,1.35
9487.00,1.35
9486.00,1.35
9485.00,1.35
9484.00,1.35
9483.00,1.35
9482.00,1.35
9481.00,1.35
9480.00,1.35
9479.00,1.35
9478.00,1.35
9477.00,1.35
9476.00,1.35
9475.00,1.36
9474.00,1.36
9473.00,1.36
9472.00,1.36
9471.00,1.36
9470.00,1.37
9469.00,1.37
9468.00,1.37
9467.00,1.37
9466.00,1.37
9465.00,1.38
9464.00,1.38
9463.00,1.38
9462.00,1.38
9461.00,1.38
9460.00,1.38
9459.00,1.38
9458.00,1.38
9457.00,1.37
9456.00,1.37
9455.00,1.37
9454.00,1.37
9453.00,1.37
9452.00,1.37
9451.00,1.36
9450.00,1.36
9449.00,1.36
9448.00,1.36
9447.00,1.36
9446.00,1.36
9445.00,1.35
9444.00,1.35
9443.00,1.35
9442.00,1.35
9441.00,1.35
9440.00,1.35
9439.00,1.35
9438.00,1.35
9437.00,1.35
9436.00,1.35
9435.00,1.35
9434.00,1.35
9433.00,1.35
9432.00,1.35
9431.00,1.35
9430.00,1.36
9429.00,1.36
9428.00,1.36
9427.00,1.36
9426.00,1.36
9425.00,1.36
9424.00,1.36
9423.00,1.36
9422.00,1.36
9421.00,1.36
9420.00,1.36
9419.00,1.36
9418.00,1.36
9417.00,1.36
9416.00,1.36
9415.00,1.36
9414.00,1.36
9413.00,1.36
9412.00,1.36
9411.00,1.36
9410.00,1.36
9409.00,1.36
9408.00,1.36
9407.00,1.36
9406.00,1.36
9405.00,1.37
9404.00,1.37
9403.00,1.37
9402.00,1.37
9401.00,1.37
9400.00,1.37
9399.00,1.37
9398.00,1.37
9397.00,1.37
9396.00,1.37
9395.00,1.37
9394.00,1.37
9393.00,1.37
9392.00,1.38
9391.00,1.38
9390.00,1.38
9389.00,1.38
9388.00,1.38
9387.00,1.38
9386.00,1.38
9385.00,1.38
9384.00,1.38
9383.00,1.38
9382.00,1.38
9381.00,1.38
9380.00,1.38
9379.00,1.38
9378.00,1.38
9377.00,1.38
9376.00,1.37
9375.00,1.37
9374.00,1.37
9373.00,1.37
9372.00,1.37
9371.00,1.37
9370.00,1.37
9369.00,1.37
9368.00,1.37
9367.00,1.37
9366.00,1.37
9365.00,1.38
9364.00,1.38
9363.00,1.38
9362.00,1.38
9361.00,1.38
9360.00,1.38
9359.00,1.38
9358.00,1.38
9357.00,1.38
9356.00,1.38
9355.00,1.38
9354.00,1.38
9353.00,1.38
9352.00,1.38
9351.00,1.38
9350.00,1.38
9349.00,1.38
9348.00,1.38
9347.00,1.37
9346.00,1.37
9345.00,1.37
9344.00,1.37
9343.00,1.37
9342.00,1.37
9341.00,1.36
9340.00,1.36
9339.00,1.36
9338.00,1.36
9337.00,1.36
9336.00,1.35
9335.00,1.35
9334.00,1.35
9333.00,1.35
9332.00,1.35
9331.00,1.35
9330.00,1.35
9329.00,1.35
9328.00,1.35
9327.00,1.35
9326.00,1.36
9325.00,1.36
9324.00,1.36
9323.00,1.36
9322.00,1.36
9321.00,1.36
9320.00,1.36
9319.00,1.36
9318.00,1.36
9317.00,1.36
9316.00,1.36
9315.00,1.36
9314.00,1.36
9313.00,1.36
9312.00,1.36
9311.00,1.36
9310.00,1.36
9309.00,1.36
9308.00,1.37
9307.00,1.37
9306.00,1.37
9305.00,1.37
9304.00,1.37
9303.00,1.37
9302.00,1.37
9301.00,1.37
9300.00,1.37
9299.00,1.37
9298.00,1.38
9297.00,1.38
9296.00,1.38
9295.00,1.38
9294.00,1.38
9293.00,1.38
9292.00,1.38
9291.00,1.38
9290.00,1.38
9289.00,1.38
9288.00,1.38
9287.00,1.38
9286.00,1.38
9285.00,1.37
9284.00,1.37
9283.00,1.37
9282.00,1.37
9281.00,1.37
9280.00,1.37
9279.00,1.37
9278.00,1.37
9277.00,1.37
9276.00,1.37
9275.00,1.37
9274.00,1.37
9273.00,1.37
9272.00,1.37
9271.00,1.37
9270.00,1.37
9269.00,1.37
9268.00,1.37
9267.00,1.37
9266.00,1.37
9265.00,1.37
9264.00,1.37
9263.00,1.37
9262.00,1.37
9261.00,1.37
9260.00,1.38
9259.00,1.38
9258.00,1.38
9257.00,1.38
9256.00,1.37
9255.00,1.37
9254.00,1.37
9253.00,1.37
9252.00,1.37
9251.00,1.37
9250.00,1.37
9249.00,1.37
9248.00,1.37
9247.00,1.37
9246.00,1.37
9245.00,1.37
9244.00,1.37
9243.00,1.37
9242.00,1.37
9241.00,1.37
9240.00,1.37
9239.00,1.37
9238.00,1.37
9237.00,1.37
9236.00,1.37
9235.00,1.37
9234.00,1.36
9233.00,1.36
9232.00,1.36
9231.00,1.36
9230.00,1.36
9229.00,1.36
9228.00,1.36
9227.00,1.35
9226.00,1.35
9225.00,1.35
9224.00,1.35
9223.00,1.35
9222.00,1.35
9221.00,1.35
9220.00,1.35
9219.00,1.35
9218.00,1.35
9217.00,1.35
9216.00,1.35
9215.00,1.35
9214.00,1.36
9213.00,1.36
9212.00,1.36
9211.00,1.36
9210.00,1.36
9209.00,1.36
9208.00,1.36
9207.00,1.36
9206.00,1.36
9205.00,1.37
9204.00,1.37
9203.00,1.37
9202.00,1.37
9201.00,1.37
9200.00,1.37
9199.00,1.37
9198.00,1.37
9197.00,1.37
9196.00,1.37
9195.00,1.37
9194.00,1.37
9193.00,1.37
9192.00,1.37
9191.00,1.37
9190.00,1.37
9189.00,1.37
9188.00,1.37
9187.00,1.37
9186.00,1.37
9185.00,1.37
9184.00,1.36
9183.00,1.36
9182.00,1.36
9181.00,1.36
9180.00,1.36
9179.00,1.36
9178.00,1.36
9177.00,1.36
9176.00,1.35
9175.00,1.35
9174.00,1.35
9173.00,1.35
9172.00,1.35
9171.00,1.35
9170.00,1.35
9169.00,1.35
9168.00,1.35
9167.00,1.35
9166.00,1.35
9165.00,1.35
9164.00,1.35
9163.00,1.35
9162.00,1.35
9161.00,1.35
9160.00,1.35
9159.00,1.35
9158.00,1.35
9157.00,1.35
9156.00,1.36
9155.00,1.36
9154.00,1.36
9153.00,1.36
9152.00,1.37
9151.00,1.37
9150.00,1.37
9149.00,1.37
9148.00,1.37
9147.00,1.38
9146.00,1.38
9145.00,1.38
9144.00,1.38
9143.00,1.38
9142.00,1.38
9141.00,1.38
9140.00,1.38
9139.00,1.38
9138.00,1.38
9137.00,1.38
9136.00,1.38
9135.00,1.38
9134.00,1.38
9133.00,1.38
9132.00,1.38
9131.00,1.38
9130.00,1.38
9129.00,1.38
9128.00,1.38
9127.00,1.38
9126.00,1.38
9125.00,1.38
9124.00,1.38
9123.00,1.38
9122.00,1.38
9121.00,1.38
9120.00,1.38
9119.00,1.38
9118.00,1.38
9117.00,1.37
9116.00,1.37
9115.00,1.37
9114.00,1.37
9113.00,1.37
9112.00,1.37
9111.00,1.37
9110.00,1.37
9109.00,1.37
9108.00,1.37
9107.00,1.37
9106.00,1.37
9105.00,1.37
9104.00,1.37
9103.00,1.37
9102.00,1.37
9101.00,1.37
9100.00,1.38
9099.00,1.38
9098.00,1.38
9097.00,1.38
9096.00,1.38
9095.00,1.38
9094.00,1.38
9093.00,1.38
9092.00,1.38
9091.00,1.37
9090.00,1.37
9089.00,1.37
9088.00,1.37
9087.00,1.37
9086.00,1.37
9085.00,1.37
9084.00,1.37
9083.00,1.37
9082.00,1.38
9081.00,1.38
9080.00,1.38
9079.00,1.38
9078.00,1.38
9077.00,1.38
9076.00,1.38
9075.00,1.38
9074.00,1.38
9073.00,1.37
9072.00,1.37
9071.00,1.37
9070.00,1.37
9069.00,1.37
9068.00,1.37
9067.00,1.37
9066.00,1.37
9065.00,1.37
9064.00,1.36
9063.00,1.36
9062.00,1.36
9061.00,1.36
9060.00,1.36
9059.00,1.36
9058.00,1.37
9057.00,1.37
9056.00,1.37
9055.00,1.37
9054.00,1.37
9053.00,1.37
9052.00,1.38
9051.00,1.38
9050.00,1.38
9049.00,1.38
9048.00,1.38
9047.00,1.38
9046.00,1.38
9045.00,1.38
9044.00,1.38
9043.00,1.38
9042.00,1.38
9041.00,1.38
9040.00,1.38
9039.00,1.38
9038.00,1.38
9037.00,1.38
9036.00,1.38
9035.00,1.37
9034.00,1.37
9033.00,1.37
9032.00,1.37
9031.00,1.37
9030.00,1.37
9029.00,1.37
9028.00,1.37
9027.00,1.37
9026.00,1.37
9025.00,1.37
9024.00,1.37
9023.00,1.37
9022.00,1.37
9021.00,1.37
9020.00,1.37
9019.00,1.37
9018.00,1.37
9017.00,1.37
9016.00,1.36
9015.00,1.36
9014.00,1.36
9013.00,1.36
9012.00,1.36
9011.00,1.36
9010.00,1.36
9009.00,1.36
9008.00,1.37
9007.00,1.37
9006.00,1.37
9005.00,1.37
9004.00,1.37
9003.00,1.37
9002.00,1.37
9001.00,1.37
9000.00,1.37
8999.00,1.37
8998.00,1.38
8997.00,1.38
8996.00,1.38
8995.00,1.38
8994.00,1.38
8993.00,1.38
8992.00,1.38
8991.00,1.38
8990.00,1.38
8989.00,1.38
8988.00,1.38
8987.00,1.38
8986.00,1.38
8985.00,1.38
8984.00,1.38
8983.00,1.38
8982.00,1.38
8981.00,1.38
8980.00,1.37
8979.00,1.37
8978.00,1.37
8977.00,1.37
8976.00,1.37
8975.00,1.37
8974.00,1.37
8973.00,1.37
8972.00,1.37
8971.00,1.37
8970.00,1.37
8969.00,1.36
8968.00,1.36
8967.00,1.36
8966.00,1.36
8965.00,1.36
8964.00,1.36
8963.00,1.36
8962.00,1.36
8961.00,1.36
8960.00,1.36
8959.00,1.37
8958.00,1.37
8957.00,1.37
8956.00,1.37
8955.00,1.37
8954.00,1.37
8953.00,1.37
8952.00,1.37
8951.00,1.37
8950.00,1.37
8949.00,1.37
8948.00,1.37
8947.00,1.37
8946.00,1.38
8945.00,1.38
8944.00,1.38
8943.00,1.38
8942.00,1.38
8941.00,1.38
8940.00,1.38
8939.00,1.38
8938.00,1.37
8937.00,1.37
8936.00,1.37
8935.00,1.37
8934.00,1.37
8933.00,1.37
8932.00,1.37
8931.00,1.37
8930.00,1.37
8929.00,1.37
8928.00,1.37
8927.00,1.37
8926.00,1.36
8925.00,1.36
8924.00,1.36
8923.00,1.36
8922.00,1.36
8921.00,1.36
8920.00,1.36
8919.00,1.36
8918.00,1.36
8917.00,1.36
8916.00,1.36
8915.00,1.36
8914.00,1.36
8913.00,1.36
8912.00,1.36
8911.00,1.36
8910.00,1.37
8909.00,1.37
8908.00,1.37
8907.00,1.37
8906.00,1.37
8905.00,1.37
8904.00,1.38
8903.00,1.38
8902.00,1.38
8901.00,1.38
8900.00,1.38
8899.00,1.38
8898.00,1.38
8897.00,1.38
8896.00,1.38
8895.00,1.38
8894.00,1.38
8893.00,1.38
8892.00,1.38
8891.00,1.38
8890.00,1.38
8889.00,1.38
8888.00,1.38
8887.00,1.38
8886.00,1.38
8885.00,1.38
8884.00,1.38
8883.00,1.38
8882.00,1.38
8881.00,1.38
8880.00,1.38
8879.00,1.37
8878.00,1.37
8877.00,1.37
8876.00,1.37
8875.00,1.37
8874.00,1.37
8873.00,1.37
8872.00,1.37
8871.00,1.37
8870.00,1.37
8869.00,1.37
8868.00,1.37
8867.00,1.37
8866.00,1.37
8865.00,1.37
8864.00,1.37
8863.00,1.37
8862.00,1.37
8861.00,1.37
8860.00,1.37
8859.00,1.37
8858.00,1.37
8857.00,1.37
8856.00,1.37
8855.00,1.37
8854.00,1.37
8853.00,1.37
8852.00,1.37
8851.00,1.37
8850.00,1.37
8849.00,1.37
8848.00,1.37
8847.00,1.37
8846.00,1.37
8845.00,1.37
8844.00,1.37
8843.00,1.37
8842.00,1.37
8841.00,1.37
8840.00,1.37
8839.00,1.37
8838.00,1.37
8837.00,1.37
8836.00,1.37
8835.00,1.37
8834.00,1.37
8833.00,1.37
8832.00,1.37
8831.00,1.37
8830.00,1.37
8829.00,1.37
8828.00,1.37
8827.00,1.37
8826.00,1.37
8825.00,1.37
8824.00,1.36
8823.00,1.36
8822.00,1.36
8821.00,1.36
8820.00,1.36
8819.00,1.36
8818.00,1.36
8817.00,1.36
8816.00,1.36
8815.00,1.36
8814.00,1.36
8813.00,1.36
8812.00,1.36
8811.00,1.36
8810.00,1.36
8809.00,1.36
8808.00,1.36
8807.00,1.36
8806.00,1.35
8805.00,1.35
8804.00,1.35
8803.00,1.35
8802.00,1.35
8801.00,1.35
8800.00,1.35
8799.00,1.35
8798.00,1.35
8797.00,1.35
8796.00,1.35
8795.00,1.35
8794.00,1.35
8793.00,1.35
8792.00,1.35
8791.00,1.35
8790.00,1.35
8789.00,1.35
8788.00,1.35
8787.00,1.35
8786.00,1.35
8785.00,1.35
8784.00,1.35
8783.00,1.35
8782.00,1.35
8781.00,1.35
8780.00,1.35
8779.00,1.35
8778.00,1.35
8777.00,1.35
8776.00,1.35
8775.00,1.35
8774.00,1.35
8773.00,1.35
8772.00,1.35
8771.00,1.35
8770.00,1.35
8769.00,1.35
8768.00,1.35
8767.00,1.35
8766.00,1.34
8765.00,1.34
8764.00,1.34
8763.00,1.34
8762.00,1.34
8761.00,1.34
8760.00,1.34
8759.00,1.34
8758.00,1.34
8757.00,1.34
8756.00,1.34
8755.00,1.34
8754.00,1.34
8753.00,1.34
8752.00,1.34
8751.00,1.34
8750.00,1.34
8749.00,1.34
8748.00,1.34
8747.00,1.34
8746.00,1.34
8745.00,1.35
8744.00,1.35
8743.00,1.35
8742.00,1.35
8741.00,1.35
8740.00,1.35
8739.00,1.35
8738.00,1.35
8737.00,1.35
8736.00,1.35
8735.00,1.35
8734.00,1.35
8733.00,1.35
8732.00,1.35
8731.00,1.34
8730.00,1.34
8729.00,1.34
8728.00,1.34
8727.00,1.34
8726.00,1.34
8725.00,1.34
8724.00,1.34
8723.00,1.33
8722.00,1.33
8721.00,1.33
8720.00,1.33
8719.00,1.33
8718.00,1.33
8717.00,1.34
8716.00,1.34
8715.00,1.34
8714.00,1.34
8713.00,1.34
8712.00,1.34
8711.00,1.34
8710.00,1.34
8709.00,1.34
8708.00,1.34
8707.00,1.34
8706.00,1.34
8705.00,1.34
8704.00,1.34
8703.00,1.34
8702.00,1.34
8701.00,1.34
8700.00,1.34
8699.00,1.34
8698.00,1.34
8697.00,1.34
8696.00,1.34
8695.00,1.34
8694.00,1.34
8693.00,1.34
8692.00,1.34
8691.00,1.33
8690.00,1.33
8689.00,1.33
8688.00,1.33
8687.00,1.33
8686.00,1.33
8685.00,1.33
8684.00,1.33
8683.00,1.33
8682.00,1.33
8681.00,1.33
8680.00,1.33
8679.00,1.33
8678.00,1.33
8677.00,1.33
8676.00,1.33
8675.00,1.33
8674.00,1.33
8673.00,1.32
8672.00,1.32
8671.00,1.32
8670.00,1.32
8669.00,1.32
8668.00,1.32
8667.00,1.32
8666.00,1.32
8665.00,1.32
8664.00,1.32
8663.00,1.32
8662.00,1.32
8661.00,1.32
8660.00,1.32
8659.00,1.32
8658.00,1.32
8657.00,1.32
8656.00,1.32
8655.00,1.32
8654.00,1.32
8653.00,1.32
8652.00,1.32
8651.00,1.32
8650.00,1.32
8649.00,1.32
8648.00,1.31
8647.00,1.31
8646.00,1.31
8645.00,1.31
8644.00,1.31
8643.00,1.31
8642.00,1.31
8641.00,1.31
8640.00,1.31
8639.00,1.31
8638.00,1.30
8637.00,1.30
8636.00,1.30
8635.00,1.30
8634.00,1.30
8633.00,1.30
8632.00,1.30
8631.00,1.30
8630.00,1.30
8629.00,1.30
8628.00,1.30
8627.00,1.30
8626.00,1.30
8625.00,1.30
8624.00,1.30
8623.00,1.30
8622.00,1.30
8621.00,1.30
8620.00,1.30
8619.00,1.30
8618.00,1.30
8617.00,1.30
8616.00,1.30
8615.00,1.30
8614.00,1.30
8613.00,1.30
8612.00,1.30
8611.00,1.30
8610.00,1.30
8609.00,1.30
8608.00,1.30
8607.00,1.30
8606.00,1.30
8605.00,1.30
8604.00,1.30
8603.00,1.30
8602.00,1.30
8601.00,1.30
8600.00,1.30
8599.00,1.30
8598.00,1.30
8597.00,1.30
8596.00,1.30
8595.00,1.30
8594.00,1.30
8593.00,1.30
8592.00,1.30
8591.00,1.30
8590.00,1.30
8589.00,1.30
8588.00,1.30
8587.00,1.30
8586.00,1.30
8585.00,1.30
8584.00,1.30
8583.00,1.30
8582.00,1.30
8581.00,1.30
8580.00,1.29
8579.00,1.29
8578.00,1.29
8577.00,1.29
8576.00,1.29
8575.00,1.29
8574.00,1.29
8573.00,1.29
8572.00,1.29
8571.00,1.29
8570.00,1.29
8569.00,1.29
8568.00,1.29
8567.00,1.29
8566.00,1.29
8565.00,1.29
8564.00,1.29
8563.00,1.29
8562.00,1.29
8561.00,1.29
8560.00,1.29
8559.00,1.29
8558.00,1.29
8557.00,1.29
8556.00,1.29
8555.00,1.29
8554.00,1.29
8553.00,1.29
8552.00,1.29
8551.00,1.29
8550.00,1.29
8549.00,1.29
8548.00,1.29
8547.00,1.29
8546.00,1.29
8545.00,1.29
8544.00,1.29
8543.00,1.29
8542.00,1.29
8541.00,1.29
8540.00,1.29
8539.00,1.29
8538.00,1.29
8537.00,1.29
8536.00,1.29
8535.00,1.29
8534.00,1.29
8533.00,1.29
8532.00,1.29
8531.00,1.29
8530.00,1.29
8529.00,1.28
8528.00,1.28
8527.00,1.28
8526.00,1.28
8525.00,1.28
8524.00,1.28
8523.00,1.28
8522.00,1.28
8521.00,1.28
8520.00,1.28
8519.00,1.28
8518.00,1.28
8517.00,1.28
8516.00,1.28
8515.00,1.28
8514.00,1.28
8513.00,1.28
8512.00,1.28
8511.00,1.28
8510.00,1.28
8509.00,1.28
8508.00,1.28
8507.00,1.27
8506.00,1.27
8505.00,1.27
8504.00,1.27
8503.00,1.27
8502.00,1.27
8501.00,1.27
8500.00,1.27
8499.00,1.27
8498.00,1.27
8497.00,1.27
8496.00,1.27
8495.00,1.27
8494.00,1.27
8493.00,1.27
8492.00,1.27
8491.00,1.27
8490.00,1.27
8489.00,1.27
8488.00,1.27
8487.00,1.27
8486.00,1.27
8485.00,1.27
8484.00,1.27
8483.00,1.27
8482.00,1.27
8481.00,1.27
8480.00,1.27
8479.00,1.26
8478.00,1.26
8477.00,1.26
8476.00,1.26
8475.00,1.26
8474.00,1.26
8473.00,1.26
8472.00,1.25
8471.00,1.25
8470.00,1.25
8469.00,1.25
8468.00,1.25
8467.00,1.25
8466.00,1.25
8465.00,1.25
8464.00,1.25
8463.00,1.25
8462.00,1.25
8461.00,1.25
8460.00,1.25
8459.00,1.25
8458.00,1.25
8457.00,1.25
8456.00,1.25
8455.00,1.25
8454.00,1.25
8453.00,1.25
8452.00,1.25
8451.00,1.26
8450.00,1.26
8449.00,1.26
8448.00,1.26
8447.00,1.26
8446.00,1.26
8445.00,1.26
8444.00,1.26
8443.00,1.26
8442.00,1.26
8441.00,1.26
8440.00,1.26
8439.00,1.25
8438.00,1.25
8437.00,1.25
8436.00,1.25
8435.00,1.25
8434.00,1.25
8433.00,1.25
8432.00,1.25
8431.00,1.25
8430.00,1.25
8429.00,1.25
8428.00,1.25
8427.00,1.25
8426.00,1.26
8425.00,1.26
8424.00,1.26
8423.00,1.26
8422.00,1.26
8421.00,1.26
8420.00,1.26
8419.00,1.26
8418.00,1.26
8417.00,1.26
8416.00,1.26
8415.00,1.26
8414.00,1.26
8413.00,1.26
8412.00,1.26
8411.00,1.26
8410.00,1.25
8409.00,1.25
8408.00,1.25
8407.00,1.25
8406.00,1.25
8405.00,1.26
8404.00,1.26
8403.00,1.26
8402.00,1.26
8401.00,1.26
8400.00,1.26
8399.00,1.26
8398.00,1.26
8397.00,1.26
8396.00,1.26
8395.00,1.27
8394.00,1.27
8393.00,1.27
8392.00,1.27
8391.00,1.27
8390.00,1.27
8389.00,1.27
8388.00,1.27
8387.00,1.26
8386.00,1.26
8385.00,1.26
8384.00,1.26
8383.00,1.26
8382.00,1.26
8381.00,1.26
8380.00,1.26
8379.00,1.26
8378.00,1.26
8377.00,1.26
8376.00,1.27
8375.00,1.27
8374.00,1.27
8373.00,1.27
8372.00,1.27
8371.00,1.27
8370.00,1.27
8369.00,1.27
8368.00,1.27
8367.00,1.28
8366.00,1.28
8365.00,1.28
8364.00,1.28
8363.00,1.28
8362.00,1.28
8361.00,1.28
8360.00,1.28
8359.00,1.28
8358.00,1.28
8357.00,1.28
8356.00,1.28
8355.00,1.28
8354.00,1.28
8353.00,1.28
8352.00,1.28
8351.00,1.28
8350.00,1.28
8349.00,1.28
8348.00,1.28
8347.00,1.28
8346.00,1.28
8345.00,1.28
8344.00,1.28
8343.00,1.28
8342.00,1.28
8341.00,1.28
8340.00,1.28
8339.00,1.28
8338.00,1.28
8337.00,1.28
8336.00,1.28
8335.00,1.28
8334.00,1.28
8333.00,1.28
8332.00,1.28
8331.00,1.28
8330.00,1.28
8329.00,1.28
8328.00,1.28
8327.00,1.28
8326.00,1.28
8325.00,1.28
8324.00,1.28
8323.00,1.28
8322.00,1.28
8321.00,1.28
8320.00,1.28
8319.00,1.28
8318.00,1.28
8317.00,1.28
8316.00,1.28
8315.00,1.28
8314.00,1.28
8313.00,1.28
8312.00,1.28
8311.00,1.28
8310.00,1.28
8309.00,1.28
8308.00,1.28
8307.00,1.28
8306.00,1.28
8305.00,1.28
8304.00,1.28
8303.00,1.28
8302.00,1.28
8301.00,1.28
8300.00,1.28
8299.00,1.28
8298.00,1.28
8297.00,1.28
8296.00,1.28
8295.00,1.28
8294.00,1.28
8293.00,1.28
8292.00,1.28
8291.00,1.28
8290.00,1.28
8289.00,1.28
8288.00,1.28
8287.00,1.28
8286.00,1.28
8285.00,1.28
8284.00,1.28
8283.00,1.28
8282.00,1.28
8281.00,1.28
8280.00,1.28
8279.00,1.28
8278.00,1.29
8277.00,1.29
8276.00,1.29
8275.00,1.29
8274.00,1.29
8273.00,1.29
8272.00,1.29
8271.00,1.29
8270.00,1.29
8269.00,1.29
8268.00,1.29
8267.00,1.29
8266.00,1.30
8265.00,1.30
8264.00,1.30
8263.00,1.30
8262.00,1.30
8261.00,1.30
8260.00,1.30
8259.00,1.30
8258.00,1.30
8257.00,1.30
8256.00,1.30
8255.00,1.30
8254.00,1.31
8253.00,1.31
8252.00,1.31
8251.00,1.31
8250.00,1.31
8249.00,1.31
8248.00,1.31
8247.00,1.31
8246.00,1.31
8245.00,1.30
8244.00,1.30
8243.00,1.30
8242.00,1.30
8241.00,1.30
8240.00,1.30
8239.00,1.30
8238.00,1.30
8237.00,1.30
8236.00,1.30
8235.00,1.31
8234.00,1.31
8233.00,1.31
8232.00,1.31
8231.00,1.31
8230.00,1.31
8229.00,1.31
8228.00,1.31
8227.00,1.31
8226.00,1.31
8225.00,1.31
8224.00,1.31
8223.00,1.31
8222.00,1.31
8221.00,1.31
8220.00,1.31
8219.00,1.31
8218.00,1.31
8217.00,1.31
8216.00,1.31
8215.00,1.31
8214.00,1.31
8213.00,1.30
8212.00,1.30
8211.00,1.30
8210.00,1.30
8209.00,1.30
8208.00,1.30
8207.00,1.30
8206.00,1.30
8205.00,1.30
8204.00,1.30
8203.00,1.30
8202.00,1.30
8201.00,1.30
8200.00,1.30
8199.00,1.30
8198.00,1.30
8197.00,1.30
8196.00,1.30
8195.00,1.30
8194.00,1.30
8193.00,1.30
8192.00,1.30
8191.00,1.30
8190.00,1.31
8189.00,1.31
8188.00,1.31
8187.00,1.31
8186.00,1.31
8185.00,1.31
8184.00,1.31
8183.00,1.31
8182.00,1.32
8181.00,1.32
8180.00,1.32
8179.00,1.32
8178.00,1.32
8177.00,1.32
8176.00,1.32
8175.00,1.32
8174.00,1.33
8173.00,1.33
8172.00,1.33
8171.00,1.33
8170.00,1.33
8169.00,1.33
8168.00,1.33
8167.00,1.33
8166.00,1.33
8165.00,1.33
8164.00,1.33
8163.00,1.33
8162.00,1.33
8161.00,1.33
8160.00,1.33
8159.00,1.33
8158.00,1.33
8157.00,1.33
8156.00,1.33
8155.00,1.33
8154.00,1.33
8153.00,1.33
8152.00,1.33
8151.00,1.33
8150.00,1.33
8149.00,1.33
8148.00,1.33
8147.00,1.33
8146.00,1.33
8145.00,1.33
8144.00,1.33
8143.00,1.33
8142.00,1.33
8141.00,1.33
8140.00,1.33
8139.00,1.33
8138.00,1.32
8137.00,1.32
8136.00,1.32
8135.00,1.32
8134.00,1.32
8133.00,1.32
8132.00,1.32
8131.00,1.32
8130.00,1.32
8129.00,1.32
8128.00,1.32
8127.00,1.32
8126.00,1.32
8125.00,1.32
8124.00,1.32
8123.00,1.32
8122.00,1.32
8121.00,1.32
8120.00,1.33
8119.00,1.33
8118.00,1.33
8117.00,1.33
8116.00,1.33
8115.00,1.33
8114.00,1.33
8113.00,1.33
8112.00,1.33
8111.00,1.33
8110.00,1.33
8109.00,1.33
8108.00,1.33
8107.00,1.33
8106.00,1.33
8105.00,1.34
8104.00,1.34
8103.00,1.34
8102.00,1.34
8101.00,1.34
8100.00,1.34
8099.00,1.34
8098.00,1.34
8097.00,1.34
8096.00,1.34
8095.00,1.34
8094.00,1.34
8093.00,1.34
8092.00,1.34
8091.00,1.34
8090.00,1.34
8089.00,1.34
8088.00,1.34
8087.00,1.34
8086.00,1.34
8085.00,1.34
8084.00,1.34
8083.00,1.34
8082.00,1.34
8081.00,1.34
8080.00,1.34
8079.00,1.34
8078.00,1.34
8077.00,1.34
8076.00,1.34
8075.00,1.34
8074.00,1.34
8073.00,1.34
8072.00,1.34
8071.00,1.33
8070.00,1.33
8069.00,1.33
8068.00,1.33
8067.00,1.33
8066.00,1.33
8065.00,1.33
8064.00,1.33
8063.00,1.33
8062.00,1.34
8061.00,1.34
8060.00,1.34
8059.00,1.34
8058.00,1.34
8057.00,1.34
8056.00,1.34
8055.00,1.34
8054.00,1.34
8053.00,1.34
8052.00,1.34
8051.00,1.35
8050.00,1.35
8049.00,1.35
8048.00,1.35
8047.00,1.35
8046.00,1.35
8045.00,1.35
8044.00,1.35
8043.00,1.35
8042.00,1.35
8041.00,1.35
8040.00,1.35
8039.00,1.35
8038.00,1.35
8037.00,1.35
8036.00,1.35
8035.00,1.35
8034.00,1.35
8033.00,1.35
8032.00,1.35
8031.00,1.35
8030.00,1.35
8029.00,1.35
8028.00,1.35
8027.00,1.35
8026.00,1.35
8025.00,1.35
8024.00,1.35
8023.00,1.35
8022.00,1.35
8021.00,1.35
8020.00,1.35
8019.00,1.35
8018.00,1.35
8017.00,1.35
8016.00,1.35
8015.00,1.35
8014.00,1.35
8013.00,1.35
8012.00,1.35
8011.00,1.35
8010.00,1.35
8009.00,1.35
8008.00,1.35
8007.00,1.35
8006.00,1.35
8005.00,1.35
8004.00,1.35
8003.00,1.35
8002.00,1.35
8001.00,1.35
8000.00,1.35
7999.00,1.35
7998.00,1.35
7997.00,1.35
7996.00,1.35
7995.00,1.35
7994.00,1.35
7993.00,1.35
7992.00,1.35
7991.00,1.35
7990.00,1.35
7989.00,1.36
7988.00,1.36
7987.00,1.36
7986.00,1.36
7985.00,1.36
7984.00,1.36
7983.00,1.36
7982.00,1.36
7981.00,1.36
7980.00,1.36
7979.00,1.36
7978.00,1.36
7977.00,1.36
7976.00,1.36
7975.00,1.36
7974.00,1.36
7973.00,1.36
7972.00,1.36
7971.00,1.36
7970.00,1.36
7969.00,1.35
7968.00,1.35
7967.00,1.35
7966.00,1.35
7965.00,1.35
7964.00,1.35
7963.00,1.35
7962.00,1.35
7961.00,1.35
7960.00,1.35
7959.00,1.35
7958.00,1.35
7957.00,1.35
7956.00,1.35
7955.00,1.35
7954.00,1.35
7953.00,1.35
7952.00,1.35
7951.00,1.35
7950.00,1.35
7949.00,1.35
7948.00,1.35
7947.00,1.35
7946.00,1.35
7945.00,1.35
7944.00,1.35
7943.00,1.36
7942.00,1.36
7941.00,1.36
7940.00,1.36
7939.00,1.36
7938.00,1.36
7937.00,1.36
7936.00,1.36
7935.00,1.36
7934.00,1.37
7933.00,1.37
7932.00,1.37
7931.00,1.37
7930.00,1.37
7929.00,1.37
7928.00,1.37
7927.00,1.37
7926.00,1.37
7925.00,1.37
7924.00,1.37
7923.00,1.37
7922.00,1.37
7921.00,1.37
7920.00,1.37
7919.00,1.37
7918.00,1.37
7917.00,1.37
7916.00,1.37
7915.00,1.37
7914.00,1.37
7913.00,1.37
7912.00,1.37
7911.00,1.37
7910.00,1.37
7909.00,1.36
7908.00,1.36
7907.00,1.36
7906.00,1.36
7905.00,1.36
7904.00,1.36
7903.00,1.36
7902.00,1.36
7901.00,1.36
7900.00,1.36
7899.00,1.36
7898.00,1.36
7897.00,1.36
7896.00,1.36
7895.00,1.36
7894.00,1.36
7893.00,1.36
7892.00,1.36
7891.00,1.36
7890.00,1.36
7889.00,1.36
7888.00,1.36
7887.00,1.36
7886.00,1.36
7885.00,1.36
7884.00,1.36
7883.00,1.36
7882.00,1.36
7881.00,1.36
7880.00,1.36
7879.00,1.36
7878.00,1.36
7877.00,1.36
7876.00,1.36
7875.00,1.36
7874.00,1.36
7873.00,1.36
7872.00,1.36
7871.00,1.36
7870.00,1.36
7869.00,1.36
7868.00,1.36
7867.00,1.36
7866.00,1.36
7865.00,1.36
7864.00,1.36
7863.00,1.36
7862.00,1.36
7861.00,1.36
7860.00,1.36
7859.00,1.36
7858.00,1.36
7857.00,1.36
7856.00,1.36
7855.00,1.36
7854.00,1.36
7853.00,1.36
7852.00,1.36
7851.00,1.36
7850.00,1.36
7849.00,1.36
7848.00,1.36
7847.00,1.36
7846.00,1.36
7845.00,1.36
7844.00,1.36
7843.00,1.36
7842.00,1.36
7841.00,1.36
7840.00,1.36
7839.00,1.36
7838.00,1.36
7837.00,1.36
7836.00,1.36
7835.00,1.37
7834.00,1.37
7833.00,1.37
7832.00,1.37
7831.00,1.37
7830.00,1.37
7829.00,1.37
7828.00,1.37
7827.00,1.37
7826.00,1.37
7825.00,1.37
7824.00,1.37
7823.00,1.37
7822.00,1.37
7821.00,1.37
7820.00,1.37
7819.00,1.38
7818.00,1.38
7817.00,1.38
7816.00,1.38
7815.00,1.38
7814.00,1.38
7813.00,1.38
7812.00,1.38
7811.00,1.38
7810.00,1.38
7809.00,1.38
7808.00,1.38
7807.00,1.38
7806.00,1.38
7805.00,1.38
7804.00,1.38
7803.00,1.38
7802.00,1.38
7801.00,1.38
7800.00,1.38
7799.00,1.38
7798.00,1.37
7797.00,1.37
7796.00,1.37
7795.00,1.37
7794.00,1.37
7793.00,1.37
7792.00,1.37
7791.00,1.37
7790.00,1.37
7789.00,1.37
7788.00,1.37
7787.00,1.37
7786.00,1.37
7785.00,1.37
7784.00,1.37
7783.00,1.37
7782.00,1.37
7781.00,1.37
7780.00,1.38
7779.00,1.38
7778.00,1.38
7777.00,1.38
7776.00,1.38
7775.00,1.38
7774.00,1.38
7773.00,1.38
7772.00,1.38
7771.00,1.38
7770.00,1.38
7769.00,1.38
7768.00,1.38
7767.00,1.38
7766.00,1.38
7765.00,1.38
7764.00,1.38
7763.00,1.38
7762.00,1.38
7761.00,1.38
7760.00,1.38
7759.00,1.38
7758.00,1.38
7757.00,1.38
7756.00,1.38
7755.00,1.38
7754.00,1.38
7753.00,1.38
7752.00,1.38
7751.00,1.38
7750.00,1.38
7749.00,1.38
7748.00,1.38
7747.00,1.38
7746.00,1.38
7745.00,1.37
7744.00,1.37
7743.00,1.37
7742.00,1.37
7741.00,1.37
7740.00,1.37
7739.00,1.37
7738.00,1.37
7737.00,1.37
7736.00,1.37
7735.00,1.37
7734.00,1.37
7733.00,1.37
7732.00,1.37
7731.00,1.37
7730.00,1.37
7729.00,1.37
7728.00,1.37
7727.00,1.37
7726.00,1.38
7725.00,1.38
7724.00,1.38
7723.00,1.38
7722.00,1.38
7721.00,1.38
7720.00,1.38
7719.00,1.38
7718.00,1.38
7717.00,1.38
7716.00,1.38
7715.00,1.38
7714.00,1.38
7713.00,1.38
7712.00,1.38
7711.00,1.39
7710.00,1.39
7709.00,1.39
7708.00,1.39
7707.00,1.39
7706.00,1.39
7705.00,1.39
7704.00,1.39
7703.00,1.38
7702.00,1.38
7701.00,1.38
7700.00,1.38
7699.00,1.38
7698.00,1.38
7697.00,1.38
7696.00,1.38
7695.00,1.38
7694.00,1.38
7693.00,1.38
7692.00,1.38
7691.00,1.38
7690.00,1.38
7689.00,1.38
7688.00,1.37
7687.00,1.37
7686.00,1.37
7685.00,1.37
7684.00,1.37
7683.00,1.37
7682.00,1.37
7681.00,1.37
7680.00,1.37
7679.00,1.37
7678.00,1.37
7677.00,1.37
7676.00,1.38
7675.00,1.38
7674.00,1.38
7673.00,1.38
7672.00,1.38
7671.00,1.38
7670.00,1.38
7669.00,1.38
7668.00,1.38
7667.00,1.38
7666.00,1.38
7665.00,1.38
7664.00,1.38
7663.00,1.39
7662.00,1.39
7661.00,1.38
7660.00,1.38
7659.00,1.38
7658.00,1.38
7657.00,1.38
7656.00,1.38
7655.00,1.38
7654.00,1.38
7653.00,1.38
7652.00,1.38
7651.00,1.38
7650.00,1.38
7649.00,1.38
7648.00,1.38
7647.00,1.38
7646.00,1.38
7645.00,1.38
7644.00,1.38
7643.00,1.38
7642.00,1.38
7641.00,1.38
7640.00,1.38
7639.00,1.38
7638.00,1.38
7637.00,1.38
7636.00,1.38
7635.00,1.38
7634.00,1.38
7633.00,1.38
7632.00,1.38
7631.00,1.38
7630.00,1.38
7629.00,1.38
7628.00,1.38
7627.00,1.38
7626.00,1.38
7625.00,1.38
7624.00,1.38
7623.00,1.38
7622.00,1.38
7621.00,1.38
7620.00,1.38
7619.00,1.38
7618.00,1.38
7617.00,1.38
7616.00,1.38
7615.00,1.38
7614.00,1.38
7613.00,1.38
7612.00,1.38
7611.00,1.38
7610.00,1.38
7609.00,1.38
7608.00,1.38
7607.00,1.38
7606.00,1.38
7605.00,1.38
7604.00,1.38
7603.00,1.38
7602.00,1.38
7601.00,1.38
7600.00,1.38
7599.00,1.38
7598.00,1.38
7597.00,1.38
7596.00,1.38
7595.00,1.38
7594.00,1.38
7593.00,1.38
7592.00,1.38
7591.00,1.38
7590.00,1.38
7589.00,1.38
7588.00,1.38
7587.00,1.38
7586.00,1.38
7585.00,1.38
7584.00,1.38
7583.00,1.38
7582.00,1.38
7581.00,1.38
7580.00,1.38
7579.00,1.37
7578.00,1.37
7577.00,1.37
7576.00,1.37
7575.00,1.37
7574.00,1.37
7573.00,1.37
7572.00,1.37
7571.00,1.37
7570.00,1.37
7569.00,1.37
7568.00,1.37
7567.00,1.37
7566.00,1.37
7565.00,1.37
7564.00,1.37
7563.00,1.37
7562.00,1.37
7561.00,1.37
7560.00,1.37
7559.00,1.37
7558.00,1.37
7557.00,1.37
7556.00,1.38
7555.00,1.38
7554.00,1.38
7553.00,1.38
7552.00,1.38
7551.00,1.38
7550.00,1.38
7549.00,1.38
7548.00,1.38
7547.00,1.38
7546.00,1.37
7545.00,1.37
7544.00,1.37
7543.00,1.37
7542.00,1.37
7541.00,1.37
7540.00,1.37
7539.00,1.37
7538.00,1.37
7537.00,1.37
7536.00,1.37
7535.00,1.37
7534.00,1.37
7533.00,1.37
7532.00,1.37
7531.00,1.37
7530.00,1.37
7529.00,1.37
7528.00,1.37
7527.00,1.37
7526.00,1.37
7525.00,1.37
7524.00,1.37
7523.00,1.37
7522.00,1.37
7521.00,1.37
7520.00,1.37
7519.00,1.37
7518.00,1.37
7517.00,1.37
7516.00,1.36
7515.00,1.36
7514.00,1.36
7513.00,1.36
7512.00,1.36
7511.00,1.36
7510.00,1.36
7509.00,1.36
7508.00,1.36
7507.00,1.36
7506.00,1.36
7505.00,1.36
7504.00,1.36
7503.00,1.36
7502.00,1.36
7501.00,1.36
7500.00,1.36
7499.00,1.36
7498.00,1.36
7497.00,1.36
7496.00,1.36
7495.00,1.36
7494.00,1.36
7493.00,1.36
7492.00,1.36
7491.00,1.36
7490.00,1.36
7489.00,1.36
7488.00,1.36
7487.00,1.35
7486.00,1.35
7485.00,1.35
7484.00,1.35
7483.00,1.35
7482.00,1.35
7481.00,1.35
7480.00,1.35
7479.00,1.35
7478.00,1.35
7477.00,1.35
7476.00,1.35
7475.00,1.35
7474.00,1.35
7473.00,1.35
7472.00,1.35
7471.00,1.35
7470.00,1.35
7469.00,1.35
7468.00,1.35
7467.00,1.35
7466.00,1.35
7465.00,1.35
7464.00,1.35
7463.00,1.35
7462.00,1.35
7461.00,1.35
7460.00,1.35
7459.00,1.35
7458.00,1.35
7457.00,1.35
7456.00,1.34
7455.00,1.34
7454.00,1.34
7453.00,1.34
7452.00,1.34
7451.00,1.34
7450.00,1.34
7449.00,1.34
7448.00,1.34
7447.00,1.34
7446.00,1.34
7445.00,1.34
7444.00,1.34
7443.00,1.34
7442.00,1.34
7441.00,1.34
7440.00,1.34
7439.00,1.34
7438.00,1.34
7437.00,1.34
7436.00,1.34
7435.00,1.34
7434.00,1.34
7433.00,1.34
7432.00,1.33
7431.00,1.33
7430.00,1.33
7429.00,1.33
7428.00,1.33
7427.00,1.33
7426.00,1.33
7425.00,1.33
7424.00,1.33
7423.00,1.33
7422.00,1.33
7421.00,1.33
7420.00,1.33
7419.00,1.33
7418.00,1.33
7417.00,1.33
7416.00,1.33
7415.00,1.33
7414.00,1.32
7413.00,1.32
7412.00,1.32
7411.00,1.32
7410.00,1.32
7409.00,1.32
7408.00,1.32
7407.00,1.32
7406.00,1.32
7405.00,1.31
7404.00,1.31
7403.00,1.31
7402.00,1.31
7401.00,1.31
7400.00,1.31
7399.00,1.31
7398.00,1.31
7397.00,1.31
7396.00,1.30
7395.00,1.30
7394.00,1.30
7393.00,1.30
7392.00,1.30
7391.00,1.30
7390.00,1.30
7389.00,1.30
7388.00,1.30
7387.00,1.30
7386.00,1.30
7385.00,1.30
7384.00,1.30
7383.00,1.29
7382.00,1.29
7381.00,1.29
7380.00,1.29
7379.00,1.29
7378.00,1.29
7377.00,1.29
7376.00,1.29
7375.00,1.29
7374.00,1.29
7373.00,1.29
7372.00,1.29
7371.00,1.29
7370.00,1.29
7369.00,1.29
7368.00,1.28
7367.00,1.28
7366.00,1.28
7365.00,1.28
7364.00,1.28
7363.00,1.28
7362.00,1.28
7361.00,1.28
7360.00,1.28
7359.00,1.28
7358.00,1.28
7357.00,1.28
7356.00,1.28
7355.00,1.28
7354.00,1.28
7353.00,1.28
7352.00,1.28
7351.00,1.28
7350.00,1.28
7349.00,1.28
7348.00,1.28
7347.00,1.28
7346.00,1.28
7345.00,1.28
7344.00,1.28
7343.00,1.28
7342.00,1.28
7341.00,1.28
7340.00,1.28
7339.00,1.28
7338.00,1.28
7337.00,1.28
7336.00,1.28
7335.00,1.27
7334.00,1.27
7333.00,1.27
7332.00,1.27
7331.00,1.27
7330.00,1.27
7329.00,1.27
7328.00,1.27
7327.00,1.27
7326.00,1.27
7325.00,1.27
7324.00,1.27
7323.00,1.27
7322.00,1.27
7321.00,1.27
7320.00,1.27
7319.00,1.27
7318.00,1.27
7317.00,1.27
7316.00,1.27
7315.00,1.27
7314.00,1.27
7313.00,1.27
7312.00,1.26
7311.00,1.26
7310.00,1.26
7309.00,1.26
7308.00,1.26
7307.00,1.26
7306.00,1.26
7305.00,1.26
7304.00,1.26
7303.00,1.26
7302.00,1.26
7301.00,1.26
7300.00,1.26
7299.00,1.26
7298.00,1.26
7297.00,1.26
7296.00,1.26
7295.00,1.26
7294.00,1.26
7293.00,1.26
7292.00,1.26
7291.00,1.26
7290.00,1.26
7289.00,1.26
7288.00,1.26
7287.00,1.26
7286.00,1.26
7285.00,1.26
7284.00,1.25
7283.00,1.25
7282.00,1.25
7281.00,1.25
7280.00,1.25
7279.00,1.25
7278.00,1.25
7277.00,1.25
7276.00,1.25
7275.00,1.25
7274.00,1.24
7273.00,1.24
7272.00,1.24
7271.00,1.24
7270.00,1.24
7269.00,1.24
7268.00,1.24
7267.00,1.23
7266.00,1.23
7265.00,1.23
7264.00,1.23
7263.00,1.23
7262.00,1.23
7261.00,1.23
7260.00,1.22
7259.00,1.22
7258.00,1.22
7257.00,1.22
7256.00,1.22
7255.00,1.22
7254.00,1.21
7253.00,1.21
7252.00,1.21
7251.00,1.21
7250.00,1.21
7249.00,1.21
7248.00,1.20
7247.00,1.20
7246.00,1.20
7245.00,1.20
7244.00,1.20
7243.00,1.19
7242.00,1.19
7241.00,1.19
7240.00,1.19
7239.00,1.18
7238.00,1.18
7237.00,1.18
7236.00,1.17
7235.00,1.17
7234.00,1.17
7233.00,1.16
7232.00,1.16
7231.00,1.16
7230.00,1.16
7229.00,1.15
7228.00,1.15
7227.00,1.15
7226.00,1.15
7225.00,1.14
7224.00,1.14
7223.00,1.14
7222.00,1.14
7221.00,1.14
7220.00,1.13
7219.00,1.13
7218.00,1.13
7217.00,1.13
7216.00,1.13
7215.00,1.12
7214.00,1.12
7213.00,1.12
7212.00,1.12
7211.00,1.11
7210.00,1.11
7209.00,1.11
7208.00,1.11
7207.00,1.10
7206.00,1.10
7205.00,1.10
7204.00,1.09
7203.00,1.09
7202.00,1.09
7201.00,1.08
7200.00,1.08
7199.00,1.08
7198.00,1.07
7197.00,1.07
7196.00,1.07
7195.00,1.06
7194.00,1.06
7193.00,1.06
7192.00,1.05
7191.00,1.05
7190.00,1.05
7189.00,1.04
7188.00,1.04
7187.00,1.04
7186.00,1.03
7185.00,1.03
7184.00,1.03
7183.00,1.02
7182.00,1.02
7181.00,1.02
7180.00,1.01
7179.00,1.01
7178.00,1.00
7177.00,1.00
7176.00,1.00
7175.00,1.00
7174.00,0.99
7173.00,0.99
7172.00,0.99
7171.00,0.98
7170.00,0.98
7169.00,0.98
7168.00,0.97
7167.00,0.97
7166.00,0.97
7165.00,0.97
7164.00,0.96
7163.00,0.96
7162.00,0.96
7161.00,0.96
7160.00,0.95
7159.00,0.95
7158.00,0.95
7157.00,0.95
7156.00,0.95
7155.00,0.94
7154.00,0.94
7153.00,0.94
7152.00,0.94
7151.00,0.93
7150.00,0.93
7149.00,0.93
7148.00,0.93
7147.00,0.92
7146.00,0.92
7145.00,0.92
7144.00,0.92
7143.00,0.91
7142.00,0.91
7141.00,0.91
7140.00,0.91
7139.00,0.90
7138.00,0.90
7137.00,0.90
7136.00,0.90
7135.00,0.89
7134.00,0.89
7133.00,0.89
7132.00,0.89
7131.00,0.89
7130.00,0.89
7129.00,0.88
7128.00,0.88
7127.00,0.88
7126.00,0.88
7125.00,0.87
7124.00,0.87
7123.00,0.87
7122.00,0.87
7121.00,0.87
7120.00,0.86
7119.00,0.86
7118.00,0.86
7117.00,0.86
7116.00,0.85
7115.00,0.85
7114.00,0.85
7113.00,0.85
7112.00,0.85
7111.00,0.84
7110.00,0.84
7109.00,0.84
7108.00,0.84
7107.00,0.84
7106.00,0.83
7105.00,0.83
7104.00,0.83
7103.00,0.83
7102.00,0.83
7101.00,0.82
7100.00,0.82
7099.00,0.82
7098.00,0.82
7097.00,0.82
7096.00,0.81
7095.00,0.81
7094.00,0.81
7093.00,0.81
7092.00,0.81
7091.00,0.80
7090.00,0.80
7089.00,0.80
7088.00,0.80
7087.00,0.80
7086.00,0.80
7085.00,0.80
7084.00,0.79
7083.00,0.79
7082.00,0.79
7081.00,0.79
7080.00,0.79
7079.00,0.79
7078.00,0.79
7077.00,0.79
7076.00,0.79
7075.00,0.79
7074.00,0.79
7073.00,0.79
7072.00,0.79
7071.00,0.78
7070.00,0.78
7069.00,0.78
7068.00,0.78
7067.00,0.78
7066.00,0.78
7065.00,0.78
7064.00,0.77
7063.00,0.77
7062.00,0.77
7061.00,0.77
7060.00,0.77
7059.00,0.77
7058.00,0.76
7057.00,0.76
7056.00,0.76
7055.00,0.76
7054.00,0.76
7053.00,0.75
7052.00,0.75
7051.00,0.75
7050.00,0.75
7049.00,0.75
7048.00,0.75
7047.00,0.74
7046.00,0.74
7045.00,0.74
7044.00,0.74
7043.00,0.74
7042.00,0.74
7041.00,0.74
7040.00,0.74
7039.00,0.74
7038.00,0.74
7037.00,0.74
7036.00,0.74
7035.00,0.74
7034.00,0.74
7033.00,0.74
7032.00,0.74
7031.00,0.74
7030.00,0.74
7029.00,0.73
7028.00,0.73
7027.00,0.73
7026.00,0.73
7025.00,0.73
7024.00,0.73
7023.00,0.73
7022.00,0.73
7021.00,0.73
7020.00,0.73
7019.00,0.73
7018.00,0.73
7017.00,0.73
7016.00,0.72
7015.00,0.72
7014.00,0.72
7013.00,0.72
7012.00,0.72
7011.00,0.72
7010.00,0.72
7009.00,0.72
7008.00,0.72
7007.00,0.72
7006.00,0.72
7005.00,0.72
7004.00,0.72
7003.00,0.72
7002.00,0.71
7001.00,0.71
7000.00,0.71
6999.00,0.71
6998.00,0.71
6997.00,0.71
6996.00,0.71
6995.00,0.71
6994.00,0.71
6993.00,0.71
6992.00,0.71
6991.00,0.71
6990.00,0.71
6989.00,0.71
6988.00,0.71
6987.00,0.71
6986.00,0.71
6985.00,0.71
6984.00,0.71
6983.00,0.70
6982.00,0.70
6981.00,0.70
6980.00,0.70
6979.00,0.70
6978.00,0.70
6977.00,0.70
6976.00,0.70
6975.00,0.70
6974.00,0.70
6973.00,0.70
6972.00,0.70
6971.00,0.70
6970.00,0.70
6969.00,0.70
6968.00,0.70
6967.00,0.70
6966.00,0.69
6965.00,0.69
6964.00,0.69
6963.00,0.69
6962.00,0.69
6961.00,0.69
6960.00,0.69
6959.00,0.69
6958.00,0.69
6957.00,0.69
6956.00,0.69
6955.00,0.69
6954.00,0.69
6953.00,0.69
6952.00,0.69
6951.00,0.69
6950.00,0.69
6949.00,0.69
6948.00,0.69
6947.00,0.69
6946.00,0.69
6945.00,0.69
6944.00,0.69
6943.00,0.69
6942.00,0.69
6941.00,0.69
6940.00,0.69
6939.00,0.69
6938.00,0.69
6937.00,0.69
6936.00,0.69
6935.00,0.69
6934.00,0.69
6933.00,0.69
6932.00,0.69
6931.00,0.69
6930.00,0.69
6929.00,0.69
6928.00,0.69
6927.00,0.69
6926.00,0.69
6925.00,0.69
6924.00,0.69
6923.00,0.69
6922.00,0.69
6921.00,0.69
6920.00,0.69
6919.00,0.69
6918.00,0.69
6917.00,0.68
6916.00,0.68
6915.00,0.68
6914.00,0.68
6913.00,0.68
6912.00,0.68
6911.00,0.68
6910.00,0.68
6909.00,0.68
6908.00,0.68
6907.00,0.68
6906.00,0.68
6905.00,0.68
6904.00,0.68
6903.00,0.68
6902.00,0.68
6901.00,0.68
6900.00,0.68
6899.00,0.68
6898.00,0.68
6897.00,0.68
6896.00,0.68
6895.00,0.68
6894.00,0.68
6893.00,0.68
6892.00,0.68
6891.00,0.68
6890.00,0.67
6889.00,0.67
6888.00,0.67
6887.00,0.67
6886.00,0.67
6885.00,0.67
6884.00,0.67
6883.00,0.67
6882.00,0.67
6881.00,0.67
6880.00,0.67
6879.00,0.67
6878.00,0.67
6877.00,0.67
6876.00,0.67
6875.00,0.67
6874.00,0.67
6873.00,0.67
6872.00,0.67
6871.00,0.67
6870.00,0.68
6869.00,0.68
6868.00,0.68
6867.00,0.68
6866.00,0.68
6865.00,0.68
6864.00,0.68
6863.00,0.68
6862.00,0.68
6861.00,0.68
6860.00,0.68
6859.00,0.68
6858.00,0.68
6857.00,0.68
6856.00,0.68
6855.00,0.68
6854.00,0.68
6853.00,0.68
6852.00,0.68
6851.00,0.68
6850.00,0.68
6849.00,0.68
6848.00,0.68
6847.00,0.68
6846.00,0.68
6845.00,0.68
6844.00,0.68
6843.00,0.68
6842.00,0.69
6841.00,0.69
6840.00,0.69
6839.00,0.69
6838.00,0.69
6837.00,0.69
6836.00,0.69
6835.00,0.69
6834.00,0.69
6833.00,0.69
6832.00,0.69
6831.00,0.69
6830.00,0.69
6829.00,0.69
6828.00,0.69
6827.00,0.69
6826.00,0.69
6825.00,0.69
6824.00,0.69
6823.00,0.69
6822.00,0.69
6821.00,0.69
6820.00,0.69
6819.00,0.69
6818.00,0.69
6817.00,0.69
6816.00,0.69
6815.00,0.69
6814.00,0.69
6813.00,0.69
6812.00,0.69
6811.00,0.69
6810.00,0.69
6809.00,0.69
6808.00,0.69
6807.00,0.69
6806.00,0.69
6805.00,0.69
6804.00,0.69
6803.00,0.69
6802.00,0.69
6801.00,0.69
6800.00,0.69
6799.00,0.69
6798.00,0.69
6797.00,0.70
6796.00,0.70
6795.00,0.70
6794.00,0.70
6793.00,0.70
6792.00,0.70
6791.00,0.70
6790.00,0.70
6789.00,0.70
6788.00,0.70
6787.00,0.70
6786.00,0.70
6785.00,0.70
6784.00,0.70
6783.00,0.70
6782.00,0.70
6781.00,0.70
6780.00,0.70
6779.00,0.70
6778.00,0.70
6777.00,0.70
6776.00,0.70
6775.00,0.70
6774.00,0.71
6773.00,0.71
6772.00,0.71
6771.00,0.71
6770.00,0.71
6769.00,0.71
6768.00,0.71
6767.00,0.71
6766.00,0.71
6765.00,0.71
6764.00,0.71
6763.00,0.71
6762.00,0.71
6761.00,0.71
6760.00,0.71
6759.00,0.72
6758.00,0.72
6757.00,0.72
6756.00,0.72
6755.00,0.72
6754.00,0.72
6753.00,0.72
6752.00,0.72
6751.00,0.72
6750.00,0.72
6749.00,0.73
6748.00,0.73
6747.00,0.73
6746.00,0.73
6745.00,0.73
6744.00,0.73
6743.00,0.73
6742.00,0.73
6741.00,0.73
6740.00,0.73
6739.00,0.73
6738.00,0.73
6737.00,0.73
6736.00,0.73
6735.00,0.73
6734.00,0.73
6733.00,0.73
6732.00,0.73
6731.00,0.73
6730.00,0.73
6729.00,0.73
6728.00,0.73
6727.00,0.73
6726.00,0.74
6725.00,0.74
6724.00,0.74
6723.00,0.74
6722.00,0.74
6721.00,0.74
6720.00,0.74
6719.00,0.74
6718.00,0.74
6717.00,0.74
6716.00,0.74
6715.00,0.74
6714.00,0.74
6713.00,0.74
6712.00,0.75
6711.00,0.75
6710.00,0.75
6709.00,0.75
6708.00,0.75
6707.00,0.75
6706.00,0.75
6705.00,0.75
6704.00,0.75
6703.00,0.75
6702.00,0.75
6701.00,0.75
6700.00,0.75
6699.00,0.76
6698.00,0.76
6697.00,0.76
6696.00,0.76
6695.00,0.76
6694.00,0.76
6693.00,0.76
6692.00,0.76
6691.00,0.76
6690.00,0.76
6689.00,0.76
6688.00,0.76
6687.00,0.76
6686.00,0.76
6685.00,0.76
6684.00,0.77
6683.00,0.77
6682.00,0.77
6681.00,0.77
6680.00,0.77
6679.00,0.77
6678.00,0.77
6677.00,0.77
6676.00,0.77
6675.00,0.77
6674.00,0.77
6673.00,0.77
6672.00,0.77
6671.00,0.77
6670.00,0.77
6669.00,0.77
6668.00,0.78
6667.00,0.78
6666.00,0.78
6665.00,0.78
6664.00,0.78
6663.00,0.78
6662.00,0.78
6661.00,0.78
6660.00,0.78
6659.00,0.78
6658.00,0.78
6657.00,0.78
6656.00,0.78
6655.00,0.78
6654.00,0.78
6653.00,0.79
6652.00,0.79
6651.00,0.79
6650.00,0.79
6649.00,0.79
6648.00,0.79
6647.00,0.79
6646.00,0.79
6645.00,0.79
6644.00,0.79
6643.00,0.79
6642.00,0.80
6641.00,0.80
6640.00,0.80
6639.00,0.80
6638.00,0.80
6637.00,0.80
6636.00,0.80
6635.00,0.80
6634.00,0.80
6633.00,0.80
6632.00,0.80
6631.00,0.80
6630.00,0.81
6629.00,0.81
6628.00,0.81
6627.00,0.81
6626.00,0.81
6625.00,0.81
6624.00,0.81
6623.00,0.81
6622.00,0.81
6621.00,0.82
6620.00,0.82
6619.00,0.82
6618.00,0.82
6617.00,0.82
6616.00,0.82
6615.00,0.82
6614.00,0.82
6613.00,0.82
6612.00,0.82
6611.00,0.83
6610.00,0.83
6609.00,0.83
6608.00,0.83
6607.00,0.83
6606.00,0.83
6605.00,0.83
6604.00,0.83
6603.00,0.83
6602.00,0.83
6601.00,0.83
6600.00,0.83
6599.00,0.83
6598.00,0.84
6597.00,0.84
6596.00,0.84
6595.00,0.84
6594.00,0.84
6593.00,0.84
6592.00,0.84
6591.00,0.84
6590.00,0.84
6589.00,0.84
6588.00,0.85
6587.00,0.85
6586.00,0.85
6585.00,0.85
6584.00,0.85
6583.00,0.85
6582.00,0.85
6581.00,0.85
6580.00,0.85
6579.00,0.85
6578.00,0.85
6577.00,0.85
6576.00,0.86
6575.00,0.86
6574.00,0.86
6573.00,0.86
6572.00,0.86
6571.00,0.86
6570.00,0.86
6569.00,0.86
6568.00,0.86
6567.00,0.86
6566.00,0.86
6565.00,0.86
6564.00,0.87
6563.00,0.87
6562.00,0.87
6561.00,0.87
6560.00,0.87
6559.00,0.87
6558.00,0.87
6557.00,0.87
6556.00,0.87
6555.00,0.87
6554.00,0.87
6553.00,0.87
6552.00,0.87
6551.00,0.88
6550.00,0.88
6549.00,0.88
6548.00,0.88
6547.00,0.88
6546.00,0.88
6545.00,0.88
6544.00,0.88
6543.00,0.89
6542.00,0.89
6541.00,0.89
6540.00,0.89
6539.00,0.89
6538.00,0.89
6537.00,0.89
6536.00,0.89
6535.00,0.89
6534.00,0.90
6533.00,0.90
6532.00,0.90
6531.00,0.90
6530.00,0.90
6529.00,0.90
6528.00,0.90
6527.00,0.90
6526.00,0.90
6525.00,0.90
6524.00,0.90
6523.00,0.91
6522.00,0.91
6521.00,0.91
6520.00,0.91
6519.00,0.91
6518.00,0.91
6517.00,0.91
6516.00,0.91
6515.00,0.91
6514.00,0.91
6513.00,0.91
6512.00,0.92
6511.00,0.92
6510.00,0.92
6509.00,0.92
6508.00,0.92
6507.00,0.92
6506.00,0.92
6505.00,0.92
6504.00,0.92
6503.00,0.92
6502.00,0.92
6501.00,0.92
6500.00,0.92
6499.00,0.92
6498.00,0.92
6497.00,0.92
6496.00,0.92
6495.00,0.92
6494.00,0.92
6493.00,0.92
6492.00,0.92
6491.00,0.92
6490.00,0.92
6489.00,0.92
6488.00,0.93
6487.00,0.93
6486.00,0.93
6485.00,0.93
6484.00,0.93
6483.00,0.93
6482.00,0.93
6481.00,0.93
6480.00,0.93
6479.00,0.93
6478.00,0.93
6477.00,0.93
6476.00,0.93
6475.00,0.93
6474.00,0.94
6473.00,0.94
6472.00,0.94
6471.00,0.94
6470.00,0.94
6469.00,0.94
6468.00,0.94
6467.00,0.94
6466.00,0.94
6465.00,0.94
6464.00,0.94
6463.00,0.95
6462.00,0.95
6461.00,0.95
6460.00,0.95
6459.00,0.95
6458.00,0.95
6457.00,0.95
6456.00,0.96
6455.00,0.96
6454.00,0.96
6453.00,0.96
6452.00,0.96
6451.00,0.96
6450.00,0.96
6449.00,0.96
6448.00,0.96
6447.00,0.96
6446.00,0.96
6445.00,0.96
6444.00,0.96
6443.00,0.96
6442.00,0.96
6441.00,0.97
6440.00,0.97
6439.00,0.97
6438.00,0.97
6437.00,0.97
6436.00,0.97
6435.00,0.97
6434.00,0.97
6433.00,0.97
6432.00,0.97
6431.00,0.97
6430.00,0.97
6429.00,0.97
6428.00,0.97
6427.00,0.97
6426.00,0.97
6425.00,0.97
6424.00,0.97
6423.00,0.97
6422.00,0.97
6421.00,0.97
6420.00,0.97
6419.00,0.97
6418.00,0.97
6417.00,0.98
6416.00,0.98
6415.00,0.98
6414.00,0.98
6413.00,0.98
6412.00,0.98
6411.00,0.98
6410.00,0.98
6409.00,0.98
6408.00,0.98
6407.00,0.98
6406.00,0.98
6405.00,0.98
6404.00,0.98
6403.00,0.98
6402.00,0.99
6401.00,0.99
6400.00,0.99
6399.00,0.99
6398.00,0.99
6397.00,0.99
6396.00,0.99
6395.00,0.99
6394.00,0.99
6393.00,0.99
6392.00,0.99
6391.00,0.99
6390.00,0.99
6389.00,1.00
6388.00,1.00
6387.00,1.00
6386.00,1.00
6385.00,1.00
6384.00,1.00
6383.00,1.00
6382.00,1.00
6381.00,1.00
6380.00,1.00
6379.00,1.00
6378.00,1.00
6377.00,1.00
6376.00,1.00
6375.00,1.00
6374.00,1.00
6373.00,1.00
6372.00,1.00
6371.00,1.00
6370.00,1.00
6369.00,1.00
6368.00,1.00
6367.00,1.00
6366.00,1.00
6365.00,1.01
6364.00,1.01
6363.00,1.01
6362.00,1.01
6361.00,1.01
6360.00,1.01
6359.00,1.01
6358.00,1.01
6357.00,1.01
6356.00,1.01
6355.00,1.01
6354.00,1.01
6353.00,1.01
6352.00,1.01
6351.00,1.01
6350.00,1.02
6349.00,1.02
6348.00,1.02
6347.00,1.02
6346.00,1.02
6345.00,1.02
6344.00,1.02
6343.00,1.02
6342.00,1.02
6341.00,1.03
6340.00,1.03
6339.00,1.03
6338.00,1.03
6337.00,1.03
6336.00,1.03
6335.00,1.03
6334.00,1.03
6333.00,1.03
6332.00,1.03
6331.00,1.04
6330.00,1.04
6329.00,1.04
6328.00,1.04
6327.00,1.04
6326.00,1.04
6325.00,1.04
6324.00,1.04
6323.00,1.04
6322.00,1.04
6321.00,1.04
6320.00,1.05
6319.00,1.05
6318.00,1.05
6317.00,1.05
6316.00,1.05
6315.00,1.05
6314.00,1.05
6313.00,1.05
6312.00,1.05
6311.00,1.06
6310.00,1.06
6309.00,1.06
6308.00,1.06
6307.00,1.06
6306.00,1.06
6305.00,1.06
6304.00,1.06
6303.00,1.06
6302.00,1.07
6301.00,1.07
6300.00,1.07
6299.00,1.07
6298.00,1.07
6297.00,1.07
6296.00,1.07
6295.00,1.07
6294.00,1.07
6293.00,1.07
6292.00,1.08
6291.00,1.08
6290.00,1.08
6289.00,1.08
6288.00,1.08
6287.00,1.08
6286.00,1.08
6285.00,1.08
6284.00,1.09
6283.00,1.09
6282.00,1.09
6281.00,1.09
6280.00,1.09
6279.00,1.09
6278.00,1.09
6277.00,1.09
6276.00,1.10
6275.00,1.10
6274.00,1.10
6273.00,1.10
6272.00,1.10
6271.00,1.10
6270.00,1.10
6269.00,1.10
6268.00,1.10
6267.00,1.10
6266.00,1.10
6265.00,1.11
6264.00,1.11
6263.00,1.11
6262.00,1.11
6261.00,1.11
6260.00,1.11
6259.00,1.11
6258.00,1.11
6257.00,1.11
6256.00,1.11
6255.00,1.11
6254.00,1.11
6253.00,1.12
6252.00,1.12
6251.00,1.12
6250.00,1.12
6249.00,1.12
6248.00,1.12
6247.00,1.12
6246.00,1.12
6245.00,1.12
6244.00,1.13
6243.00,1.13
6242.00,1.13
6241.00,1.13
6240.00,1.13
6239.00,1.13
6238.00,1.13
6237.00,1.13
6236.00,1.13
6235.00,1.13
6234.00,1.13
6233.00,1.13
6232.00,1.14
6231.00,1.14
6230.00,1.14
6229.00,1.14
6228.00,1.14
6227.00,1.14
6226.00,1.14
6225.00,1.14
6224.00,1.14
6223.00,1.14
6222.00,1.14
6221.00,1.15
6220.00,1.15
6219.00,1.15
6218.00,1.15
6217.00,1.15
6216.00,1.15
6215.00,1.15
6214.00,1.15
6213.00,1.15
6212.00,1.15
6211.00,1.15
6210.00,1.15
6209.00,1.16
6208.00,1.16
6207.00,1.16
6206.00,1.16
6205.00,1.16
6204.00,1.16
6203.00,1.16
6202.00,1.16
6201.00,1.16
6200.00,1.16
6199.00,1.17
6198.00,1.17
6197.00,1.17
6196.00,1.17
6195.00,1.17
6194.00,1.17
6193.00,1.17
6192.00,1.17
6191.00,1.18
6190.00,1.18
6189.00,1.18
6188.00,1.18
6187.00,1.18
6186.00,1.18
6185.00,1.18
6184.00,1.19
6183.00,1.19
6182.00,1.19
6181.00,1.19
6180.00,1.19
6179.00,1.19
6178.00,1.19
6177.00,1.19
6176.00,1.20
6175.00,1.20
6174.00,1.20
6173.00,1.20
6172.00,1.20
6171.00,1.20
6170.00,1.20
6169.00,1.20
6168.00,1.20
6167.00,1.21
6166.00,1.21
6165.00,1.21
6164.00,1.21
6163.00,1.21
6162.00,1.21
6161.00,1.21
6160.00,1.21
6159.00,1.22
6158.00,1.22
6157.00,1.22
6156.00,1.22
6155.00,1.22
6154.00,1.22
6153.00,1.22
6152.00,1.22
6151.00,1.22
6150.00,1.23
6149.00,1.23
6148.00,1.23
6147.00,1.23
6146.00,1.23
6145.00,1.23
6144.00,1.23
6143.00,1.23
6142.00,1.23
6141.00,1.24
6140.00,1.24
6139.00,1.24
6138.00,1.24
6137.00,1.24
6136.00,1.24
6135.00,1.24
6134.00,1.24
6133.00,1.24
6132.00,1.24
6131.00,1.24
6130.00,1.25
6129.00,1.25
6128.00,1.25
6127.00,1.25
6126.00,1.25
6125.00,1.25
6124.00,1.25
6123.00,1.25
6122.00,1.25
6121.00,1.25
6120.00,1.26
6119.00,1.26
6118.00,1.26
6117.00,1.26
6116.00,1.26
6115.00,1.26
6114.00,1.26
6113.00,1.26
6112.00,1.27
6111.00,1.27
6110.00,1.27
6109.00,1.27
6108.00,1.27
6107.00,1.27
6106.00,1.27
6105.00,1.27
6104.00,1.27
6103.00,1.27
6102.00,1.27
6101.00,1.28
6100.00,1.28
6099.00,1.28
6098.00,1.28
6097.00,1.28
6096.00,1.28
6095.00,1.28
6094.00,1.28
6093.00,1.28
6092.00,1.28
6091.00,1.29
6090.00,1.29
6089.00,1.29
6088.00,1.29
6087.00,1.29
6086.00,1.29
6085.00,1.29
6084.00,1.29
6083.00,1.29
6082.00,1.29
6081.00,1.30
6080.00,1.30
6079.00,1.30
6078.00,1.30
6077.00,1.30
6076.00,1.30
6075.00,1.30
6074.00,1.30
6073.00,1.30
6072.00,1.30
6071.00,1.30
6070.00,1.30
6069.00,1.30
6068.00,1.30
6067.00,1.31
6066.00,1.31
6065.00,1.31
6064.00,1.31
6063.00,1.31
6062.00,1.31
6061.00,1.31
6060.00,1.31
6059.00,1.31
6058.00,1.31
6057.00,1.31
6056.00,1.31
6055.00,1.32
6054.00,1.32
6053.00,1.32
6052.00,1.32
6051.00,1.32
6050.00,1.32
6049.00,1.32
6048.00,1.32
6047.00,1.32
6046.00,1.32
6045.00,1.33
6044.00,1.33
6043.00,1.33
6042.00,1.33
6041.00,1.33
6040.00,1.33
6039.00,1.33
6038.00,1.33
6037.00,1.33
6036.00,1.33
6035.00,1.33
6034.00,1.33
6033.00,1.33
6032.00,1.33
6031.00,1.33
6030.00,1.33
6029.00,1.33
6028.00,1.33
6027.00,1.33
6026.00,1.33
6025.00,1.33
6024.00,1.33
6023.00,1.33
6022.00,1.33
6021.00,1.33
6020.00,1.33
6019.00,1.33
6018.00,1.33
6017.00,1.33
6016.00,1.33
6015.00,1.33
6014.00,1.33
6013.00,1.33
6012.00,1.33
6011.00,1.33
6010.00,1.33
6009.00,1.33
6008.00,1.33
6007.00,1.33
6006.00,1.33
6005.00,1.33
6004.00,1.33
6003.00,1.33
6002.00,1.33
6001.00,1.33
6000.00,1.33
5999.00,1.33
5998.00,1.33
5997.00,1.33
5996.00,1.33
5995.00,1.33
5994.00,1.33
5993.00,1.33
5992.00,1.33
5991.00,1.33
5990.00,1.32
5989.00,1.32
5988.00,1.32
5987.00,1.32
5986.00,1.32
5985.00,1.32
5984.00,1.31
5983.00,1.31
5982.00,1.31
5981.00,1.31
5980.00,1.31
5979.00,1.30
5978.00,1.30
5977.00,1.30
5976.00,1.29
5975.00,1.29
5974.00,1.29
5973.00,1.29
5972.00,1.28
5971.00,1.28
5970.00,1.28
5969.00,1.27
5968.00,1.27
5967.00,1.26
5966.00,1.26
5965.00,1.26
5964.00,1.25
5963.00,1.25
5962.00,1.24
5961.00,1.24
5960.00,1.23
5959.00,1.23
5958.00,1.22
5957.00,1.22
5956.00,1.21
5955.00,1.21
5954.00,1.21
5953.00,1.20
5952.00,1.20
5951.00,1.19
5950.00,1.19
5949.00,1.19
5948.00,1.18
5947.00,1.18
5946.00,1.18
5945.00,1.18
5944.00,1.17
5943.00,1.17
5942.00,1.17
5941.00,1.17
5940.00,1.17
5939.00,1.17
5938.00,1.17
5937.00,1.17
5936.00,1.17
5935.00,1.16
5934.00,1.16
5933.00,1.16
5932.00,1.16
5931.00,1.16
5930.00,1.16
5929.00,1.16
5928.00,1.16
5927.00,1.16
5926.00,1.16
5925.00,1.16
5924.00,1.16
5923.00,1.15
5922.00,1.15
5921.00,1.15
5920.00,1.15
5919.00,1.15
5918.00,1.14
5917.00,1.14
5916.00,1.14
5915.00,1.14
5914.00,1.14
5913.00,1.13
5912.00,1.13
5911.00,1.13
5910.00,1.13
5909.00,1.13
5908.00,1.12
5907.00,1.12
5906.00,1.12
5905.00,1.12
5904.00,1.12
5903.00,1.12
5902.00,1.12
5901.00,1.12
5900.00,1.12
5899.00,1.12
5898.00,1.12
5897.00,1.12
5896.00,1.12
5895.00,1.12
5894.00,1.13
5893.00,1.13
5892.00,1.13
5891.00,1.13
5890.00,1.13
5889.00,1.14
5888.00,1.14
5887.00,1.14
5886.00,1.15
5885.00,1.15
5884.00,1.15
5883.00,1.15
5882.00,1.16
5881.00,1.16
5880.00,1.16
5879.00,1.17
5878.00,1.17
5877.00,1.17
5876.00,1.17
5875.00,1.18
5874.00,1.18
5873.00,1.18
5872.00,1.18
5871.00,1.18
5870.00,1.19
5869.00,1.19
5868.00,1.19
5867.00,1.19
5866.00,1.19
5865.00,1.19
5864.00,1.19
5863.00,1.20
5862.00,1.20
5861.00,1.20
5860.00,1.20
5859.00,1.20
5858.00,1.20
5857.00,1.20
5856.00,1.20
5855.00,1.20
5854.00,1.20
5853.00,1.20
5852.00,1.20
5851.00,1.20
5850.00,1.20
5849.00,1.20
5848.00,1.20
5847.00,1.20
5846.00,1.20
5845.00,1.21
5844.00,1.21
5843.00,1.21
5842.00,1.21
5841.00,1.21
5840.00,1.21
5839.00,1.21
5838.00,1.20
5837.00,1.20
5836.00,1.20
5835.00,1.20
5834.00,1.20
5833.00,1.20
5832.00,1.20
5831.00,1.20
5830.00,1.20
5829.00,1.20
5828.00,1.20
5827.00,1.20
5826.00,1.20
5825.00,1.20
5824.00,1.20
5823.00,1.20
5822.00,1.20
5821.00,1.20
5820.00,1.20
5819.00,1.20
5818.00,1.20
5817.00,1.20
5816.00,1.20
5815.00,1.20
5814.00,1.20
5813.00,1.20
5812.00,1.20
5811.00,1.20
5810.00,1.20
5809.00,1.20
5808.00,1.20
5807.00,1.20
5806.00,1.20
5805.00,1.20
5804.00,1.20
5803.00,1.20
5802.00,1.20
5801.00,1.20
5800.00,1.20
5799.00,1.20
5798.00,1.19
5797.00,1.19
5796.00,1.19
5795.00,1.19
5794.00,1.19
5793.00,1.19
5792.00,1.19
5791.00,1.19
5790.00,1.18
5789.00,1.18
5788.00,1.18
5787.00,1.18
5786.00,1.18
5785.00,1.18
5784.00,1.18
5783.00,1.17
5782.00,1.17
5781.00,1.17
5780.00,1.17
5779.00,1.17
5778.00,1.17
5777.00,1.17
5776.00,1.17
5775.00,1.17
5774.00,1.17
5773.00,1.17
5772.00,1.17
5771.00,1.17
5770.00,1.17
5769.00,1.17
5768.00,1.17
5767.00,1.17
5766.00,1.17
5765.00,1.17
5764.00,1.17
5763.00,1.18
5762.00,1.18
5761.00,1.18
5760.00,1.18
5759.00,1.18
5758.00,1.18
5757.00,1.19
5756.00,1.19
5755.00,1.19
5754.00,1.19
5753.00,1.20
5752.00,1.20
5751.00,1.20
5750.00,1.20
5749.00,1.21
5748.00,1.21
5747.00,1.21
5746.00,1.21
5745.00,1.22
5744.00,1.22
5743.00,1.22
5742.00,1.22
5741.00,1.22
5740.00,1.23
5739.00,1.23
5738.00,1.23
5737.00,1.23
5736.00,1.23
5735.00,1.23
5734.00,1.23
5733.00,1.23
5732.00,1.24
5731.00,1.24
5730.00,1.24
5729.00,1.24
5728.00,1.24
5727.00,1.24
5726.00,1.24
5725.00,1.24
5724.00,1.24
5723.00,1.24
5722.00,1.24
5721.00,1.23
5720.00,1.23
5719.00,1.23
5718.00,1.23
5717.00,1.23
5716.00,1.23
5715.00,1.23
5714.00,1.23
5713.00,1.23
5712.00,1.23
5711.00,1.23
5710.00,1.23
5709.00,1.23
5708.00,1.23
5707.00,1.23
5706.00,1.23
5705.00,1.23
5704.00,1.23
5703.00,1.23
5702.00,1.23
5701.00,1.22
5700.00,1.22
5699.00,1.22
5698.00,1.22
5697.00,1.22
5696.00,1.22
5695.00,1.21
5694.00,1.21
5693.00,1.21
5692.00,1.21
5691.00,1.21
5690.00,1.21
5689.00,1.21
5688.00,1.20
5687.00,1.20
5686.00,1.20
5685.00,1.20
5684.00,1.20
5683.00,1.20
5682.00,1.20
5681.00,1.20
5680.00,1.20
5679.00,1.20
5678.00,1.20
5677.00,1.20
5676.00,1.20
5675.00,1.20
5674.00,1.20
5673.00,1.20
5672.00,1.20
5671.00,1.20
5670.00,1.20
5669.00,1.20
5668.00,1.20
5667.00,1.20
5666.00,1.20
5665.00,1.20
5664.00,1.20
5663.00,1.20
5662.00,1.21
5661.00,1.21
5660.00,1.21
5659.00,1.21
5658.00,1.21
5657.00,1.21
5656.00,1.21
5655.00,1.21
5654.00,1.21
5653.00,1.21
5652.00,1.22
5651.00,1.22
5650.00,1.22
5649.00,1.22
5648.00,1.22
5647.00,1.22
5646.00,1.22
5645.00,1.22
5644.00,1.23
5643.00,1.23
5642.00,1.23
5641.00,1.23
5640.00,1.23
5639.00,1.23
5638.00,1.23
5637.00,1.23
5636.00,1.24
5635.00,1.24
5634.00,1.24
5633.00,1.24
5632.00,1.24
5631.00,1.24
5630.00,1.24
5629.00,1.24
5628.00,1.24
5627.00,1.24
5626.00,1.24
5625.00,1.24
5624.00,1.24
5623.00,1.25
5622.00,1.25
5621.00,1.25
5620.00,1.25
5619.00,1.25
5618.00,1.25
5617.00,1.25
5616.00,1.25
5615.00,1.25
5614.00,1.25
5613.00,1.25
5612.00,1.25
5611.00,1.26
5610.00,1.26
5609.00,1.26
5608.00,1.26
5607.00,1.26
5606.00,1.26
5605.00,1.26
5604.00,1.26
5603.00,1.27
5602.00,1.27
5601.00,1.27
5600.00,1.27
5599.00,1.27
5598.00,1.27
5597.00,1.27
5596.00,1.28
5595.00,1.28
5594.00,1.28
5593.00,1.28
5592.00,1.28
5591.00,1.28
5590.00,1.28
5589.00,1.28
5588.00,1.28
5587.00,1.29
5586.00,1.29
5585.00,1.29
5584.00,1.29
5583.00,1.29
5582.00,1.29
5581.00,1.29
5580.00,1.29
5579.00,1.29
5578.00,1.29
5577.00,1.29
5576.00,1.29
5575.00,1.30
5574.00,1.30
5573.00,1.30
5572.00,1.30
5571.00,1.30
5570.00,1.30
5569.00,1.30
5568.00,1.30
5567.00,1.30
5566.00,1.31
5565.00,1.31
5564.00,1.31
5563.00,1.31
5562.00,1.31
5561.00,1.31
5560.00,1.31
5559.00,1.31
5558.00,1.31
5557.00,1.31
5556.00,1.31
5555.00,1.31
5554.00,1.32
5553.00,1.32
5552.00,1.32
5551.00,1.32
5550.00,1.32
5549.00,1.32
5548.00,1.32
5547.00,1.32
5546.00,1.32
5545.00,1.32
5544.00,1.32
5543.00,1.32
5542.00,1.33
5541.00,1.33
5540.00,1.33
5539.00,1.33
5538.00,1.33
5537.00,1.33
5536.00,1.33
5535.00,1.33
5534.00,1.33
5533.00,1.33
5532.00,1.33
5531.00,1.33
5530.00,1.33
5529.00,1.34
5528.00,1.34
5527.00,1.34
5526.00,1.34
5525.00,1.34
5524.00,1.34
5523.00,1.34
5522.00,1.34
5521.00,1.34
5520.00,1.34
5519.00,1.34
5518.00,1.34
5517.00,1.34
5516.00,1.34
5515.00,1.34
5514.00,1.34
5513.00,1.34
5512.00,1.34
5511.00,1.34
5510.00,1.34
5509.00,1.34
5508.00,1.34
5507.00,1.34
5506.00,1.35
5505.00,1.35
5504.00,1.35
5503.00,1.35
5502.00,1.35
5501.00,1.35
5500.00,1.35
5499.00,1.35
5498.00,1.35
5497.00,1.35
5496.00,1.35
5495.00,1.35
5494.00,1.35
5493.00,1.35
5492.00,1.36
5491.00,1.36
5490.00,1.36
5489.00,1.36
5488.00,1.36
5487.00,1.36
5486.00,1.36
5485.00,1.36
5484.00,1.37
5483.00,1.37
5482.00,1.37
5481.00,1.37
5480.00,1.37
5479.00,1.37
5478.00,1.37
5477.00,1.37
5476.00,1.37
5475.00,1.37
5474.00,1.37
5473.00,1.37
5472.00,1.37
5471.00,1.37
5470.00,1.37
5469.00,1.37
5468.00,1.37
5467.00,1.37
5466.00,1.37
5465.00,1.37
5464.00,1.38
5463.00,1.38
5462.00,1.38
5461.00,1.38
5460.00,1.38
5459.00,1.38
5458.00,1.38
5457.00,1.38
5456.00,1.38
5455.00,1.38
5454.00,1.38
5453.00,1.38
5452.00,1.38
5451.00,1.38
5450.00,1.38
5449.00,1.38
5448.00,1.38
5447.00,1.38
5446.00,1.38
5445.00,1.38
5444.00,1.38
5443.00,1.38
5442.00,1.38
5441.00,1.38
5440.00,1.38
5439.00,1.38
5438.00,1.38
5437.00,1.38
5436.00,1.38
5435.00,1.38
5434.00,1.38
5433.00,1.39
5432.00,1.39
5431.00,1.39
5430.00,1.39
5429.00,1.39
5428.00,1.39
5427.00,1.39
5426.00,1.39
5425.00,1.39
5424.00,1.39
5423.00,1.39
5422.00,1.39
5421.00,1.39
5420.00,1.39
5419.00,1.38
5418.00,1.38
5417.00,1.38
5416.00,1.38
5415.00,1.38
5414.00,1.38
5413.00,1.38
5412.00,1.38
5411.00,1.38
5410.00,1.38
5409.00,1.38
5408.00,1.38
5407.00,1.38
5406.00,1.38
5405.00,1.38
5404.00,1.38
5403.00,1.38
5402.00,1.38
5401.00,1.38
5400.00,1.38
5399.00,1.37
5398.00,1.37
5397.00,1.37
5396.00,1.37
5395.00,1.37
5394.00,1.37
5393.00,1.36
5392.00,1.36
5391.00,1.36
5390.00,1.36
5389.00,1.36
5388.00,1.35
5387.00,1.35
5386.00,1.35
5385.00,1.35
5384.00,1.34
5383.00,1.34
5382.00,1.34
5381.00,1.33
5380.00,1.33
5379.00,1.33
5378.00,1.32
5377.00,1.32
5376.00,1.32
5375.00,1.31
5374.00,1.31
5373.00,1.31
5372.00,1.30
5371.00,1.30
5370.00,1.30
5369.00,1.29
5368.00,1.29
5367.00,1.28
5366.00,1.28
5365.00,1.27
5364.00,1.27
5363.00,1.26
5362.00,1.26
5361.00,1.25
5360.00,1.25
5359.00,1.24
5358.00,1.24
5357.00,1.23
5356.00,1.22
5355.00,1.22
5354.00,1.21
5353.00,1.20
5352.00,1.20
5351.00,1.19
5350.00,1.18
5349.00,1.17
5348.00,1.17
5347.00,1.16
5346.00,1.15
5345.00,1.14
5344.00,1.13
5343.00,1.13
5342.00,1.12
5341.00,1.11
5340.00,1.10
5339.00,1.09
5338.00,1.08
5337.00,1.07
5336.00,1.06
5335.00,1.06
5334.00,1.05
5333.00,1.04
5332.00,1.03
5331.00,1.02
5330.00,1.01
5329.00,1.01
5328.00,1.00
5327.00,0.99
5326.00,0.98
5325.00,0.97
5324.00,0.97
5323.00,0.96
5322.00,0.95
5321.00,0.95
5320.00,0.94
5319.00,0.93
5318.00,0.92
5317.00,0.92
5316.00,0.91
5315.00,0.90
5314.00,0.90
5313.00,0.89
5312.00,0.89
5311.00,0.88
5310.00,0.87
5309.00,0.87
5308.00,0.86
5307.00,0.86
5306.00,0.85
5305.00,0.85
5304.00,0.84
5303.00,0.84
5302.00,0.83
5301.00,0.83
5300.00,0.82
5299.00,0.82
5298.00,0.82
5297.00,0.81
5296.00,0.81
5295.00,0.80
5294.00,0.80
5293.00,0.80
5292.00,0.80
5291.00,0.79
5290.00,0.79
5289.00,0.79
5288.00,0.79
5287.00,0.79
5286.00,0.78
5285.00,0.78
5284.00,0.78
5283.00,0.78
5282.00,0.78
5281.00,0.78
5280.00,0.78
5279.00,0.78
5278.00,0.78
5277.00,0.78
5276.00,0.78
5275.00,0.78
5274.00,0.78
5273.00,0.77
5272.00,0.77
5271.00,0.77
5270.00,0.77
5269.00,0.77
5268.00,0.77
5267.00,0.77
5266.00,0.77
5265.00,0.77
5264.00,0.77
5263.00,0.77
5262.00,0.77
5261.00,0.77
5260.00,0.77
5259.00,0.77
5258.00,0.77
5257.00,0.77
5256.00,0.77
5255.00,0.77
5254.00,0.77
5253.00,0.77
5252.00,0.77
5251.00,0.77
5250.00,0.77
5249.00,0.77
5248.00,0.77
5247.00,0.77
5246.00,0.77
5245.00,0.77
5244.00,0.77
5243.00,0.77
5242.00,0.77
5241.00,0.77
5240.00,0.77
5239.00,0.77
5238.00,0.77
5237.00,0.77
5236.00,0.77
5235.00,0.77
5234.00,0.77
5233.00,0.77
5232.00,0.77
5231.00,0.77
5230.00,0.77
5229.00,0.77
5228.00,0.77
5227.00,0.77
5226.00,0.77
5225.00,0.77
5224.00,0.77
5223.00,0.77
5222.00,0.77
5221.00,0.77
5220.00,0.77
5219.00,0.77
5218.00,0.77
5217.00,0.77
5216.00,0.78
5215.00,0.78
5214.00,0.78
5213.00,0.78
5212.00,0.78
5211.00,0.78
5210.00,0.78
5209.00,0.78
5208.00,0.78
5207.00,0.78
5206.00,0.78
5205.00,0.78
5204.00,0.78
5203.00,0.78
5202.00,0.78
5201.00,0.78
5200.00,0.78
5199.00,0.79
5198.00,0.79
5197.00,0.79
5196.00,0.79
5195.00,0.79
5194.00,0.79
5193.00,0.79
5192.00,0.79
5191.00,0.79
5190.00,0.79
5189.00,0.79
5188.00,0.79
5187.00,0.79
5186.00,0.79
5185.00,0.79
5184.00,0.79
5183.00,0.79
5182.00,0.79
5181.00,0.79
5180.00,0.79
5179.00,0.79
5178.00,0.79
5177.00,0.79
5176.00,0.79
5175.00,0.79
5174.00,0.79
5173.00,0.79
5172.00,0.79
5171.00,0.79
5170.00,0.79
5169.00,0.79
5168.00,0.79
5167.00,0.79
5166.00,0.79
5165.00,0.79
5164.00,0.79
5163.00,0.79
5162.00,0.79
5161.00,0.80
5160.00,0.80
5159.00,0.80
5158.00,0.80
5157.00,0.80
5156.00,0.80
5155.00,0.80
5154.00,0.80
5153.00,0.80
5152.00,0.80
5151.00,0.80
5150.00,0.80
5149.00,0.80
5148.00,0.80
5147.00,0.80
5146.00,0.81
5145.00,0.81
5144.00,0.81
5143.00,0.81
5142.00,0.81
5141.00,0.81
5140.00,0.81
5139.00,0.81
5138.00,0.81
5137.00,0.81
5136.00,0.81
5135.00,0.81
5134.00,0.81
5133.00,0.81
5132.00,0.81
5131.00,0.81
5130.00,0.81
5129.00,0.81
5128.00,0.81
5127.00,0.81
5126.00,0.81
5125.00,0.81
5124.00,0.81
5123.00,0.81
5122.00,0.81
5121.00,0.81
5120.00,0.81
5119.00,0.81
5118.00,0.82
5117.00,0.82
5116.00,0.82
5115.00,0.82
5114.00,0.82
5113.00,0.82
5112.00,0.82
5111.00,0.82
5110.00,0.82
5109.00,0.82
5108.00,0.82
5107.00,0.82
5106.00,0.82
5105.00,0.82
5104.00,0.82
5103.00,0.82
5102.00,0.82
5101.00,0.82
5100.00,0.82
5099.00,0.83
5098.00,0.83
5097.00,0.83
5096.00,0.83
5095.00,0.83
5094.00,0.83
5093.00,0.83
5092.00,0.83
5091.00,0.83
5090.00,0.83
5089.00,0.83
5088.00,0.83
5087.00,0.83
5086.00,0.83
5085.00,0.83
5084.00,0.83
5083.00,0.83
5082.00,0.83
5081.00,0.83
5080.00,0.83
5079.00,0.83
5078.00,0.83
5077.00,0.84
5076.00,0.84
5075.00,0.84
5074.00,0.84
5073.00,0.84
5072.00,0.84
5071.00,0.84
5070.00,0.84
5069.00,0.84
5068.00,0.84
5067.00,0.84
5066.00,0.84
5065.00,0.84
5064.00,0.84
5063.00,0.84
5062.00,0.84
5061.00,0.84
5060.00,0.84
5059.00,0.84
5058.00,0.84
5057.00,0.84
5056.00,0.84
5055.00,0.84
5054.00,0.84
5053.00,0.84
5052.00,0.84
5051.00,0.84
5050.00,0.84
5049.00,0.84
5048.00,0.84
5047.00,0.84
5046.00,0.85
5045.00,0.85
5044.00,0.85
5043.00,0.85
5042.00,0.85
5041.00,0.85
5040.00,0.85
5039.00,0.85
5038.00,0.85
5037.00,0.85
5036.00,0.85
5035.00,0.85
5034.00,0.85
5033.00,0.85
5032.00,0.85
5031.00,0.86
5030.00,0.86
5029.00,0.86
5028.00,0.86
5027.00,0.86
5026.00,0.86
5025.00,0.86
5024.00,0.86
5023.00,0.86
5022.00,0.86
5021.00,0.86
5020.00,0.86
5019.00,0.86
5018.00,0.87
5017.00,0.87
5016.00,0.87
5015.00,0.87
5014.00,0.87
5013.00,0.87
5012.00,0.87
5011.00,0.87
5010.00,0.87
5009.00,0.87
5008.00,0.87
5007.00,0.87
5006.00,0.87
5005.00,0.87
5004.00,0.87
5003.00,0.87
5002.00,0.87
5001.00,0.87
5000.00,0.88
4999.00,0.88
4998.00,0.88
4997.00,0.88
4996.00,0.88
4995.00,0.88
4994.00,0.88
4993.00,0.88
4992.00,0.88
4991.00,0.88
4990.00,0.88
4989.00,0.88
4988.00,0.88
4987.00,0.88
4986.00,0.88
4985.00,0.88
4984.00,0.89
4983.00,0.89
4982.00,0.89
4981.00,0.89
4980.00,0.89
4979.00,0.89
4978.00,0.89
4977.00,0.89
4976.00,0.89
4975.00,0.90
4974.00,0.90
4973.00,0.90
4972.00,0.90
4971.00,0.90
4970.00,0.90
4969.00,0.90
4968.00,0.90
4967.00,0.90
4966.00,0.90
4965.00,0.90
4964.00,0.90
4963.00,0.90
4962.00,0.90
4961.00,0.90
4960.00,0.91
4959.00,0.91
4958.00,0.91
4957.00,0.91
4956.00,0.91
4955.00,0.91
4954.00,0.91
4953.00,0.91
4952.00,0.91
4951.00,0.91
4950.00,0.91
4949.00,0.92
4948.00,0.92
4947.00,0.92
4946.00,0.92
4945.00,0.92
4944.00,0.92
4943.00,0.92
4942.00,0.92
4941.00,0.92
4940.00,0.92
4939.00,0.92
4938.00,0.92
4937.00,0.92
4936.00,0.93
4935.00,0.93
4934.00,0.93
4933.00,0.93
4932.00,0.93
4931.00,0.93
4930.00,0.93
4929.00,0.93
4928.00,0.93
4927.00,0.93
4926.00,0.93
4925.00,0.93
4924.00,0.93
4923.00,0.93
4922.00,0.93
4921.00,0.93
4920.00,0.93
4919.00,0.93
4918.00,0.93
4917.00,0.93
4916.00,0.93
4915.00,0.93
4914.00,0.94
4913.00,0.94
4912.00,0.94
4911.00,0.94
4910.00,0.94
4909.00,0.94
4908.00,0.94
4907.00,0.94
4906.00,0.94
4905.00,0.94
4904.00,0.95
4903.00,0.95
4902.00,0.95
4901.00,0.95
4900.00,0.95
4899.00,0.95
4898.00,0.95
4897.00,0.95
4896.00,0.95
4895.00,0.95
4894.00,0.95
4893.00,0.95
4892.00,0.96
4891.00,0.96
4890.00,0.96
4889.00,0.96
4888.00,0.96
4887.00,0.96
4886.00,0.96
4885.00,0.96
4884.00,0.96
4883.00,0.96
4882.00,0.96
4881.00,0.96
4880.00,0.96
4879.00,0.96
4878.00,0.97
4877.00,0.97
4876.00,0.97
4875.00,0.97
4874.00,0.97
4873.00,0.97
4872.00,0.97
4871.00,0.97
4870.00,0.97
4869.00,0.97
4868.00,0.97
4867.00,0.97
4866.00,0.97
4865.00,0.97
4864.00,0.97
4863.00,0.97
4862.00,0.97
4861.00,0.97
4860.00,0.97
4859.00,0.97
4858.00,0.97
4857.00,0.98
4856.00,0.98
4855.00,0.98
4854.00,0.98
4853.00,0.98
4852.00,0.98
4851.00,0.98
4850.00,0.98
4849.00,0.98
4848.00,0.98
4847.00,0.98
4846.00,0.98
4845.00,0.98
4844.00,0.99
4843.00,0.99
4842.00,0.99
4841.00,0.99
4840.00,0.99
4839.00,0.99
4838.00,1.00
4837.00,1.00
4836.00,1.00
4835.00,1.00
4834.00,1.00
4833.00,1.00
4832.00,1.00
4831.00,1.01
4830.00,1.01
4829.00,1.01
4828.00,1.01
4827.00,1.01
4826.00,1.01
4825.00,1.01
4824.00,1.01
4823.00,1.01
4822.00,1.01
4821.00,1.01
4820.00,1.01
4819.00,1.01
4818.00,1.02
4817.00,1.02
4816.00,1.02
4815.00,1.02
4814.00,1.02
4813.00,1.02
4812.00,1.02
4811.00,1.02
4810.00,1.02
4809.00,1.02
4808.00,1.02
4807.00,1.02
4806.00,1.02
4805.00,1.02
4804.00,1.03
4803.00,1.03
4802.00,1.03
4801.00,1.03
4800.00,1.03
4799.00,1.03
4798.00,1.03
4797.00,1.03
4796.00,1.04
4795.00,1.04
4794.00,1.04
4793.00,1.04
4792.00,1.04
4791.00,1.04
4790.00,1.04
4789.00,1.05
4788.00,1.05
4787.00,1.05
4786.00,1.05
4785.00,1.05
4784.00,1.05
4783.00,1.05
4782.00,1.05
4781.00,1.06
4780.00,1.06
4779.00,1.06
4778.00,1.06
4777.00,1.06
4776.00,1.06
4775.00,1.06
4774.00,1.06
4773.00,1.06
4772.00,1.06
4771.00,1.06
4770.00,1.06
4769.00,1.07
4768.00,1.07
4767.00,1.07
4766.00,1.07
4765.00,1.07
4764.00,1.07
4763.00,1.07
4762.00,1.07
4761.00,1.07
4760.00,1.07
4759.00,1.08
4758.00,1.08
4757.00,1.08
4756.00,1.08
4755.00,1.08
4754.00,1.08
4753.00,1.08
4752.00,1.08
4751.00,1.08
4750.00,1.08
4749.00,1.09
4748.00,1.09
4747.00,1.09
4746.00,1.09
4745.00,1.09
4744.00,1.09
4743.00,1.09
4742.00,1.09
4741.00,1.10
4740.00,1.10
4739.00,1.10
4738.00,1.10
4737.00,1.10
4736.00,1.10
4735.00,1.10
4734.00,1.11
4733.00,1.11
4732.00,1.11
4731.00,1.11
4730.00,1.11
4729.00,1.11
4728.00,1.11
4727.00,1.12
4726.00,1.12
4725.00,1.12
4724.00,1.12
4723.00,1.12
4722.00,1.12
4721.00,1.12
4720.00,1.12
4719.00,1.13
4718.00,1.13
4717.00,1.13
4716.00,1.13
4715.00,1.13
4714.00,1.13
4713.00,1.13
4712.00,1.13
4711.00,1.14
4710.00,1.14
4709.00,1.14
4708.00,1.14
4707.00,1.14
4706.00,1.14
4705.00,1.14
4704.00,1.15
4703.00,1.15
4702.00,1.15
4701.00,1.15
4700.00,1.15
4699.00,1.15
4698.00,1.15
4697.00,1.15
4696.00,1.15
4695.00,1.16
4694.00,1.16
4693.00,1.16
4692.00,1.16
4691.00,1.16
4690.00,1.16
4689.00,1.16
4688.00,1.17
4687.00,1.17
4686.00,1.17
4685.00,1.17
4684.00,1.17
4683.00,1.17
4682.00,1.17
4681.00,1.18
4680.00,1.18
4679.00,1.18
4678.00,1.18
4677.00,1.18
4676.00,1.18
4675.00,1.18
4674.00,1.18
4673.00,1.19
4672.00,1.19
4671.00,1.19
4670.00,1.19
4669.00,1.19
4668.00,1.19
4667.00,1.19
4666.00,1.19
4665.00,1.19
4664.00,1.20
4663.00,1.20
4662.00,1.20
4661.00,1.20
4660.00,1.20
4659.00,1.20
4658.00,1.20
4657.00,1.20
4656.00,1.21
4655.00,1.21
4654.00,1.21
4653.00,1.21
4652.00,1.21
4651.00,1.21
4650.00,1.21
4649.00,1.21
4648.00,1.22
4647.00,1.22
4646.00,1.22
4645.00,1.22
4644.00,1.22
4643.00,1.22
4642.00,1.22
4641.00,1.23
4640.00,1.23
4639.00,1.23
4638.00,1.23
4637.00,1.23
4636.00,1.23
4635.00,1.23
4634.00,1.24
4633.00,1.24
4632.00,1.24
4631.00,1.24
4630.00,1.24
4629.00,1.24
4628.00,1.24
4627.00,1.24
4626.00,1.24
4625.00,1.24
4624.00,1.24
4623.00,1.24
4622.00,1.24
4621.00,1.24
4620.00,1.24
4619.00,1.24
4618.00,1.24
4617.00,1.25
4616.00,1.25
4615.00,1.25
4614.00,1.25
4613.00,1.25
4612.00,1.25
4611.00,1.25
4610.00,1.25
4609.00,1.25
4608.00,1.25
4607.00,1.25
4606.00,1.25
4605.00,1.26
4604.00,1.26
4603.00,1.26
4602.00,1.26
4601.00,1.26
4600.00,1.26
4599.00,1.27
4598.00,1.27
4597.00,1.27
4596.00,1.27
4595.00,1.27
4594.00,1.27
4593.00,1.27
4592.00,1.27
4591.00,1.27
4590.00,1.27
4589.00,1.27
4588.00,1.27
4587.00,1.27
4586.00,1.27
4585.00,1.27
4584.00,1.27
4583.00,1.28
4582.00,1.28
4581.00,1.28
4580.00,1.28
4579.00,1.28
4578.00,1.28
4577.00,1.28
4576.00,1.28
4575.00,1.28
4574.00,1.28
4573.00,1.28
4572.00,1.29
4571.00,1.29
4570.00,1.29
4569.00,1.29
4568.00,1.29
4567.00,1.29
4566.00,1.29
4565.00,1.30
4564.00,1.30
4563.00,1.30
4562.00,1.30
4561.00,1.30
4560.00,1.30
4559.00,1.30
4558.00,1.30
4557.00,1.30
4556.00,1.31
4555.00,1.31
4554.00,1.31
4553.00,1.31
4552.00,1.31
4551.00,1.31
4550.00,1.31
4549.00,1.31
4548.00,1.31
4547.00,1.31
4546.00,1.31
4545.00,1.31
4544.00,1.31
4543.00,1.31
4542.00,1.32
4541.00,1.32
4540.00,1.32
4539.00,1.32
4538.00,1.32
4537.00,1.32
4536.00,1.32
4535.00,1.32
4534.00,1.32
4533.00,1.32
4532.00,1.32
4531.00,1.32
4530.00,1.32
4529.00,1.32
4528.00,1.32
4527.00,1.32
4526.00,1.32
4525.00,1.32
4524.00,1.32
4523.00,1.32
4522.00,1.32
4521.00,1.32
4520.00,1.32
4519.00,1.32
4518.00,1.32
4517.00,1.33
4516.00,1.33
4515.00,1.33
4514.00,1.33
4513.00,1.33
4512.00,1.33
4511.00,1.33
4510.00,1.33
4509.00,1.33
4508.00,1.33
4507.00,1.33
4506.00,1.33
4505.00,1.33
4504.00,1.33
4503.00,1.33
4502.00,1.33
4501.00,1.33
4500.00,1.33
4499.00,1.33
4498.00,1.33
4497.00,1.33
4496.00,1.33
4495.00,1.33
4494.00,1.33
4493.00,1.33
4492.00,1.33
4491.00,1.33
4490.00,1.33
4489.00,1.33
4488.00,1.32
4487.00,1.32
4486.00,1.32
4485.00,1.32
4484.00,1.32
4483.00,1.32
4482.00,1.32
4481.00,1.32
4480.00,1.32
4479.00,1.32
4478.00,1.32
4477.00,1.32
4476.00,1.31
4475.00,1.31
4474.00,1.31
4473.00,1.31
4472.00,1.31
4471.00,1.31
4470.00,1.30
4469.00,1.30
4468.00,1.30
4467.00,1.30
4466.00,1.29
4465.00,1.29
4464.00,1.29
4463.00,1.29
4462.00,1.28
4461.00,1.28
4460.00,1.28
4459.00,1.28
4458.00,1.27
4457.00,1.27
4456.00,1.27
4455.00,1.27
4454.00,1.26
4453.00,1.26
4452.00,1.26
4451.00,1.25
4450.00,1.25
4449.00,1.25
4448.00,1.24
4447.00,1.24
4446.00,1.24
4445.00,1.23
4444.00,1.23
4443.00,1.22
4442.00,1.22
4441.00,1.21
4440.00,1.21
4439.00,1.21
4438.00,1.20
4437.00,1.20
4436.00,1.19
4435.00,1.19
4434.00,1.19
4433.00,1.18
4432.00,1.18
4431.00,1.18
4430.00,1.17
4429.00,1.17
4428.00,1.17
4427.00,1.17
4426.00,1.16
4425.00,1.16
4424.00,1.16
4423.00,1.16
4422.00,1.16
4421.00,1.15
4420.00,1.15
4419.00,1.15
4418.00,1.15
4417.00,1.15
4416.00,1.15
4415.00,1.15
4414.00,1.15
4413.00,1.15
4412.00,1.15
4411.00,1.15
4410.00,1.15
4409.00,1.15
4408.00,1.15
4407.00,1.15
4406.00,1.15
4405.00,1.16
4404.00,1.16
4403.00,1.16
4402.00,1.16
4401.00,1.16
4400.00,1.17
4399.00,1.17
4398.00,1.17
4397.00,1.17
4396.00,1.17
4395.00,1.17
4394.00,1.18
4393.00,1.18
4392.00,1.18
4391.00,1.18
4390.00,1.18
4389.00,1.18
4388.00,1.18
4387.00,1.18
4386.00,1.18
4385.00,1.19
4384.00,1.19
4383.00,1.19
4382.00,1.19
4381.00,1.19
4380.00,1.19
4379.00,1.19
4378.00,1.19
4377.00,1.19
4376.00,1.19
4375.00,1.19
4374.00,1.19
4373.00,1.19
4372.00,1.19
4371.00,1.19
4370.00,1.19
4369.00,1.19
4368.00,1.19
4367.00,1.19
4366.00,1.19
4365.00,1.19
4364.00,1.19
4363.00,1.19
4362.00,1.19
4361.00,1.19
4360.00,1.19
4359.00,1.19
4358.00,1.19
4357.00,1.19
4356.00,1.19
4355.00,1.19
4354.00,1.19
4353.00,1.19
4352.00,1.19
4351.00,1.19
4350.00,1.19
4349.00,1.19
4348.00,1.19
4347.00,1.19
4346.00,1.19
4345.00,1.19
4344.00,1.19
4343.00,1.19
4342.00,1.19
4341.00,1.19
4340.00,1.19
4339.00,1.19
4338.00,1.19
4337.00,1.19
4336.00,1.19
4335.00,1.19
4334.00,1.19
4333.00,1.20
4332.00,1.20
4331.00,1.20
4330.00,1.20
4329.00,1.20
4328.00,1.20
4327.00,1.20
4326.00,1.21
4325.00,1.21
4324.00,1.21
4323.00,1.21
4322.00,1.21
4321.00,1.21
4320.00,1.21
4319.00,1.22
4318.00,1.22
4317.00,1.22
4316.00,1.22
4315.00,1.22
4314.00,1.22
4313.00,1.23
4312.00,1.23
4311.00,1.23
4310.00,1.23
4309.00,1.23
4308.00,1.23
4307.00,1.24
4306.00,1.24
4305.00,1.24
4304.00,1.24
4303.00,1.24
4302.00,1.25
4301.00,1.25
4300.00,1.25
4299.00,1.25
4298.00,1.26
4297.00,1.26
4296.00,1.26
4295.00,1.26
4294.00,1.26
4293.00,1.26
4292.00,1.26
4291.00,1.27
4290.00,1.27
4289.00,1.27
4288.00,1.27
4287.00,1.27
4286.00,1.26
4285.00,1.26
4284.00,1.26
4283.00,1.26
4282.00,1.26
4281.00,1.26
4280.00,1.26
4279.00,1.26
4278.00,1.26
4277.00,1.26
4276.00,1.26
4275.00,1.25
4274.00,1.25
4273.00,1.25
4272.00,1.25
4271.00,1.25
4270.00,1.25
4269.00,1.25
4268.00,1.25
4267.00,1.25
4266.00,1.25
4265.00,1.25
4264.00,1.25
4263.00,1.25
4262.00,1.25
4261.00,1.25
4260.00,1.25
4259.00,1.25
4258.00,1.25
4257.00,1.25
4256.00,1.25
4255.00,1.25
4254.00,1.25
4253.00,1.26
4252.00,1.26
4251.00,1.26
4250.00,1.26
4249.00,1.26
4248.00,1.26
4247.00,1.26
4246.00,1.26
4245.00,1.26
4244.00,1.27
4243.00,1.27
4242.00,1.27
4241.00,1.27
4240.00,1.27
4239.00,1.27
4238.00,1.27
4237.00,1.27
4236.00,1.28
4235.00,1.28
4234.00,1.28
4233.00,1.28
4232.00,1.28
4231.00,1.28
4230.00,1.28
4229.00,1.29
4228.00,1.29
4227.00,1.29
4226.00,1.29
4225.00,1.29
4224.00,1.29
4223.00,1.29
4222.00,1.29
4221.00,1.29
4220.00,1.29
4219.00,1.29
4218.00,1.29
4217.00,1.29
4216.00,1.29
4215.00,1.29
4214.00,1.29
4213.00,1.29
4212.00,1.29
4211.00,1.29
4210.00,1.29
4209.00,1.29
4208.00,1.29
4207.00,1.29
4206.00,1.29
4205.00,1.29
4204.00,1.29
4203.00,1.29
4202.00,1.29
4201.00,1.29
4200.00,1.29
4199.00,1.29
4198.00,1.29
4197.00,1.29
4196.00,1.29
4195.00,1.29
4194.00,1.30
4193.00,1.30
4192.00,1.30
4191.00,1.30
4190.00,1.30
4189.00,1.30
4188.00,1.30
4187.00,1.30
4186.00,1.30
4185.00,1.31
4184.00,1.31
4183.00,1.31
4182.00,1.31
4181.00,1.31
4180.00,1.31
4179.00,1.31
4178.00,1.31
4177.00,1.31
4176.00,1.31
4175.00,1.31
4174.00,1.31
4173.00,1.31
4172.00,1.31
4171.00,1.31
4170.00,1.31
4169.00,1.31
4168.00,1.31
4167.00,1.31
4166.00,1.31
4165.00,1.31
4164.00,1.31
4163.00,1.30
4162.00,1.30
4161.00,1.30
4160.00,1.30
4159.00,1.30
4158.00,1.30
4157.00,1.30
4156.00,1.30
4155.00,1.30
4154.00,1.31
4153.00,1.31
4152.00,1.31
4151.00,1.31
4150.00,1.31
4149.00,1.31
4148.00,1.31
4147.00,1.31
4146.00,1.31
4145.00,1.31
4144.00,1.32
4143.00,1.32
4142.00,1.32
4141.00,1.32
4140.00,1.32
4139.00,1.32
4138.00,1.32
4137.00,1.32
4136.00,1.32
4135.00,1.32
4134.00,1.32
4133.00,1.32
4132.00,1.32
4131.00,1.32
4130.00,1.32
4129.00,1.32
4128.00,1.32
4127.00,1.32
4126.00,1.32
4125.00,1.32
4124.00,1.32
4123.00,1.32
4122.00,1.32
4121.00,1.32
4120.00,1.32
4119.00,1.32
4118.00,1.32
4117.00,1.33
4116.00,1.33
4115.00,1.33
4114.00,1.33
4113.00,1.33
4112.00,1.33
4111.00,1.33
4110.00,1.33
4109.00,1.33
4108.00,1.33
4107.00,1.33
4106.00,1.34
4105.00,1.34
4104.00,1.34
4103.00,1.34
4102.00,1.34
4101.00,1.34
4100.00,1.34
4099.00,1.34
4098.00,1.34
4097.00,1.34
4096.00,1.34
4095.00,1.34
4094.00,1.34
4093.00,1.34
4092.00,1.34
4091.00,1.34
4090.00,1.34
4089.00,1.34
4088.00,1.34
4087.00,1.34
4086.00,1.34
4085.00,1.34
4084.00,1.34
4083.00,1.34
4082.00,1.34
4081.00,1.34
4080.00,1.34
4079.00,1.34
4078.00,1.34
4077.00,1.34
4076.00,1.34
4075.00,1.34
4074.00,1.33
4073.00,1.33
4072.00,1.33
4071.00,1.33
4070.00,1.33
4069.00,1.33
4068.00,1.33
4067.00,1.33
4066.00,1.34
4065.00,1.34
4064.00,1.34
4063.00,1.34
4062.00,1.34
4061.00,1.34
4060.00,1.34
4059.00,1.34
4058.00,1.34
4057.00,1.34
4056.00,1.34
4055.00,1.34
4054.00,1.34
4053.00,1.34
4052.00,1.34
4051.00,1.34
4050.00,1.34
4049.00,1.34
4048.00,1.34
4047.00,1.34
4046.00,1.34
4045.00,1.34
4044.00,1.34
4043.00,1.34
4042.00,1.35
4041.00,1.35
4040.00,1.35
4039.00,1.35
4038.00,1.35
4037.00,1.35
4036.00,1.35
4035.00,1.35
4034.00,1.36
4033.00,1.36
4032.00,1.36
4031.00,1.36
4030.00,1.36
4029.00,1.36
4028.00,1.36
4027.00,1.36
4026.00,1.36
4025.00,1.36
4024.00,1.36
4023.00,1.36
4022.00,1.36
4021.00,1.36
4020.00,1.36
4019.00,1.37
4018.00,1.37
4017.00,1.37
4016.00,1.37
4015.00,1.37
4014.00,1.37
4013.00,1.37
4012.00,1.37
4011.00,1.37
4010.00,1.37
4009.00,1.38
4008.00,1.38
4007.00,1.38
4006.00,1.38
4005.00,1.38
4004.00,1.38
4003.00,1.38
4002.00,1.38
4001.00,1.38
4000.00,1.38
