创建为新数据集,样品 030 用户 Administrator 日期 星期三, 十一月 01 2017
cm-1,%T
10000.00,1.33
9999.00,1.32
9998.00,1.32
9997.00,1.32
9996.00,1.31
9995.00,1.31
9994.00,1.31
9993.00,1.31
9992.00,1.31
9991.00,1.31
9990.00,1.31
9989.00,1.31
9988.00,1.31
9987.00,1.31
9986.00,1.31
9985.00,1.31
9984.00,1.31
9983.00,1.32
9982.00,1.32
9981.00,1.32
9980.00,1.32
9979.00,1.32
9978.00,1.32
9977.00,1.32
9976.00,1.32
9975.00,1.32
9974.00,1.32
9973.00,1.32
9972.00,1.32
9971.00,1.32
9970.00,1.32
9969.00,1.32
9968.00,1.31
9967.00,1.31
9966.00,1.31
9965.00,1.31
9964.00,1.31
9963.00,1.31
9962.00,1.31
9961.00,1.31
9960.00,1.31
9959.00,1.31
9958.00,1.31
9957.00,1.31
9956.00,1.31
9955.00,1.31
9954.00,1.31
9953.00,1.31
9952.00,1.31
9951.00,1.31
9950.00,1.31
9949.00,1.31
9948.00,1.31
9947.00,1.31
9946.00,1.31
9945.00,1.31
9944.00,1.31
9943.00,1.32
9942.00,1.32
9941.00,1.32
9940.00,1.32
9939.00,1.32
9938.00,1.32
9937.00,1.32
9936.00,1.32
9935.00,1.32
9934.00,1.32
9933.00,1.32
9932.00,1.32
9931.00,1.32
9930.00,1.32
9929.00,1.32
9928.00,1.32
9927.00,1.31
9926.00,1.31
9925.00,1.31
9924.00,1.31
9923.00,1.31
9922.00,1.31
9921.00,1.30
9920.00,1.30
9919.00,1.30
9918.00,1.30
9917.00,1.30
9916.00,1.30
9915.00,1.30
9914.00,1.30
9913.00,1.30
9912.00,1.31
9911.00,1.31
9910.00,1.31
9909.00,1.31
9908.00,1.31
9907.00,1.31
9906.00,1.32
9905.00,1.32
9904.00,1.32
9903.00,1.32
9902.00,1.32
9901.00,1.32
9900.00,1.32
9899.00,1.32
9898.00,1.32
9897.00,1.32
9896.00,1.32
9895.00,1.32
9894.00,1.31
9893.00,1.31
9892.00,1.31
9891.00,1.31
9890.00,1.31
9889.00,1.30
9888.00,1.30
9887.00,1.30
9886.00,1.30
9885.00,1.30
9884.00,1.30
9883.00,1.30
9882.00,1.30
9881.00,1.30
9880.00,1.30
9879.00,1.30
9878.00,1.30
9877.00,1.30
9876.00,1.30
9875.00,1.30
9874.00,1.30
9873.00,1.31
9872.00,1.31
9871.00,1.31
9870.00,1.31
9869.00,1.31
9868.00,1.31
9867.00,1.31
9866.00,1.31
9865.00,1.31
9864.00,1.31
9863.00,1.31
9862.00,1.31
9861.00,1.31
9860.00,1.30
9859.00,1.30
9858.00,1.30
9857.00,1.30
9856.00,1.30
9855.00,1.29
9854.00,1.29
9853.00,1.29
9852.00,1.29
9851.00,1.29
9850.00,1.29
9849.00,1.29
9848.00,1.29
9847.00,1.29
9846.00,1.29
9845.00,1.29
9844.00,1.29
9843.00,1.29
9842.00,1.29
9841.00,1.30
9840.00,1.30
9839.00,1.30
9838.00,1.30
9837.00,1.30
9836.00,1.30
9835.00,1.30
9834.00,1.30
9833.00,1.30
9832.00,1.30
9831.00,1.30
9830.00,1.30
9829.00,1.30
9828.00,1.30
9827.00,1.30
9826.00,1.31
9825.00,1.31
9824.00,1.31
9823.00,1.31
9822.00,1.31
9821.00,1.31
9820.00,1.31
9819.00,1.31
9818.00,1.32
9817.00,1.32
9816.00,1.32
9815.00,1.32
9814.00,1.32
9813.00,1.32
9812.00,1.32
9811.00,1.32
9810.00,1.32
9809.00,1.32
9808.00,1.32
9807.00,1.32
9806.00,1.32
9805.00,1.32
9804.00,1.32
9803.00,1.31
9802.00,1.31
9801.00,1.31
9800.00,1.31
9799.00,1.30
9798.00,1.30
9797.00,1.30
9796.00,1.29
9795.00,1.29
9794.00,1.29
9793.00,1.28
9792.00,1.28
9791.00,1.28
9790.00,1.28
9789.00,1.27
9788.00,1.27
9787.00,1.27
9786.00,1.27
9785.00,1.27
9784.00,1.27
9783.00,1.28
9782.00,1.28
9781.00,1.28
9780.00,1.28
9779.00,1.28
9778.00,1.29
9777.00,1.29
9776.00,1.29
9775.00,1.29
9774.00,1.30
9773.00,1.30
9772.00,1.30
9771.00,1.30
9770.00,1.31
9769.00,1.31
9768.00,1.31
9767.00,1.31
9766.00,1.31
9765.00,1.31
9764.00,1.31
9763.00,1.31
9762.00,1.31
9761.00,1.31
9760.00,1.31
9759.00,1.31
9758.00,1.31
9757.00,1.31
9756.00,1.31
9755.00,1.30
9754.00,1.30
9753.00,1.30
9752.00,1.30
9751.00,1.30
9750.00,1.30
9749.00,1.30
9748.00,1.30
9747.00,1.30
9746.00,1.30
9745.00,1.30
9744.00,1.30
9743.00,1.31
9742.00,1.31
9741.00,1.31
9740.00,1.31
9739.00,1.31
9738.00,1.31
9737.00,1.31
9736.00,1.31
9735.00,1.31
9734.00,1.31
9733.00,1.31
9732.00,1.31
9731.00,1.31
9730.00,1.31
9729.00,1.30
9728.00,1.30
9727.00,1.30
9726.00,1.30
9725.00,1.30
9724.00,1.30
9723.00,1.29
9722.00,1.29
9721.00,1.29
9720.00,1.29
9719.00,1.29
9718.00,1.29
9717.00,1.29
9716.00,1.29
9715.00,1.29
9714.00,1.29
9713.00,1.29
9712.00,1.29
9711.00,1.29
9710.00,1.29
9709.00,1.29
9708.00,1.29
9707.00,1.29
9706.00,1.29
9705.00,1.29
9704.00,1.29
9703.00,1.29
9702.00,1.29
9701.00,1.30
9700.00,1.30
9699.00,1.30
9698.00,1.30
9697.00,1.30
9696.00,1.30
9695.00,1.30
9694.00,1.30
9693.00,1.30
9692.00,1.30
9691.00,1.30
9690.00,1.31
9689.00,1.31
9688.00,1.31
9687.00,1.31
9686.00,1.31
9685.00,1.31
9684.00,1.31
9683.00,1.30
9682.00,1.30
9681.00,1.30
9680.00,1.30
9679.00,1.30
9678.00,1.30
9677.00,1.30
9676.00,1.30
9675.00,1.30
9674.00,1.30
9673.00,1.30
9672.00,1.30
9671.00,1.30
9670.00,1.30
9669.00,1.30
9668.00,1.30
9667.00,1.30
9666.00,1.30
9665.00,1.30
9664.00,1.30
9663.00,1.31
9662.00,1.31
9661.00,1.31
9660.00,1.31
9659.00,1.31
9658.00,1.31
9657.00,1.31
9656.00,1.31
9655.00,1.31
9654.00,1.31
9653.00,1.31
9652.00,1.31
9651.00,1.31
9650.00,1.31
9649.00,1.31
9648.00,1.31
9647.00,1.31
9646.00,1.32
9645.00,1.32
9644.00,1.32
9643.00,1.32
9642.00,1.32
9641.00,1.32
9640.00,1.32
9639.00,1.32
9638.00,1.32
9637.00,1.32
9636.00,1.32
9635.00,1.32
9634.00,1.32
9633.00,1.32
9632.00,1.32
9631.00,1.31
9630.00,1.31
9629.00,1.31
9628.00,1.31
9627.00,1.31
9626.00,1.31
9625.00,1.31
9624.00,1.31
9623.00,1.31
9622.00,1.31
9621.00,1.31
9620.00,1.31
9619.00,1.31
9618.00,1.31
9617.00,1.31
9616.00,1.30
9615.00,1.30
9614.00,1.30
9613.00,1.30
9612.00,1.30
9611.00,1.30
9610.00,1.29
9609.00,1.29
9608.00,1.29
9607.00,1.29
9606.00,1.29
9605.00,1.29
9604.00,1.28
9603.00,1.28
9602.00,1.28
9601.00,1.28
9600.00,1.28
9599.00,1.28
9598.00,1.28
9597.00,1.28
9596.00,1.28
9595.00,1.28
9594.00,1.28
9593.00,1.28
9592.00,1.28
9591.00,1.29
9590.00,1.29
9589.00,1.29
9588.00,1.29
9587.00,1.29
9586.00,1.29
9585.00,1.29
9584.00,1.30
9583.00,1.30
9582.00,1.30
9581.00,1.30
9580.00,1.30
9579.00,1.30
9578.00,1.30
9577.00,1.30
9576.00,1.30
9575.00,1.30
9574.00,1.30
9573.00,1.30
9572.00,1.30
9571.00,1.30
9570.00,1.30
9569.00,1.30
9568.00,1.30
9567.00,1.30
9566.00,1.30
9565.00,1.30
9564.00,1.30
9563.00,1.30
9562.00,1.30
9561.00,1.30
9560.00,1.30
9559.00,1.30
9558.00,1.30
9557.00,1.30
9556.00,1.29
9555.00,1.29
9554.00,1.29
9553.00,1.29
9552.00,1.29
9551.00,1.29
9550.00,1.29
9549.00,1.29
9548.00,1.29
9547.00,1.29
9546.00,1.29
9545.00,1.28
9544.00,1.28
9543.00,1.28
9542.00,1.28
9541.00,1.28
9540.00,1.28
9539.00,1.28
9538.00,1.28
9537.00,1.28
9536.00,1.28
9535.00,1.28
9534.00,1.28
9533.00,1.28
9532.00,1.28
9531.00,1.28
9530.00,1.28
9529.00,1.28
9528.00,1.28
9527.00,1.28
9526.00,1.29
9525.00,1.29
9524.00,1.29
9523.00,1.29
9522.00,1.29
9521.00,1.29
9520.00,1.29
9519.00,1.29
9518.00,1.29
9517.00,1.30
9516.00,1.30
9515.00,1.30
9514.00,1.30
9513.00,1.31
9512.00,1.31
9511.00,1.31
9510.00,1.31
9509.00,1.32
9508.00,1.32
9507.00,1.32
9506.00,1.32
9505.00,1.32
9504.00,1.32
9503.00,1.32
9502.00,1.32
9501.00,1.32
9500.00,1.32
9499.00,1.32
9498.00,1.32
9497.00,1.32
9496.00,1.32
9495.00,1.31
9494.00,1.31
9493.00,1.31
9492.00,1.31
9491.00,1.31
9490.00,1.31
9489.00,1.30
9488.00,1.30
9487.00,1.30
9486.00,1.30
9485.00,1.30
9484.00,1.30
9483.00,1.29
9482.00,1.29
9481.00,1.29
9480.00,1.29
9479.00,1.29
9478.00,1.29
9477.00,1.29
9476.00,1.29
9475.00,1.29
9474.00,1.29
9473.00,1.29
9472.00,1.29
9471.00,1.29
9470.00,1.29
9469.00,1.29
9468.00,1.29
9467.00,1.29
9466.00,1.29
9465.00,1.29
9464.00,1.29
9463.00,1.30
9462.00,1.30
9461.00,1.30
9460.00,1.30
9459.00,1.30
9458.00,1.30
9457.00,1.30
9456.00,1.30
9455.00,1.31
9454.00,1.31
9453.00,1.31
9452.00,1.31
9451.00,1.31
9450.00,1.31
9449.00,1.31
9448.00,1.31
9447.00,1.32
9446.00,1.32
9445.00,1.32
9444.00,1.32
9443.00,1.32
9442.00,1.31
9441.00,1.31
9440.00,1.31
9439.00,1.31
9438.00,1.31
9437.00,1.31
9436.00,1.30
9435.00,1.30
9434.00,1.30
9433.00,1.30
9432.00,1.29
9431.00,1.29
9430.00,1.29
9429.00,1.29
9428.00,1.29
9427.00,1.29
9426.00,1.28
9425.00,1.28
9424.00,1.28
9423.00,1.28
9422.00,1.28
9421.00,1.28
9420.00,1.28
9419.00,1.29
9418.00,1.29
9417.00,1.29
9416.00,1.29
9415.00,1.29
9414.00,1.29
9413.00,1.29
9412.00,1.30
9411.00,1.30
9410.00,1.30
9409.00,1.30
9408.00,1.30
9407.00,1.30
9406.00,1.30
9405.00,1.31
9404.00,1.31
9403.00,1.31
9402.00,1.31
9401.00,1.31
9400.00,1.31
9399.00,1.31
9398.00,1.31
9397.00,1.31
9396.00,1.31
9395.00,1.31
9394.00,1.31
9393.00,1.31
9392.00,1.31
9391.00,1.31
9390.00,1.31
9389.00,1.31
9388.00,1.31
9387.00,1.31
9386.00,1.31
9385.00,1.31
9384.00,1.31
9383.00,1.31
9382.00,1.31
9381.00,1.31
9380.00,1.30
9379.00,1.30
9378.00,1.30
9377.00,1.30
9376.00,1.30
9375.00,1.30
9374.00,1.30
9373.00,1.30
9372.00,1.30
9371.00,1.30
9370.00,1.30
9369.00,1.30
9368.00,1.30
9367.00,1.30
9366.00,1.30
9365.00,1.30
9364.00,1.30
9363.00,1.30
9362.00,1.30
9361.00,1.30
9360.00,1.30
9359.00,1.30
9358.00,1.30
9357.00,1.30
9356.00,1.30
9355.00,1.30
9354.00,1.30
9353.00,1.30
9352.00,1.30
9351.00,1.29
9350.00,1.29
9349.00,1.29
9348.00,1.29
9347.00,1.29
9346.00,1.29
9345.00,1.28
9344.00,1.28
9343.00,1.28
9342.00,1.28
9341.00,1.28
9340.00,1.28
9339.00,1.28
9338.00,1.29
9337.00,1.29
9336.00,1.29
9335.00,1.29
9334.00,1.29
9333.00,1.30
9332.00,1.30
9331.00,1.30
9330.00,1.31
9329.00,1.31
9328.00,1.31
9327.00,1.31
9326.00,1.32
9325.00,1.32
9324.00,1.32
9323.00,1.32
9322.00,1.32
9321.00,1.32
9320.00,1.32
9319.00,1.32
9318.00,1.32
9317.00,1.32
9316.00,1.32
9315.00,1.32
9314.00,1.32
9313.00,1.32
9312.00,1.32
9311.00,1.32
9310.00,1.32
9309.00,1.31
9308.00,1.31
9307.00,1.31
9306.00,1.31
9305.00,1.31
9304.00,1.31
9303.00,1.31
9302.00,1.31
9301.00,1.31
9300.00,1.32
9299.00,1.32
9298.00,1.32
9297.00,1.32
9296.00,1.32
9295.00,1.32
9294.00,1.32
9293.00,1.32
9292.00,1.32
9291.00,1.32
9290.00,1.32
9289.00,1.32
9288.00,1.32
9287.00,1.32
9286.00,1.32
9285.00,1.32
9284.00,1.32
9283.00,1.32
9282.00,1.32
9281.00,1.32
9280.00,1.32
9279.00,1.32
9278.00,1.31
9277.00,1.31
9276.00,1.31
9275.00,1.31
9274.00,1.31
9273.00,1.31
9272.00,1.31
9271.00,1.31
9270.00,1.31
9269.00,1.31
9268.00,1.31
9267.00,1.31
9266.00,1.30
9265.00,1.30
9264.00,1.30
9263.00,1.30
9262.00,1.30
9261.00,1.30
9260.00,1.30
9259.00,1.30
9258.00,1.30
9257.00,1.31
9256.00,1.31
9255.00,1.31
9254.00,1.31
9253.00,1.31
9252.00,1.31
9251.00,1.31
9250.00,1.31
9249.00,1.31
9248.00,1.31
9247.00,1.31
9246.00,1.31
9245.00,1.30
9244.00,1.30
9243.00,1.30
9242.00,1.30
9241.00,1.30
9240.00,1.30
9239.00,1.30
9238.00,1.30
9237.00,1.29
9236.00,1.29
9235.00,1.29
9234.00,1.29
9233.00,1.29
9232.00,1.29
9231.00,1.29
9230.00,1.29
9229.00,1.29
9228.00,1.29
9227.00,1.29
9226.00,1.29
9225.00,1.29
9224.00,1.29
9223.00,1.29
9222.00,1.29
9221.00,1.29
9220.00,1.29
9219.00,1.29
9218.00,1.29
9217.00,1.29
9216.00,1.29
9215.00,1.29
9214.00,1.29
9213.00,1.29
9212.00,1.29
9211.00,1.29
9210.00,1.29
9209.00,1.30
9208.00,1.30
9207.00,1.30
9206.00,1.30
9205.00,1.30
9204.00,1.30
9203.00,1.30
9202.00,1.30
9201.00,1.30
9200.00,1.30
9199.00,1.30
9198.00,1.30
9197.00,1.30
9196.00,1.30
9195.00,1.30
9194.00,1.30
9193.00,1.30
9192.00,1.30
9191.00,1.30
9190.00,1.30
9189.00,1.30
9188.00,1.30
9187.00,1.30
9186.00,1.30
9185.00,1.30
9184.00,1.30
9183.00,1.30
9182.00,1.30
9181.00,1.31
9180.00,1.31
9179.00,1.31
9178.00,1.31
9177.00,1.31
9176.00,1.31
9175.00,1.31
9174.00,1.31
9173.00,1.31
9172.00,1.31
9171.00,1.31
9170.00,1.31
9169.00,1.31
9168.00,1.31
9167.00,1.31
9166.00,1.31
9165.00,1.31
9164.00,1.31
9163.00,1.31
9162.00,1.31
9161.00,1.31
9160.00,1.31
9159.00,1.31
9158.00,1.31
9157.00,1.31
9156.00,1.31
9155.00,1.31
9154.00,1.31
9153.00,1.31
9152.00,1.31
9151.00,1.31
9150.00,1.31
9149.00,1.31
9148.00,1.31
9147.00,1.31
9146.00,1.31
9145.00,1.31
9144.00,1.31
9143.00,1.31
9142.00,1.31
9141.00,1.31
9140.00,1.31
9139.00,1.31
9138.00,1.32
9137.00,1.32
9136.00,1.32
9135.00,1.32
9134.00,1.32
9133.00,1.32
9132.00,1.32
9131.00,1.32
9130.00,1.32
9129.00,1.32
9128.00,1.32
9127.00,1.32
9126.00,1.32
9125.00,1.32
9124.00,1.32
9123.00,1.32
9122.00,1.32
9121.00,1.32
9120.00,1.32
9119.00,1.32
9118.00,1.32
9117.00,1.32
9116.00,1.32
9115.00,1.32
9114.00,1.32
9113.00,1.32
9112.00,1.32
9111.00,1.32
9110.00,1.32
9109.00,1.32
9108.00,1.32
9107.00,1.32
9106.00,1.32
9105.00,1.32
9104.00,1.32
9103.00,1.32
9102.00,1.32
9101.00,1.32
9100.00,1.32
9099.00,1.32
9098.00,1.32
9097.00,1.32
9096.00,1.32
9095.00,1.32
9094.00,1.32
9093.00,1.32
9092.00,1.32
9091.00,1.32
9090.00,1.32
9089.00,1.32
9088.00,1.31
9087.00,1.31
9086.00,1.31
9085.00,1.31
9084.00,1.31
9083.00,1.31
9082.00,1.30
9081.00,1.30
9080.00,1.30
9079.00,1.30
9078.00,1.30
9077.00,1.30
9076.00,1.30
9075.00,1.30
9074.00,1.29
9073.00,1.29
9072.00,1.29
9071.00,1.29
9070.00,1.30
9069.00,1.30
9068.00,1.30
9067.00,1.30
9066.00,1.30
9065.00,1.30
9064.00,1.30
9063.00,1.30
9062.00,1.30
9061.00,1.31
9060.00,1.31
9059.00,1.31
9058.00,1.31
9057.00,1.31
9056.00,1.31
9055.00,1.31
9054.00,1.31
9053.00,1.31
9052.00,1.31
9051.00,1.31
9050.00,1.31
9049.00,1.31
9048.00,1.31
9047.00,1.31
9046.00,1.31
9045.00,1.31
9044.00,1.31
9043.00,1.31
9042.00,1.31
9041.00,1.31
9040.00,1.31
9039.00,1.31
9038.00,1.31
9037.00,1.31
9036.00,1.31
9035.00,1.31
9034.00,1.31
9033.00,1.31
9032.00,1.31
9031.00,1.31
9030.00,1.31
9029.00,1.31
9028.00,1.31
9027.00,1.31
9026.00,1.31
9025.00,1.31
9024.00,1.31
9023.00,1.31
9022.00,1.30
9021.00,1.30
9020.00,1.30
9019.00,1.30
9018.00,1.30
9017.00,1.30
9016.00,1.30
9015.00,1.30
9014.00,1.30
9013.00,1.30
9012.00,1.30
9011.00,1.30
9010.00,1.30
9009.00,1.30
9008.00,1.30
9007.00,1.31
9006.00,1.31
9005.00,1.31
9004.00,1.31
9003.00,1.31
9002.00,1.31
9001.00,1.31
9000.00,1.31
8999.00,1.31
8998.00,1.31
8997.00,1.31
8996.00,1.31
8995.00,1.31
8994.00,1.31
8993.00,1.31
8992.00,1.31
8991.00,1.31
8990.00,1.31
8989.00,1.31
8988.00,1.31
8987.00,1.30
8986.00,1.30
8985.00,1.30
8984.00,1.30
8983.00,1.30
8982.00,1.30
8981.00,1.30
8980.00,1.30
8979.00,1.31
8978.00,1.31
8977.00,1.31
8976.00,1.31
8975.00,1.31
8974.00,1.31
8973.00,1.31
8972.00,1.31
8971.00,1.31
8970.00,1.31
8969.00,1.31
8968.00,1.31
8967.00,1.31
8966.00,1.31
8965.00,1.31
8964.00,1.31
8963.00,1.31
8962.00,1.31
8961.00,1.31
8960.00,1.31
8959.00,1.31
8958.00,1.31
8957.00,1.30
8956.00,1.30
8955.00,1.30
8954.00,1.30
8953.00,1.30
8952.00,1.30
8951.00,1.30
8950.00,1.30
8949.00,1.30
8948.00,1.30
8947.00,1.30
8946.00,1.30
8945.00,1.31
8944.00,1.31
8943.00,1.31
8942.00,1.31
8941.00,1.31
8940.00,1.31
8939.00,1.31
8938.00,1.31
8937.00,1.31
8936.00,1.31
8935.00,1.31
8934.00,1.31
8933.00,1.31
8932.00,1.31
8931.00,1.31
8930.00,1.31
8929.00,1.31
8928.00,1.31
8927.00,1.31
8926.00,1.31
8925.00,1.31
8924.00,1.31
8923.00,1.31
8922.00,1.31
8921.00,1.31
8920.00,1.31
8919.00,1.31
8918.00,1.31
8917.00,1.31
8916.00,1.31
8915.00,1.31
8914.00,1.31
8913.00,1.31
8912.00,1.31
8911.00,1.31
8910.00,1.31
8909.00,1.31
8908.00,1.31
8907.00,1.31
8906.00,1.31
8905.00,1.31
8904.00,1.31
8903.00,1.31
8902.00,1.31
8901.00,1.31
8900.00,1.31
8899.00,1.31
8898.00,1.31
8897.00,1.31
8896.00,1.31
8895.00,1.31
8894.00,1.31
8893.00,1.31
8892.00,1.31
8891.00,1.31
8890.00,1.31
8889.00,1.31
8888.00,1.31
8887.00,1.31
8886.00,1.32
8885.00,1.32
8884.00,1.32
8883.00,1.32
8882.00,1.32
8881.00,1.32
8880.00,1.32
8879.00,1.32
8878.00,1.32
8877.00,1.32
8876.00,1.32
8875.00,1.31
8874.00,1.31
8873.00,1.31
8872.00,1.31
8871.00,1.31
8870.00,1.31
8869.00,1.31
8868.00,1.31
8867.00,1.31
8866.00,1.31
8865.00,1.31
8864.00,1.31
8863.00,1.31
8862.00,1.31
8861.00,1.31
8860.00,1.31
8859.00,1.31
8858.00,1.31
8857.00,1.31
8856.00,1.31
8855.00,1.31
8854.00,1.31
8853.00,1.31
8852.00,1.31
8851.00,1.31
8850.00,1.31
8849.00,1.31
8848.00,1.31
8847.00,1.31
8846.00,1.30
8845.00,1.30
8844.00,1.30
8843.00,1.30
8842.00,1.30
8841.00,1.30
8840.00,1.30
8839.00,1.30
8838.00,1.30
8837.00,1.30
8836.00,1.30
8835.00,1.30
8834.00,1.30
8833.00,1.30
8832.00,1.30
8831.00,1.30
8830.00,1.30
8829.00,1.30
8828.00,1.29
8827.00,1.29
8826.00,1.29
8825.00,1.29
8824.00,1.29
8823.00,1.29
8822.00,1.29
8821.00,1.29
8820.00,1.30
8819.00,1.30
8818.00,1.30
8817.00,1.30
8816.00,1.30
8815.00,1.30
8814.00,1.30
8813.00,1.30
8812.00,1.30
8811.00,1.30
8810.00,1.30
8809.00,1.29
8808.00,1.29
8807.00,1.29
8806.00,1.29
8805.00,1.29
8804.00,1.29
8803.00,1.29
8802.00,1.29
8801.00,1.29
8800.00,1.29
8799.00,1.29
8798.00,1.29
8797.00,1.29
8796.00,1.29
8795.00,1.29
8794.00,1.29
8793.00,1.30
8792.00,1.30
8791.00,1.30
8790.00,1.30
8789.00,1.30
8788.00,1.30
8787.00,1.30
8786.00,1.30
8785.00,1.30
8784.00,1.30
8783.00,1.30
8782.00,1.30
8781.00,1.30
8780.00,1.30
8779.00,1.30
8778.00,1.29
8777.00,1.29
8776.00,1.29
8775.00,1.29
8774.00,1.29
8773.00,1.29
8772.00,1.29
8771.00,1.29
8770.00,1.29
8769.00,1.29
8768.00,1.28
8767.00,1.28
8766.00,1.28
8765.00,1.28
8764.00,1.28
8763.00,1.28
8762.00,1.28
8761.00,1.28
8760.00,1.28
8759.00,1.28
8758.00,1.27
8757.00,1.27
8756.00,1.27
8755.00,1.27
8754.00,1.27
8753.00,1.27
8752.00,1.27
8751.00,1.27
8750.00,1.27
8749.00,1.27
8748.00,1.27
8747.00,1.27
8746.00,1.27
8745.00,1.27
8744.00,1.27
8743.00,1.28
8742.00,1.28
8741.00,1.28
8740.00,1.28
8739.00,1.28
8738.00,1.28
8737.00,1.28
8736.00,1.28
8735.00,1.28
8734.00,1.28
8733.00,1.27
8732.00,1.27
8731.00,1.27
8730.00,1.27
8729.00,1.27
8728.00,1.27
8727.00,1.27
8726.00,1.27
8725.00,1.27
8724.00,1.27
8723.00,1.27
8722.00,1.27
8721.00,1.27
8720.00,1.27
8719.00,1.27
8718.00,1.27
8717.00,1.27
8716.00,1.27
8715.00,1.27
8714.00,1.27
8713.00,1.27
8712.00,1.27
8711.00,1.27
8710.00,1.27
8709.00,1.27
8708.00,1.27
8707.00,1.26
8706.00,1.26
8705.00,1.26
8704.00,1.26
8703.00,1.26
8702.00,1.26
8701.00,1.26
8700.00,1.26
8699.00,1.26
8698.00,1.26
8697.00,1.26
8696.00,1.26
8695.00,1.26
8694.00,1.26
8693.00,1.26
8692.00,1.26
8691.00,1.26
8690.00,1.26
8689.00,1.26
8688.00,1.26
8687.00,1.26
8686.00,1.26
8685.00,1.26
8684.00,1.26
8683.00,1.26
8682.00,1.26
8681.00,1.26
8680.00,1.26
8679.00,1.26
8678.00,1.26
8677.00,1.26
8676.00,1.26
8675.00,1.26
8674.00,1.26
8673.00,1.25
8672.00,1.25
8671.00,1.25
8670.00,1.25
8669.00,1.25
8668.00,1.25
8667.00,1.25
8666.00,1.25
8665.00,1.25
8664.00,1.25
8663.00,1.25
8662.00,1.25
8661.00,1.25
8660.00,1.25
8659.00,1.25
8658.00,1.24
8657.00,1.24
8656.00,1.24
8655.00,1.25
8654.00,1.25
8653.00,1.25
8652.00,1.25
8651.00,1.25
8650.00,1.25
8649.00,1.25
8648.00,1.25
8647.00,1.25
8646.00,1.25
8645.00,1.25
8644.00,1.25
8643.00,1.25
8642.00,1.25
8641.00,1.25
8640.00,1.26
8639.00,1.26
8638.00,1.26
8637.00,1.26
8636.00,1.26
8635.00,1.26
8634.00,1.26
8633.00,1.26
8632.00,1.26
8631.00,1.26
8630.00,1.26
8629.00,1.26
8628.00,1.26
8627.00,1.26
8626.00,1.26
8625.00,1.26
8624.00,1.26
8623.00,1.25
8622.00,1.25
8621.00,1.25
8620.00,1.25
8619.00,1.25
8618.00,1.25
8617.00,1.25
8616.00,1.25
8615.00,1.25
8614.00,1.25
8613.00,1.25
8612.00,1.25
8611.00,1.25
8610.00,1.25
8609.00,1.25
8608.00,1.25
8607.00,1.25
8606.00,1.25
8605.00,1.24
8604.00,1.24
8603.00,1.24
8602.00,1.24
8601.00,1.24
8600.00,1.24
8599.00,1.24
8598.00,1.24
8597.00,1.24
8596.00,1.24
8595.00,1.24
8594.00,1.24
8593.00,1.24
8592.00,1.24
8591.00,1.24
8590.00,1.24
8589.00,1.23
8588.00,1.23
8587.00,1.23
8586.00,1.23
8585.00,1.23
8584.00,1.23
8583.00,1.23
8582.00,1.23
8581.00,1.23
8580.00,1.23
8579.00,1.23
8578.00,1.23
8577.00,1.23
8576.00,1.23
8575.00,1.23
8574.00,1.23
8573.00,1.23
8572.00,1.23
8571.00,1.23
8570.00,1.23
8569.00,1.23
8568.00,1.23
8567.00,1.23
8566.00,1.23
8565.00,1.23
8564.00,1.23
8563.00,1.22
8562.00,1.22
8561.00,1.22
8560.00,1.22
8559.00,1.22
8558.00,1.22
8557.00,1.22
8556.00,1.22
8555.00,1.22
8554.00,1.22
8553.00,1.22
8552.00,1.22
8551.00,1.22
8550.00,1.22
8549.00,1.22
8548.00,1.22
8547.00,1.22
8546.00,1.22
8545.00,1.22
8544.00,1.23
8543.00,1.23
8542.00,1.23
8541.00,1.23
8540.00,1.23
8539.00,1.23
8538.00,1.23
8537.00,1.23
8536.00,1.23
8535.00,1.22
8534.00,1.22
8533.00,1.22
8532.00,1.22
8531.00,1.22
8530.00,1.22
8529.00,1.22
8528.00,1.21
8527.00,1.21
8526.00,1.21
8525.00,1.21
8524.00,1.21
8523.00,1.21
8522.00,1.21
8521.00,1.21
8520.00,1.21
8519.00,1.21
8518.00,1.21
8517.00,1.21
8516.00,1.21
8515.00,1.21
8514.00,1.21
8513.00,1.21
8512.00,1.21
8511.00,1.21
8510.00,1.21
8509.00,1.21
8508.00,1.21
8507.00,1.21
8506.00,1.21
8505.00,1.21
8504.00,1.21
8503.00,1.21
8502.00,1.21
8501.00,1.21
8500.00,1.21
8499.00,1.21
8498.00,1.21
8497.00,1.21
8496.00,1.21
8495.00,1.21
8494.00,1.21
8493.00,1.21
8492.00,1.21
8491.00,1.21
8490.00,1.21
8489.00,1.20
8488.00,1.20
8487.00,1.20
8486.00,1.20
8485.00,1.20
8484.00,1.20
8483.00,1.19
8482.00,1.19
8481.00,1.19
8480.00,1.19
8479.00,1.19
8478.00,1.19
8477.00,1.18
8476.00,1.18
8475.00,1.18
8474.00,1.18
8473.00,1.18
8472.00,1.18
8471.00,1.17
8470.00,1.17
8469.00,1.17
8468.00,1.17
8467.00,1.17
8466.00,1.17
8465.00,1.17
8464.00,1.16
8463.00,1.16
8462.00,1.16
8461.00,1.16
8460.00,1.16
8459.00,1.16
8458.00,1.16
8457.00,1.16
8456.00,1.16
8455.00,1.16
8454.00,1.16
8453.00,1.16
8452.00,1.16
8451.00,1.16
8450.00,1.16
8449.00,1.16
8448.00,1.16
8447.00,1.16
8446.00,1.16
8445.00,1.16
8444.00,1.16
8443.00,1.16
8442.00,1.16
8441.00,1.16
8440.00,1.16
8439.00,1.16
8438.00,1.16
8437.00,1.16
8436.00,1.16
8435.00,1.16
8434.00,1.16
8433.00,1.16
8432.00,1.16
8431.00,1.16
8430.00,1.16
8429.00,1.16
8428.00,1.16
8427.00,1.16
8426.00,1.17
8425.00,1.17
8424.00,1.17
8423.00,1.17
8422.00,1.17
8421.00,1.17
8420.00,1.17
8419.00,1.17
8418.00,1.17
8417.00,1.17
8416.00,1.17
8415.00,1.17
8414.00,1.17
8413.00,1.17
8412.00,1.17
8411.00,1.17
8410.00,1.17
8409.00,1.17
8408.00,1.17
8407.00,1.18
8406.00,1.18
8405.00,1.18
8404.00,1.18
8403.00,1.18
8402.00,1.18
8401.00,1.19
8400.00,1.19
8399.00,1.19
8398.00,1.19
8397.00,1.19
8396.00,1.19
8395.00,1.19
8394.00,1.19
8393.00,1.19
8392.00,1.19
8391.00,1.19
8390.00,1.19
8389.00,1.19
8388.00,1.19
8387.00,1.19
8386.00,1.19
8385.00,1.19
8384.00,1.19
8383.00,1.19
8382.00,1.19
8381.00,1.19
8380.00,1.19
8379.00,1.19
8378.00,1.19
8377.00,1.19
8376.00,1.19
8375.00,1.20
8374.00,1.20
8373.00,1.20
8372.00,1.20
8371.00,1.20
8370.00,1.20
8369.00,1.20
8368.00,1.20
8367.00,1.20
8366.00,1.20
8365.00,1.20
8364.00,1.20
8363.00,1.20
8362.00,1.21
8361.00,1.21
8360.00,1.21
8359.00,1.21
8358.00,1.21
8357.00,1.21
8356.00,1.21
8355.00,1.21
8354.00,1.21
8353.00,1.21
8352.00,1.21
8351.00,1.21
8350.00,1.20
8349.00,1.20
8348.00,1.20
8347.00,1.20
8346.00,1.20
8345.00,1.20
8344.00,1.20
8343.00,1.20
8342.00,1.20
8341.00,1.20
8340.00,1.20
8339.00,1.20
8338.00,1.20
8337.00,1.20
8336.00,1.20
8335.00,1.20
8334.00,1.20
8333.00,1.20
8332.00,1.20
8331.00,1.20
8330.00,1.20
8329.00,1.20
8328.00,1.20
8327.00,1.20
8326.00,1.20
8325.00,1.21
8324.00,1.21
8323.00,1.21
8322.00,1.21
8321.00,1.21
8320.00,1.21
8319.00,1.21
8318.00,1.21
8317.00,1.22
8316.00,1.22
8315.00,1.22
8314.00,1.22
8313.00,1.22
8312.00,1.22
8311.00,1.22
8310.00,1.22
8309.00,1.22
8308.00,1.22
8307.00,1.22
8306.00,1.22
8305.00,1.22
8304.00,1.22
8303.00,1.22
8302.00,1.22
8301.00,1.21
8300.00,1.21
8299.00,1.21
8298.00,1.21
8297.00,1.21
8296.00,1.21
8295.00,1.21
8294.00,1.21
8293.00,1.21
8292.00,1.21
8291.00,1.21
8290.00,1.21
8289.00,1.21
8288.00,1.20
8287.00,1.20
8286.00,1.20
8285.00,1.20
8284.00,1.20
8283.00,1.20
8282.00,1.20
8281.00,1.20
8280.00,1.20
8279.00,1.20
8278.00,1.20
8277.00,1.20
8276.00,1.20
8275.00,1.20
8274.00,1.21
8273.00,1.21
8272.00,1.21
8271.00,1.21
8270.00,1.21
8269.00,1.21
8268.00,1.21
8267.00,1.21
8266.00,1.21
8265.00,1.21
8264.00,1.22
8263.00,1.22
8262.00,1.22
8261.00,1.22
8260.00,1.22
8259.00,1.22
8258.00,1.22
8257.00,1.22
8256.00,1.22
8255.00,1.22
8254.00,1.22
8253.00,1.22
8252.00,1.22
8251.00,1.22
8250.00,1.22
8249.00,1.22
8248.00,1.22
8247.00,1.22
8246.00,1.22
8245.00,1.23
8244.00,1.23
8243.00,1.23
8242.00,1.23
8241.00,1.23
8240.00,1.23
8239.00,1.23
8238.00,1.23
8237.00,1.23
8236.00,1.23
8235.00,1.23
8234.00,1.23
8233.00,1.23
8232.00,1.24
8231.00,1.24
8230.00,1.24
8229.00,1.24
8228.00,1.24
8227.00,1.24
8226.00,1.24
8225.00,1.24
8224.00,1.24
8223.00,1.24
8222.00,1.24
8221.00,1.24
8220.00,1.24
8219.00,1.24
8218.00,1.24
8217.00,1.23
8216.00,1.23
8215.00,1.23
8214.00,1.23
8213.00,1.23
8212.00,1.23
8211.00,1.23
8210.00,1.23
8209.00,1.23
8208.00,1.23
8207.00,1.23
8206.00,1.23
8205.00,1.23
8204.00,1.23
8203.00,1.23
8202.00,1.23
8201.00,1.23
8200.00,1.23
8199.00,1.23
8198.00,1.23
8197.00,1.23
8196.00,1.23
8195.00,1.23
8194.00,1.23
8193.00,1.23
8192.00,1.23
8191.00,1.23
8190.00,1.23
8189.00,1.23
8188.00,1.23
8187.00,1.23
8186.00,1.24
8185.00,1.24
8184.00,1.24
8183.00,1.24
8182.00,1.24
8181.00,1.24
8180.00,1.24
8179.00,1.24
8178.00,1.24
8177.00,1.24
8176.00,1.24
8175.00,1.24
8174.00,1.25
8173.00,1.25
8172.00,1.25
8171.00,1.25
8170.00,1.25
8169.00,1.25
8168.00,1.25
8167.00,1.25
8166.00,1.25
8165.00,1.26
8164.00,1.26
8163.00,1.26
8162.00,1.26
8161.00,1.26
8160.00,1.26
8159.00,1.26
8158.00,1.26
8157.00,1.26
8156.00,1.26
8155.00,1.26
8154.00,1.26
8153.00,1.26
8152.00,1.26
8151.00,1.26
8150.00,1.25
8149.00,1.25
8148.00,1.25
8147.00,1.25
8146.00,1.25
8145.00,1.25
8144.00,1.25
8143.00,1.25
8142.00,1.25
8141.00,1.25
8140.00,1.25
8139.00,1.25
8138.00,1.25
8137.00,1.25
8136.00,1.25
8135.00,1.25
8134.00,1.25
8133.00,1.25
8132.00,1.25
8131.00,1.25
8130.00,1.25
8129.00,1.25
8128.00,1.25
8127.00,1.25
8126.00,1.25
8125.00,1.25
8124.00,1.25
8123.00,1.25
8122.00,1.25
8121.00,1.25
8120.00,1.26
8119.00,1.26
8118.00,1.26
8117.00,1.26
8116.00,1.26
8115.00,1.26
8114.00,1.26
8113.00,1.26
8112.00,1.26
8111.00,1.26
8110.00,1.26
8109.00,1.26
8108.00,1.26
8107.00,1.26
8106.00,1.27
8105.00,1.27
8104.00,1.27
8103.00,1.27
8102.00,1.27
8101.00,1.27
8100.00,1.27
8099.00,1.27
8098.00,1.27
8097.00,1.27
8096.00,1.27
8095.00,1.27
8094.00,1.27
8093.00,1.27
8092.00,1.27
8091.00,1.27
8090.00,1.27
8089.00,1.27
8088.00,1.27
8087.00,1.27
8086.00,1.27
8085.00,1.27
8084.00,1.27
8083.00,1.28
8082.00,1.28
8081.00,1.28
8080.00,1.28
8079.00,1.28
8078.00,1.28
8077.00,1.28
8076.00,1.28
8075.00,1.28
8074.00,1.28
8073.00,1.28
8072.00,1.28
8071.00,1.29
8070.00,1.29
8069.00,1.29
8068.00,1.29
8067.00,1.29
8066.00,1.29
8065.00,1.29
8064.00,1.29
8063.00,1.29
8062.00,1.29
8061.00,1.29
8060.00,1.28
8059.00,1.28
8058.00,1.28
8057.00,1.28
8056.00,1.28
8055.00,1.28
8054.00,1.28
8053.00,1.28
8052.00,1.28
8051.00,1.28
8050.00,1.28
8049.00,1.28
8048.00,1.28
8047.00,1.28
8046.00,1.28
8045.00,1.28
8044.00,1.28
8043.00,1.28
8042.00,1.28
8041.00,1.28
8040.00,1.28
8039.00,1.28
8038.00,1.28
8037.00,1.28
8036.00,1.28
8035.00,1.28
8034.00,1.28
8033.00,1.28
8032.00,1.28
8031.00,1.28
8030.00,1.28
8029.00,1.28
8028.00,1.27
8027.00,1.27
8026.00,1.27
8025.00,1.27
8024.00,1.27
8023.00,1.27
8022.00,1.27
8021.00,1.27
8020.00,1.27
8019.00,1.27
8018.00,1.27
8017.00,1.28
8016.00,1.28
8015.00,1.28
8014.00,1.28
8013.00,1.28
8012.00,1.28
8011.00,1.28
8010.00,1.28
8009.00,1.28
8008.00,1.28
8007.00,1.28
8006.00,1.28
8005.00,1.28
8004.00,1.28
8003.00,1.28
8002.00,1.28
8001.00,1.28
8000.00,1.28
7999.00,1.28
7998.00,1.28
7997.00,1.28
7996.00,1.28
7995.00,1.29
7994.00,1.29
7993.00,1.29
7992.00,1.29
7991.00,1.29
7990.00,1.29
7989.00,1.29
7988.00,1.29
7987.00,1.29
7986.00,1.29
7985.00,1.29
7984.00,1.29
7983.00,1.29
7982.00,1.29
7981.00,1.29
7980.00,1.29
7979.00,1.29
7978.00,1.29
7977.00,1.29
7976.00,1.29
7975.00,1.29
7974.00,1.29
7973.00,1.29
7972.00,1.29
7971.00,1.29
7970.00,1.29
7969.00,1.29
7968.00,1.29
7967.00,1.29
7966.00,1.29
7965.00,1.29
7964.00,1.29
7963.00,1.29
7962.00,1.29
7961.00,1.29
7960.00,1.29
7959.00,1.29
7958.00,1.29
7957.00,1.29
7956.00,1.29
7955.00,1.29
7954.00,1.29
7953.00,1.29
7952.00,1.29
7951.00,1.29
7950.00,1.29
7949.00,1.29
7948.00,1.29
7947.00,1.29
7946.00,1.29
7945.00,1.29
7944.00,1.29
7943.00,1.29
7942.00,1.29
7941.00,1.29
7940.00,1.29
7939.00,1.29
7938.00,1.29
7937.00,1.29
7936.00,1.29
7935.00,1.29
7934.00,1.29
7933.00,1.29
7932.00,1.29
7931.00,1.29
7930.00,1.30
7929.00,1.30
7928.00,1.30
7927.00,1.30
7926.00,1.30
7925.00,1.30
7924.00,1.30
7923.00,1.30
7922.00,1.30
7921.00,1.30
7920.00,1.30
7919.00,1.30
7918.00,1.30
7917.00,1.29
7916.00,1.29
7915.00,1.29
7914.00,1.29
7913.00,1.29
7912.00,1.29
7911.00,1.29
7910.00,1.29
7909.00,1.29
7908.00,1.29
7907.00,1.29
7906.00,1.29
7905.00,1.29
7904.00,1.29
7903.00,1.29
7902.00,1.29
7901.00,1.29
7900.00,1.29
7899.00,1.30
7898.00,1.30
7897.00,1.30
7896.00,1.30
7895.00,1.30
7894.00,1.30
7893.00,1.30
7892.00,1.31
7891.00,1.31
7890.00,1.31
7889.00,1.31
7888.00,1.31
7887.00,1.31
7886.00,1.31
7885.00,1.31
7884.00,1.31
7883.00,1.31
7882.00,1.31
7881.00,1.31
7880.00,1.31
7879.00,1.31
7878.00,1.31
7877.00,1.31
7876.00,1.31
7875.00,1.31
7874.00,1.31
7873.00,1.31
7872.00,1.31
7871.00,1.31
7870.00,1.31
7869.00,1.31
7868.00,1.31
7867.00,1.30
7866.00,1.30
7865.00,1.30
7864.00,1.30
7863.00,1.30
7862.00,1.30
7861.00,1.30
7860.00,1.30
7859.00,1.30
7858.00,1.30
7857.00,1.30
7856.00,1.30
7855.00,1.30
7854.00,1.30
7853.00,1.30
7852.00,1.30
7851.00,1.30
7850.00,1.30
7849.00,1.30
7848.00,1.30
7847.00,1.30
7846.00,1.30
7845.00,1.30
7844.00,1.30
7843.00,1.30
7842.00,1.31
7841.00,1.31
7840.00,1.31
7839.00,1.31
7838.00,1.31
7837.00,1.31
7836.00,1.31
7835.00,1.31
7834.00,1.31
7833.00,1.31
7832.00,1.31
7831.00,1.31
7830.00,1.31
7829.00,1.31
7828.00,1.31
7827.00,1.31
7826.00,1.31
7825.00,1.31
7824.00,1.31
7823.00,1.31
7822.00,1.31
7821.00,1.31
7820.00,1.31
7819.00,1.31
7818.00,1.31
7817.00,1.31
7816.00,1.31
7815.00,1.31
7814.00,1.31
7813.00,1.31
7812.00,1.31
7811.00,1.31
7810.00,1.31
7809.00,1.31
7808.00,1.31
7807.00,1.31
7806.00,1.31
7805.00,1.31
7804.00,1.31
7803.00,1.31
7802.00,1.31
7801.00,1.31
7800.00,1.31
7799.00,1.31
7798.00,1.31
7797.00,1.31
7796.00,1.31
7795.00,1.31
7794.00,1.31
7793.00,1.31
7792.00,1.31
7791.00,1.31
7790.00,1.32
7789.00,1.32
7788.00,1.32
7787.00,1.32
7786.00,1.32
7785.00,1.32
7784.00,1.32
7783.00,1.32
7782.00,1.32
7781.00,1.32
7780.00,1.32
7779.00,1.32
7778.00,1.32
7777.00,1.32
7776.00,1.32
7775.00,1.32
7774.00,1.32
7773.00,1.32
7772.00,1.32
7771.00,1.32
7770.00,1.32
7769.00,1.32
7768.00,1.32
7767.00,1.32
7766.00,1.32
7765.00,1.32
7764.00,1.32
7763.00,1.32
7762.00,1.32
7761.00,1.32
7760.00,1.31
7759.00,1.31
7758.00,1.31
7757.00,1.31
7756.00,1.31
7755.00,1.31
7754.00,1.31
7753.00,1.31
7752.00,1.31
7751.00,1.30
7750.00,1.30
7749.00,1.30
7748.00,1.30
7747.00,1.30
7746.00,1.30
7745.00,1.30
7744.00,1.30
7743.00,1.31
7742.00,1.31
7741.00,1.31
7740.00,1.31
7739.00,1.31
7738.00,1.31
7737.00,1.31
7736.00,1.31
7735.00,1.31
7734.00,1.32
7733.00,1.32
7732.00,1.32
7731.00,1.32
7730.00,1.32
7729.00,1.32
7728.00,1.32
7727.00,1.32
7726.00,1.32
7725.00,1.32
7724.00,1.32
7723.00,1.32
7722.00,1.32
7721.00,1.32
7720.00,1.32
7719.00,1.32
7718.00,1.31
7717.00,1.31
7716.00,1.31
7715.00,1.31
7714.00,1.31
7713.00,1.31
7712.00,1.31
7711.00,1.31
7710.00,1.31
7709.00,1.31
7708.00,1.31
7707.00,1.31
7706.00,1.30
7705.00,1.30
7704.00,1.31
7703.00,1.31
7702.00,1.31
7701.00,1.31
7700.00,1.31
7699.00,1.31
7698.00,1.31
7697.00,1.31
7696.00,1.31
7695.00,1.31
7694.00,1.31
7693.00,1.31
7692.00,1.31
7691.00,1.31
7690.00,1.31
7689.00,1.31
7688.00,1.31
7687.00,1.31
7686.00,1.31
7685.00,1.31
7684.00,1.31
7683.00,1.31
7682.00,1.31
7681.00,1.31
7680.00,1.31
7679.00,1.31
7678.00,1.31
7677.00,1.31
7676.00,1.32
7675.00,1.32
7674.00,1.32
7673.00,1.32
7672.00,1.32
7671.00,1.32
7670.00,1.32
7669.00,1.32
7668.00,1.32
7667.00,1.32
7666.00,1.32
7665.00,1.32
7664.00,1.32
7663.00,1.32
7662.00,1.32
7661.00,1.32
7660.00,1.32
7659.00,1.32
7658.00,1.32
7657.00,1.32
7656.00,1.32
7655.00,1.31
7654.00,1.31
7653.00,1.31
7652.00,1.31
7651.00,1.31
7650.00,1.31
7649.00,1.31
7648.00,1.31
7647.00,1.31
7646.00,1.31
7645.00,1.31
7644.00,1.31
7643.00,1.31
7642.00,1.31
7641.00,1.31
7640.00,1.31
7639.00,1.31
7638.00,1.32
7637.00,1.32
7636.00,1.32
7635.00,1.32
7634.00,1.32
7633.00,1.32
7632.00,1.32
7631.00,1.32
7630.00,1.32
7629.00,1.32
7628.00,1.32
7627.00,1.31
7626.00,1.31
7625.00,1.31
7624.00,1.31
7623.00,1.31
7622.00,1.31
7621.00,1.31
7620.00,1.31
7619.00,1.31
7618.00,1.31
7617.00,1.31
7616.00,1.31
7615.00,1.31
7614.00,1.31
7613.00,1.31
7612.00,1.31
7611.00,1.31
7610.00,1.31
7609.00,1.31
7608.00,1.31
7607.00,1.31
7606.00,1.31
7605.00,1.31
7604.00,1.31
7603.00,1.31
7602.00,1.31
7601.00,1.31
7600.00,1.31
7599.00,1.31
7598.00,1.31
7597.00,1.31
7596.00,1.32
7595.00,1.32
7594.00,1.32
7593.00,1.32
7592.00,1.32
7591.00,1.32
7590.00,1.32
7589.00,1.32
7588.00,1.32
7587.00,1.32
7586.00,1.32
7585.00,1.32
7584.00,1.32
7583.00,1.32
7582.00,1.32
7581.00,1.32
7580.00,1.32
7579.00,1.32
7578.00,1.32
7577.00,1.32
7576.00,1.32
7575.00,1.32
7574.00,1.32
7573.00,1.32
7572.00,1.32
7571.00,1.32
7570.00,1.32
7569.00,1.31
7568.00,1.31
7567.00,1.31
7566.00,1.31
7565.00,1.31
7564.00,1.31
7563.00,1.32
7562.00,1.32
7561.00,1.32
7560.00,1.32
7559.00,1.32
7558.00,1.32
7557.00,1.32
7556.00,1.32
7555.00,1.32
7554.00,1.32
7553.00,1.32
7552.00,1.32
7551.00,1.32
7550.00,1.32
7549.00,1.32
7548.00,1.32
7547.00,1.32
7546.00,1.32
7545.00,1.32
7544.00,1.32
7543.00,1.32
7542.00,1.31
7541.00,1.31
7540.00,1.31
7539.00,1.31
7538.00,1.31
7537.00,1.31
7536.00,1.31
7535.00,1.31
7534.00,1.31
7533.00,1.31
7532.00,1.31
7531.00,1.31
7530.00,1.31
7529.00,1.31
7528.00,1.31
7527.00,1.31
7526.00,1.31
7525.00,1.31
7524.00,1.31
7523.00,1.31
7522.00,1.31
7521.00,1.30
7520.00,1.30
7519.00,1.30
7518.00,1.30
7517.00,1.30
7516.00,1.30
7515.00,1.30
7514.00,1.30
7513.00,1.30
7512.00,1.30
7511.00,1.30
7510.00,1.30
7509.00,1.30
7508.00,1.30
7507.00,1.30
7506.00,1.30
7505.00,1.30
7504.00,1.30
7503.00,1.29
7502.00,1.29
7501.00,1.29
7500.00,1.29
7499.00,1.29
7498.00,1.29
7497.00,1.29
7496.00,1.29
7495.00,1.29
7494.00,1.29
7493.00,1.29
7492.00,1.29
7491.00,1.29
7490.00,1.29
7489.00,1.29
7488.00,1.29
7487.00,1.29
7486.00,1.29
7485.00,1.29
7484.00,1.29
7483.00,1.29
7482.00,1.29
7481.00,1.29
7480.00,1.29
7479.00,1.29
7478.00,1.29
7477.00,1.29
7476.00,1.29
7475.00,1.29
7474.00,1.29
7473.00,1.28
7472.00,1.28
7471.00,1.28
7470.00,1.28
7469.00,1.28
7468.00,1.28
7467.00,1.28
7466.00,1.28
7465.00,1.28
7464.00,1.28
7463.00,1.28
7462.00,1.28
7461.00,1.28
7460.00,1.28
7459.00,1.28
7458.00,1.28
7457.00,1.28
7456.00,1.28
7455.00,1.28
7454.00,1.28
7453.00,1.28
7452.00,1.28
7451.00,1.28
7450.00,1.28
7449.00,1.28
7448.00,1.28
7447.00,1.27
7446.00,1.27
7445.00,1.27
7444.00,1.27
7443.00,1.27
7442.00,1.27
7441.00,1.27
7440.00,1.27
7439.00,1.27
7438.00,1.26
7437.00,1.26
7436.00,1.26
7435.00,1.26
7434.00,1.26
7433.00,1.26
7432.00,1.26
7431.00,1.26
7430.00,1.26
7429.00,1.26
7428.00,1.26
7427.00,1.26
7426.00,1.26
7425.00,1.26
7424.00,1.26
7423.00,1.26
7422.00,1.26
7421.00,1.26
7420.00,1.26
7419.00,1.26
7418.00,1.26
7417.00,1.25
7416.00,1.25
7415.00,1.25
7414.00,1.25
7413.00,1.25
7412.00,1.25
7411.00,1.25
7410.00,1.25
7409.00,1.25
7408.00,1.25
7407.00,1.25
7406.00,1.25
7405.00,1.25
7404.00,1.25
7403.00,1.25
7402.00,1.25
7401.00,1.24
7400.00,1.24
7399.00,1.24
7398.00,1.24
7397.00,1.24
7396.00,1.24
7395.00,1.24
7394.00,1.24
7393.00,1.24
7392.00,1.24
7391.00,1.24
7390.00,1.24
7389.00,1.24
7388.00,1.24
7387.00,1.24
7386.00,1.23
7385.00,1.23
7384.00,1.23
7383.00,1.23
7382.00,1.23
7381.00,1.23
7380.00,1.23
7379.00,1.23
7378.00,1.23
7377.00,1.23
7376.00,1.23
7375.00,1.23
7374.00,1.23
7373.00,1.23
7372.00,1.22
7371.00,1.22
7370.00,1.22
7369.00,1.22
7368.00,1.22
7367.00,1.22
7366.00,1.22
7365.00,1.22
7364.00,1.22
7363.00,1.22
7362.00,1.22
7361.00,1.22
7360.00,1.22
7359.00,1.22
7358.00,1.22
7357.00,1.22
7356.00,1.22
7355.00,1.22
7354.00,1.21
7353.00,1.21
7352.00,1.21
7351.00,1.21
7350.00,1.21
7349.00,1.21
7348.00,1.21
7347.00,1.21
7346.00,1.21
7345.00,1.21
7344.00,1.21
7343.00,1.21
7342.00,1.21
7341.00,1.21
7340.00,1.21
7339.00,1.21
7338.00,1.21
7337.00,1.21
7336.00,1.21
7335.00,1.21
7334.00,1.21
7333.00,1.21
7332.00,1.22
7331.00,1.22
7330.00,1.22
7329.00,1.22
7328.00,1.22
7327.00,1.22
7326.00,1.22
7325.00,1.22
7324.00,1.22
7323.00,1.22
7322.00,1.22
7321.00,1.21
7320.00,1.21
7319.00,1.21
7318.00,1.21
7317.00,1.21
7316.00,1.21
7315.00,1.21
7314.00,1.21
7313.00,1.21
7312.00,1.20
7311.00,1.20
7310.00,1.20
7309.00,1.20
7308.00,1.20
7307.00,1.20
7306.00,1.20
7305.00,1.20
7304.00,1.20
7303.00,1.19
7302.00,1.19
7301.00,1.19
7300.00,1.19
7299.00,1.19
7298.00,1.19
7297.00,1.19
7296.00,1.19
7295.00,1.19
7294.00,1.19
7293.00,1.19
7292.00,1.19
7291.00,1.19
7290.00,1.19
7289.00,1.19
7288.00,1.19
7287.00,1.19
7286.00,1.19
7285.00,1.18
7284.00,1.18
7283.00,1.18
7282.00,1.18
7281.00,1.18
7280.00,1.18
7279.00,1.17
7278.00,1.17
7277.00,1.17
7276.00,1.17
7275.00,1.17
7274.00,1.17
7273.00,1.17
7272.00,1.16
7271.00,1.16
7270.00,1.16
7269.00,1.16
7268.00,1.16
7267.00,1.16
7266.00,1.15
7265.00,1.15
7264.00,1.15
7263.00,1.15
7262.00,1.15
7261.00,1.15
7260.00,1.14
7259.00,1.14
7258.00,1.14
7257.00,1.14
7256.00,1.14
7255.00,1.14
7254.00,1.14
7253.00,1.13
7252.00,1.13
7251.00,1.13
7250.00,1.13
7249.00,1.13
7248.00,1.13
7247.00,1.13
7246.00,1.13
7245.00,1.12
7244.00,1.12
7243.00,1.12
7242.00,1.12
7241.00,1.12
7240.00,1.12
7239.00,1.11
7238.00,1.11
7237.00,1.11
7236.00,1.11
7235.00,1.10
7234.00,1.10
7233.00,1.10
7232.00,1.10
7231.00,1.09
7230.00,1.09
7229.00,1.09
7228.00,1.08
7227.00,1.08
7226.00,1.08
7225.00,1.08
7224.00,1.07
7223.00,1.07
7222.00,1.07
7221.00,1.07
7220.00,1.06
7219.00,1.06
7218.00,1.06
7217.00,1.05
7216.00,1.05
7215.00,1.05
7214.00,1.05
7213.00,1.04
7212.00,1.04
7211.00,1.04
7210.00,1.03
7209.00,1.03
7208.00,1.03
7207.00,1.03
7206.00,1.02
7205.00,1.02
7204.00,1.02
7203.00,1.01
7202.00,1.01
7201.00,1.01
7200.00,1.01
7199.00,1.00
7198.00,1.00
7197.00,1.00
7196.00,1.00
7195.00,0.99
7194.00,0.99
7193.00,0.99
7192.00,0.99
7191.00,0.98
7190.00,0.98
7189.00,0.98
7188.00,0.98
7187.00,0.97
7186.00,0.97
7185.00,0.97
7184.00,0.97
7183.00,0.96
7182.00,0.96
7181.00,0.96
7180.00,0.96
7179.00,0.95
7178.00,0.95
7177.00,0.95
7176.00,0.94
7175.00,0.94
7174.00,0.94
7173.00,0.94
7172.00,0.94
7171.00,0.93
7170.00,0.93
7169.00,0.93
7168.00,0.93
7167.00,0.92
7166.00,0.92
7165.00,0.92
7164.00,0.92
7163.00,0.92
7162.00,0.91
7161.00,0.91
7160.00,0.91
7159.00,0.91
7158.00,0.91
7157.00,0.90
7156.00,0.90
7155.00,0.90
7154.00,0.90
7153.00,0.90
7152.00,0.89
7151.00,0.89
7150.00,0.89
7149.00,0.89
7148.00,0.88
7147.00,0.88
7146.00,0.88
7145.00,0.88
7144.00,0.87
7143.00,0.87
7142.00,0.87
7141.00,0.87
7140.00,0.86
7139.00,0.86
7138.00,0.86
7137.00,0.86
7136.00,0.85
7135.00,0.85
7134.00,0.85
7133.00,0.85
7132.00,0.85
7131.00,0.84
7130.00,0.84
7129.00,0.84
7128.00,0.84
7127.00,0.84
7126.00,0.83
7125.00,0.83
7124.00,0.83
7123.00,0.83
7122.00,0.83
7121.00,0.82
7120.00,0.82
7119.00,0.82
7118.00,0.82
7117.00,0.81
7116.00,0.81
7115.00,0.81
7114.00,0.81
7113.00,0.80
7112.00,0.80
7111.00,0.80
7110.00,0.80
7109.00,0.80
7108.00,0.79
7107.00,0.79
7106.00,0.79
7105.00,0.79
7104.00,0.79
7103.00,0.79
7102.00,0.78
7101.00,0.78
7100.00,0.78
7099.00,0.78
7098.00,0.78
7097.00,0.78
7096.00,0.78
7095.00,0.77
7094.00,0.77
7093.00,0.77
7092.00,0.77
7091.00,0.77
7090.00,0.77
7089.00,0.77
7088.00,0.76
7087.00,0.76
7086.00,0.76
7085.00,0.76
7084.00,0.76
7083.00,0.76
7082.00,0.76
7081.00,0.75
7080.00,0.75
7079.00,0.75
7078.00,0.75
7077.00,0.75
7076.00,0.75
7075.00,0.75
7074.00,0.74
7073.00,0.74
7072.00,0.74
7071.00,0.74
7070.00,0.74
7069.00,0.74
7068.00,0.74
7067.00,0.73
7066.00,0.73
7065.00,0.73
7064.00,0.73
7063.00,0.73
7062.00,0.73
7061.00,0.73
7060.00,0.72
7059.00,0.72
7058.00,0.72
7057.00,0.72
7056.00,0.72
7055.00,0.72
7054.00,0.72
7053.00,0.71
7052.00,0.71
7051.00,0.71
7050.00,0.71
7049.00,0.71
7048.00,0.71
7047.00,0.71
7046.00,0.71
7045.00,0.71
7044.00,0.70
7043.00,0.70
7042.00,0.70
7041.00,0.70
7040.00,0.70
7039.00,0.70
7038.00,0.70
7037.00,0.70
7036.00,0.70
7035.00,0.70
7034.00,0.70
7033.00,0.70
7032.00,0.69
7031.00,0.69
7030.00,0.69
7029.00,0.69
7028.00,0.69
7027.00,0.69
7026.00,0.69
7025.00,0.69
7024.00,0.69
7023.00,0.69
7022.00,0.69
7021.00,0.69
7020.00,0.69
7019.00,0.69
7018.00,0.69
7017.00,0.69
7016.00,0.69
7015.00,0.69
7014.00,0.69
7013.00,0.69
7012.00,0.69
7011.00,0.68
7010.00,0.68
7009.00,0.68
7008.00,0.68
7007.00,0.68
7006.00,0.68
7005.00,0.68
7004.00,0.68
7003.00,0.68
7002.00,0.68
7001.00,0.68
7000.00,0.67
6999.00,0.67
6998.00,0.67
6997.00,0.67
6996.00,0.67
6995.00,0.67
6994.00,0.67
6993.00,0.67
6992.00,0.67
6991.00,0.67
6990.00,0.67
6989.00,0.67
6988.00,0.67
6987.00,0.67
6986.00,0.67
6985.00,0.67
6984.00,0.67
6983.00,0.67
6982.00,0.67
6981.00,0.67
6980.00,0.67
6979.00,0.67
6978.00,0.67
6977.00,0.67
6976.00,0.67
6975.00,0.67
6974.00,0.67
6973.00,0.67
6972.00,0.67
6971.00,0.66
6970.00,0.66
6969.00,0.66
6968.00,0.66
6967.00,0.66
6966.00,0.66
6965.00,0.66
6964.00,0.66
6963.00,0.66
6962.00,0.66
6961.00,0.66
6960.00,0.66
6959.00,0.66
6958.00,0.66
6957.00,0.66
6956.00,0.66
6955.00,0.66
6954.00,0.66
6953.00,0.66
6952.00,0.66
6951.00,0.66
6950.00,0.66
6949.00,0.66
6948.00,0.66
6947.00,0.66
6946.00,0.66
6945.00,0.66
6944.00,0.66
6943.00,0.66
6942.00,0.65
6941.00,0.65
6940.00,0.65
6939.00,0.65
6938.00,0.65
6937.00,0.65
6936.00,0.65
6935.00,0.65
6934.00,0.65
6933.00,0.65
6932.00,0.65
6931.00,0.65
6930.00,0.65
6929.00,0.65
6928.00,0.65
6927.00,0.65
6926.00,0.65
6925.00,0.65
6924.00,0.65
6923.00,0.65
6922.00,0.65
6921.00,0.65
6920.00,0.65
6919.00,0.65
6918.00,0.65
6917.00,0.64
6916.00,0.64
6915.00,0.64
6914.00,0.64
6913.00,0.64
6912.00,0.64
6911.00,0.64
6910.00,0.64
6909.00,0.64
6908.00,0.64
6907.00,0.64
6906.00,0.64
6905.00,0.64
6904.00,0.64
6903.00,0.64
6902.00,0.64
6901.00,0.64
6900.00,0.64
6899.00,0.64
6898.00,0.64
6897.00,0.64
6896.00,0.64
6895.00,0.64
6894.00,0.64
6893.00,0.64
6892.00,0.64
6891.00,0.64
6890.00,0.64
6889.00,0.64
6888.00,0.64
6887.00,0.64
6886.00,0.64
6885.00,0.64
6884.00,0.64
6883.00,0.64
6882.00,0.64
6881.00,0.64
6880.00,0.64
6879.00,0.64
6878.00,0.64
6877.00,0.64
6876.00,0.64
6875.00,0.64
6874.00,0.64
6873.00,0.64
6872.00,0.64
6871.00,0.64
6870.00,0.64
6869.00,0.64
6868.00,0.64
6867.00,0.64
6866.00,0.64
6865.00,0.64
6864.00,0.64
6863.00,0.64
6862.00,0.64
6861.00,0.64
6860.00,0.64
6859.00,0.64
6858.00,0.64
6857.00,0.64
6856.00,0.64
6855.00,0.64
6854.00,0.64
6853.00,0.64
6852.00,0.64
6851.00,0.64
6850.00,0.64
6849.00,0.64
6848.00,0.64
6847.00,0.64
6846.00,0.64
6845.00,0.64
6844.00,0.64
6843.00,0.64
6842.00,0.64
6841.00,0.64
6840.00,0.64
6839.00,0.64
6838.00,0.64
6837.00,0.64
6836.00,0.64
6835.00,0.64
6834.00,0.64
6833.00,0.64
6832.00,0.64
6831.00,0.64
6830.00,0.64
6829.00,0.64
6828.00,0.64
6827.00,0.64
6826.00,0.64
6825.00,0.64
6824.00,0.65
6823.00,0.65
6822.00,0.65
6821.00,0.65
6820.00,0.65
6819.00,0.65
6818.00,0.65
6817.00,0.65
6816.00,0.65
6815.00,0.65
6814.00,0.65
6813.00,0.65
6812.00,0.65
6811.00,0.65
6810.00,0.65
6809.00,0.65
6808.00,0.65
6807.00,0.65
6806.00,0.65
6805.00,0.66
6804.00,0.66
6803.00,0.66
6802.00,0.66
6801.00,0.66
6800.00,0.66
6799.00,0.66
6798.00,0.66
6797.00,0.66
6796.00,0.66
6795.00,0.66
6794.00,0.66
6793.00,0.66
6792.00,0.65
6791.00,0.65
6790.00,0.65
6789.00,0.65
6788.00,0.65
6787.00,0.65
6786.00,0.65
6785.00,0.65
6784.00,0.65
6783.00,0.65
6782.00,0.66
6781.00,0.66
6780.00,0.66
6779.00,0.66
6778.00,0.66
6777.00,0.66
6776.00,0.66
6775.00,0.66
6774.00,0.67
6773.00,0.67
6772.00,0.67
6771.00,0.67
6770.00,0.67
6769.00,0.67
6768.00,0.67
6767.00,0.67
6766.00,0.67
6765.00,0.67
6764.00,0.67
6763.00,0.67
6762.00,0.67
6761.00,0.67
6760.00,0.67
6759.00,0.67
6758.00,0.67
6757.00,0.67
6756.00,0.67
6755.00,0.67
6754.00,0.67
6753.00,0.67
6752.00,0.67
6751.00,0.67
6750.00,0.67
6749.00,0.67
6748.00,0.67
6747.00,0.67
6746.00,0.67
6745.00,0.67
6744.00,0.67
6743.00,0.67
6742.00,0.67
6741.00,0.68
6740.00,0.68
6739.00,0.68
6738.00,0.68
6737.00,0.68
6736.00,0.68
6735.00,0.68
6734.00,0.68
6733.00,0.68
6732.00,0.68
6731.00,0.68
6730.00,0.68
6729.00,0.69
6728.00,0.69
6727.00,0.69
6726.00,0.69
6725.00,0.69
6724.00,0.69
6723.00,0.69
6722.00,0.69
6721.00,0.69
6720.00,0.69
6719.00,0.70
6718.00,0.70
6717.00,0.70
6716.00,0.70
6715.00,0.70
6714.00,0.70
6713.00,0.70
6712.00,0.70
6711.00,0.70
6710.00,0.70
6709.00,0.70
6708.00,0.70
6707.00,0.70
6706.00,0.70
6705.00,0.70
6704.00,0.70
6703.00,0.70
6702.00,0.70
6701.00,0.70
6700.00,0.70
6699.00,0.70
6698.00,0.71
6697.00,0.71
6696.00,0.71
6695.00,0.71
6694.00,0.71
6693.00,0.71
6692.00,0.71
6691.00,0.71
6690.00,0.71
6689.00,0.72
6688.00,0.72
6687.00,0.72
6686.00,0.72
6685.00,0.72
6684.00,0.72
6683.00,0.72
6682.00,0.72
6681.00,0.72
6680.00,0.72
6679.00,0.72
6678.00,0.72
6677.00,0.72
6676.00,0.72
6675.00,0.72
6674.00,0.73
6673.00,0.73
6672.00,0.73
6671.00,0.73
6670.00,0.73
6669.00,0.73
6668.00,0.73
6667.00,0.73
6666.00,0.73
6665.00,0.73
6664.00,0.73
6663.00,0.73
6662.00,0.73
6661.00,0.74
6660.00,0.74
6659.00,0.74
6658.00,0.74
6657.00,0.74
6656.00,0.74
6655.00,0.74
6654.00,0.74
6653.00,0.74
6652.00,0.74
6651.00,0.74
6650.00,0.74
6649.00,0.74
6648.00,0.74
6647.00,0.74
6646.00,0.75
6645.00,0.75
6644.00,0.75
6643.00,0.75
6642.00,0.75
6641.00,0.75
6640.00,0.75
6639.00,0.75
6638.00,0.75
6637.00,0.76
6636.00,0.76
6635.00,0.76
6634.00,0.76
6633.00,0.76
6632.00,0.76
6631.00,0.76
6630.00,0.76
6629.00,0.76
6628.00,0.76
6627.00,0.76
6626.00,0.76
6625.00,0.76
6624.00,0.76
6623.00,0.76
6622.00,0.76
6621.00,0.76
6620.00,0.77
6619.00,0.77
6618.00,0.77
6617.00,0.77
6616.00,0.77
6615.00,0.77
6614.00,0.77
6613.00,0.77
6612.00,0.77
6611.00,0.77
6610.00,0.77
6609.00,0.77
6608.00,0.77
6607.00,0.77
6606.00,0.77
6605.00,0.77
6604.00,0.77
6603.00,0.77
6602.00,0.77
6601.00,0.77
6600.00,0.77
6599.00,0.77
6598.00,0.77
6597.00,0.77
6596.00,0.77
6595.00,0.78
6594.00,0.78
6593.00,0.78
6592.00,0.78
6591.00,0.78
6590.00,0.78
6589.00,0.78
6588.00,0.78
6587.00,0.78
6586.00,0.79
6585.00,0.79
6584.00,0.79
6583.00,0.79
6582.00,0.79
6581.00,0.79
6580.00,0.79
6579.00,0.79
6578.00,0.79
6577.00,0.79
6576.00,0.80
6575.00,0.80
6574.00,0.80
6573.00,0.80
6572.00,0.80
6571.00,0.80
6570.00,0.80
6569.00,0.80
6568.00,0.80
6567.00,0.80
6566.00,0.80
6565.00,0.80
6564.00,0.80
6563.00,0.80
6562.00,0.80
6561.00,0.81
6560.00,0.81
6559.00,0.81
6558.00,0.81
6557.00,0.81
6556.00,0.81
6555.00,0.81
6554.00,0.81
6553.00,0.81
6552.00,0.82
6551.00,0.82
6550.00,0.82
6549.00,0.82
6548.00,0.82
6547.00,0.82
6546.00,0.82
6545.00,0.82
6544.00,0.83
6543.00,0.83
6542.00,0.83
6541.00,0.83
6540.00,0.83
6539.00,0.83
6538.00,0.83
6537.00,0.83
6536.00,0.83
6535.00,0.83
6534.00,0.83
6533.00,0.83
6532.00,0.83
6531.00,0.83
6530.00,0.83
6529.00,0.83
6528.00,0.83
6527.00,0.83
6526.00,0.84
6525.00,0.84
6524.00,0.84
6523.00,0.84
6522.00,0.84
6521.00,0.84
6520.00,0.84
6519.00,0.84
6518.00,0.84
6517.00,0.84
6516.00,0.84
6515.00,0.84
6514.00,0.84
6513.00,0.84
6512.00,0.84
6511.00,0.84
6510.00,0.84
6509.00,0.84
6508.00,0.84
6507.00,0.84
6506.00,0.85
6505.00,0.85
6504.00,0.85
6503.00,0.85
6502.00,0.85
6501.00,0.85
6500.00,0.85
6499.00,0.85
6498.00,0.85
6497.00,0.85
6496.00,0.85
6495.00,0.85
6494.00,0.85
6493.00,0.85
6492.00,0.85
6491.00,0.86
6490.00,0.86
6489.00,0.86
6488.00,0.86
6487.00,0.86
6486.00,0.86
6485.00,0.86
6484.00,0.86
6483.00,0.86
6482.00,0.86
6481.00,0.86
6480.00,0.86
6479.00,0.86
6478.00,0.86
6477.00,0.86
6476.00,0.86
6475.00,0.86
6474.00,0.86
6473.00,0.86
6472.00,0.87
6471.00,0.87
6470.00,0.87
6469.00,0.87
6468.00,0.87
6467.00,0.87
6466.00,0.87
6465.00,0.87
6464.00,0.87
6463.00,0.87
6462.00,0.87
6461.00,0.87
6460.00,0.87
6459.00,0.87
6458.00,0.87
6457.00,0.87
6456.00,0.87
6455.00,0.88
6454.00,0.88
6453.00,0.88
6452.00,0.88
6451.00,0.88
6450.00,0.88
6449.00,0.88
6448.00,0.88
6447.00,0.88
6446.00,0.88
6445.00,0.88
6444.00,0.88
6443.00,0.88
6442.00,0.88
6441.00,0.88
6440.00,0.88
6439.00,0.88
6438.00,0.88
6437.00,0.88
6436.00,0.88
6435.00,0.88
6434.00,0.88
6433.00,0.89
6432.00,0.89
6431.00,0.89
6430.00,0.89
6429.00,0.89
6428.00,0.89
6427.00,0.89
6426.00,0.89
6425.00,0.89
6424.00,0.89
6423.00,0.89
6422.00,0.89
6421.00,0.89
6420.00,0.89
6419.00,0.89
6418.00,0.89
6417.00,0.90
6416.00,0.90
6415.00,0.90
6414.00,0.90
6413.00,0.90
6412.00,0.90
6411.00,0.90
6410.00,0.90
6409.00,0.90
6408.00,0.90
6407.00,0.90
6406.00,0.90
6405.00,0.90
6404.00,0.90
6403.00,0.89
6402.00,0.89
6401.00,0.89
6400.00,0.89
6399.00,0.89
6398.00,0.89
6397.00,0.89
6396.00,0.90
6395.00,0.90
6394.00,0.90
6393.00,0.90
6392.00,0.90
6391.00,0.90
6390.00,0.90
6389.00,0.90
6388.00,0.90
6387.00,0.90
6386.00,0.90
6385.00,0.91
6384.00,0.91
6383.00,0.91
6382.00,0.91
6381.00,0.91
6380.00,0.91
6379.00,0.91
6378.00,0.91
6377.00,0.91
6376.00,0.91
6375.00,0.91
6374.00,0.91
6373.00,0.91
6372.00,0.92
6371.00,0.92
6370.00,0.92
6369.00,0.92
6368.00,0.92
6367.00,0.92
6366.00,0.92
6365.00,0.92
6364.00,0.92
6363.00,0.92
6362.00,0.92
6361.00,0.92
6360.00,0.92
6359.00,0.92
6358.00,0.92
6357.00,0.92
6356.00,0.92
6355.00,0.92
6354.00,0.92
6353.00,0.93
6352.00,0.93
6351.00,0.93
6350.00,0.93
6349.00,0.93
6348.00,0.93
6347.00,0.93
6346.00,0.93
6345.00,0.93
6344.00,0.93
6343.00,0.93
6342.00,0.94
6341.00,0.94
6340.00,0.94
6339.00,0.94
6338.00,0.94
6337.00,0.94
6336.00,0.94
6335.00,0.94
6334.00,0.94
6333.00,0.94
6332.00,0.94
6331.00,0.94
6330.00,0.94
6329.00,0.94
6328.00,0.94
6327.00,0.94
6326.00,0.94
6325.00,0.94
6324.00,0.95
6323.00,0.95
6322.00,0.95
6321.00,0.95
6320.00,0.95
6319.00,0.95
6318.00,0.95
6317.00,0.95
6316.00,0.95
6315.00,0.95
6314.00,0.95
6313.00,0.95
6312.00,0.96
6311.00,0.96
6310.00,0.96
6309.00,0.96
6308.00,0.96
6307.00,0.96
6306.00,0.96
6305.00,0.96
6304.00,0.96
6303.00,0.97
6302.00,0.97
6301.00,0.97
6300.00,0.97
6299.00,0.97
6298.00,0.97
6297.00,0.97
6296.00,0.97
6295.00,0.97
6294.00,0.97
6293.00,0.98
6292.00,0.98
6291.00,0.98
6290.00,0.98
6289.00,0.98
6288.00,0.98
6287.00,0.98
6286.00,0.98
6285.00,0.98
6284.00,0.98
6283.00,0.98
6282.00,0.99
6281.00,0.99
6280.00,0.99
6279.00,0.99
6278.00,0.99
6277.00,0.99
6276.00,0.99
6275.00,0.99
6274.00,0.99
6273.00,0.99
6272.00,0.99
6271.00,0.99
6270.00,0.99
6269.00,0.99
6268.00,0.99
6267.00,0.99
6266.00,1.00
6265.00,1.00
6264.00,1.00
6263.00,1.00
6262.00,1.00
6261.00,1.00
6260.00,1.00
6259.00,1.00
6258.00,1.00
6257.00,1.00
6256.00,1.00
6255.00,1.00
6254.00,1.01
6253.00,1.01
6252.00,1.01
6251.00,1.01
6250.00,1.01
6249.00,1.01
6248.00,1.01
6247.00,1.01
6246.00,1.02
6245.00,1.02
6244.00,1.02
6243.00,1.02
6242.00,1.02
6241.00,1.02
6240.00,1.02
6239.00,1.02
6238.00,1.02
6237.00,1.02
6236.00,1.03
6235.00,1.03
6234.00,1.03
6233.00,1.03
6232.00,1.03
6231.00,1.03
6230.00,1.03
6229.00,1.03
6228.00,1.03
6227.00,1.03
6226.00,1.04
6225.00,1.04
6224.00,1.04
6223.00,1.04
6222.00,1.04
6221.00,1.04
6220.00,1.04
6219.00,1.05
6218.00,1.05
6217.00,1.05
6216.00,1.05
6215.00,1.05
6214.00,1.05
6213.00,1.05
6212.00,1.05
6211.00,1.05
6210.00,1.06
6209.00,1.06
6208.00,1.06
6207.00,1.06
6206.00,1.06
6205.00,1.06
6204.00,1.06
6203.00,1.06
6202.00,1.06
6201.00,1.06
6200.00,1.06
6199.00,1.06
6198.00,1.07
6197.00,1.07
6196.00,1.07
6195.00,1.07
6194.00,1.07
6193.00,1.07
6192.00,1.07
6191.00,1.07
6190.00,1.07
6189.00,1.08
6188.00,1.08
6187.00,1.08
6186.00,1.08
6185.00,1.08
6184.00,1.08
6183.00,1.08
6182.00,1.08
6181.00,1.09
6180.00,1.09
6179.00,1.09
6178.00,1.09
6177.00,1.09
6176.00,1.09
6175.00,1.09
6174.00,1.09
6173.00,1.09
6172.00,1.10
6171.00,1.10
6170.00,1.10
6169.00,1.10
6168.00,1.10
6167.00,1.10
6166.00,1.10
6165.00,1.10
6164.00,1.10
6163.00,1.10
6162.00,1.10
6161.00,1.11
6160.00,1.11
6159.00,1.11
6158.00,1.11
6157.00,1.11
6156.00,1.11
6155.00,1.11
6154.00,1.11
6153.00,1.11
6152.00,1.12
6151.00,1.12
6150.00,1.12
6149.00,1.12
6148.00,1.12
6147.00,1.12
6146.00,1.12
6145.00,1.12
6144.00,1.13
6143.00,1.13
6142.00,1.13
6141.00,1.13
6140.00,1.13
6139.00,1.13
6138.00,1.13
6137.00,1.14
6136.00,1.14
6135.00,1.14
6134.00,1.14
6133.00,1.14
6132.00,1.14
6131.00,1.14
6130.00,1.15
6129.00,1.15
6128.00,1.15
6127.00,1.15
6126.00,1.15
6125.00,1.15
6124.00,1.15
6123.00,1.15
6122.00,1.15
6121.00,1.16
6120.00,1.16
6119.00,1.16
6118.00,1.16
6117.00,1.16
6116.00,1.16
6115.00,1.16
6114.00,1.16
6113.00,1.16
6112.00,1.16
6111.00,1.17
6110.00,1.17
6109.00,1.17
6108.00,1.17
6107.00,1.17
6106.00,1.17
6105.00,1.17
6104.00,1.17
6103.00,1.17
6102.00,1.18
6101.00,1.18
6100.00,1.18
6099.00,1.18
6098.00,1.18
6097.00,1.18
6096.00,1.18
6095.00,1.18
6094.00,1.19
6093.00,1.19
6092.00,1.19
6091.00,1.19
6090.00,1.19
6089.00,1.19
6088.00,1.19
6087.00,1.19
6086.00,1.20
6085.00,1.20
6084.00,1.20
6083.00,1.20
6082.00,1.20
6081.00,1.20
6080.00,1.20
6079.00,1.20
6078.00,1.20
6077.00,1.21
6076.00,1.21
6075.00,1.21
6074.00,1.21
6073.00,1.21
6072.00,1.21
6071.00,1.21
6070.00,1.21
6069.00,1.21
6068.00,1.21
6067.00,1.21
6066.00,1.22
6065.00,1.22
6064.00,1.22
6063.00,1.22
6062.00,1.22
6061.00,1.22
6060.00,1.22
6059.00,1.22
6058.00,1.22
6057.00,1.22
6056.00,1.22
6055.00,1.22
6054.00,1.22
6053.00,1.22
6052.00,1.23
6051.00,1.23
6050.00,1.23
6049.00,1.23
6048.00,1.23
6047.00,1.23
6046.00,1.23
6045.00,1.23
6044.00,1.23
6043.00,1.23
6042.00,1.23
6041.00,1.23
6040.00,1.23
6039.00,1.23
6038.00,1.23
6037.00,1.23
6036.00,1.23
6035.00,1.23
6034.00,1.23
6033.00,1.23
6032.00,1.23
6031.00,1.23
6030.00,1.23
6029.00,1.23
6028.00,1.23
6027.00,1.23
6026.00,1.23
6025.00,1.23
6024.00,1.23
6023.00,1.23
6022.00,1.23
6021.00,1.23
6020.00,1.24
6019.00,1.24
6018.00,1.24
6017.00,1.24
6016.00,1.24
6015.00,1.24
6014.00,1.24
6013.00,1.24
6012.00,1.24
6011.00,1.24
6010.00,1.24
6009.00,1.24
6008.00,1.24
6007.00,1.24
6006.00,1.24
6005.00,1.24
6004.00,1.24
6003.00,1.24
6002.00,1.24
6001.00,1.24
6000.00,1.24
5999.00,1.24
5998.00,1.24
5997.00,1.23
5996.00,1.23
5995.00,1.23
5994.00,1.23
5993.00,1.23
5992.00,1.23
5991.00,1.23
5990.00,1.23
5989.00,1.23
5988.00,1.22
5987.00,1.22
5986.00,1.22
5985.00,1.22
5984.00,1.22
5983.00,1.22
5982.00,1.21
5981.00,1.21
5980.00,1.21
5979.00,1.21
5978.00,1.20
5977.00,1.20
5976.00,1.20
5975.00,1.19
5974.00,1.19
5973.00,1.18
5972.00,1.18
5971.00,1.17
5970.00,1.17
5969.00,1.16
5968.00,1.16
5967.00,1.15
5966.00,1.15
5965.00,1.14
5964.00,1.14
5963.00,1.13
5962.00,1.12
5961.00,1.12
5960.00,1.11
5959.00,1.11
5958.00,1.10
5957.00,1.09
5956.00,1.09
5955.00,1.08
5954.00,1.08
5953.00,1.07
5952.00,1.07
5951.00,1.06
5950.00,1.06
5949.00,1.05
5948.00,1.05
5947.00,1.05
5946.00,1.04
5945.00,1.04
5944.00,1.04
5943.00,1.04
5942.00,1.03
5941.00,1.03
5940.00,1.03
5939.00,1.03
5938.00,1.03
5937.00,1.03
5936.00,1.03
5935.00,1.03
5934.00,1.03
5933.00,1.03
5932.00,1.03
5931.00,1.03
5930.00,1.03
5929.00,1.02
5928.00,1.02
5927.00,1.02
5926.00,1.02
5925.00,1.02
5924.00,1.02
5923.00,1.02
5922.00,1.02
5921.00,1.02
5920.00,1.01
5919.00,1.01
5918.00,1.01
5917.00,1.01
5916.00,1.00
5915.00,1.00
5914.00,1.00
5913.00,1.00
5912.00,0.99
5911.00,0.99
5910.00,0.99
5909.00,0.99
5908.00,0.99
5907.00,0.98
5906.00,0.98
5905.00,0.98
5904.00,0.98
5903.00,0.98
5902.00,0.98
5901.00,0.98
5900.00,0.98
5899.00,0.98
5898.00,0.98
5897.00,0.99
5896.00,0.99
5895.00,0.99
5894.00,0.99
5893.00,0.99
5892.00,0.99
5891.00,1.00
5890.00,1.00
5889.00,1.00
5888.00,1.00
5887.00,1.00
5886.00,1.01
5885.00,1.01
5884.00,1.01
5883.00,1.01
5882.00,1.01
5881.00,1.02
5880.00,1.02
5879.00,1.02
5878.00,1.02
5877.00,1.03
5876.00,1.03
5875.00,1.03
5874.00,1.03
5873.00,1.04
5872.00,1.04
5871.00,1.04
5870.00,1.04
5869.00,1.05
5868.00,1.05
5867.00,1.05
5866.00,1.05
5865.00,1.05
5864.00,1.06
5863.00,1.06
5862.00,1.06
5861.00,1.06
5860.00,1.06
5859.00,1.06
5858.00,1.06
5857.00,1.07
5856.00,1.07
5855.00,1.07
5854.00,1.07
5853.00,1.07
5852.00,1.07
5851.00,1.07
5850.00,1.07
5849.00,1.07
5848.00,1.07
5847.00,1.07
5846.00,1.07
5845.00,1.07
5844.00,1.07
5843.00,1.07
5842.00,1.07
5841.00,1.07
5840.00,1.07
5839.00,1.07
5838.00,1.07
5837.00,1.07
5836.00,1.07
5835.00,1.07
5834.00,1.07
5833.00,1.07
5832.00,1.07
5831.00,1.07
5830.00,1.07
5829.00,1.07
5828.00,1.07
5827.00,1.07
5826.00,1.07
5825.00,1.07
5824.00,1.07
5823.00,1.07
5822.00,1.07
5821.00,1.07
5820.00,1.07
5819.00,1.07
5818.00,1.07
5817.00,1.07
5816.00,1.07
5815.00,1.07
5814.00,1.07
5813.00,1.07
5812.00,1.07
5811.00,1.07
5810.00,1.07
5809.00,1.07
5808.00,1.07
5807.00,1.07
5806.00,1.07
5805.00,1.06
5804.00,1.06
5803.00,1.06
5802.00,1.06
5801.00,1.06
5800.00,1.06
5799.00,1.06
5798.00,1.06
5797.00,1.06
5796.00,1.06
5795.00,1.06
5794.00,1.06
5793.00,1.06
5792.00,1.05
5791.00,1.05
5790.00,1.05
5789.00,1.05
5788.00,1.05
5787.00,1.05
5786.00,1.04
5785.00,1.04
5784.00,1.04
5783.00,1.04
5782.00,1.04
5781.00,1.03
5780.00,1.03
5779.00,1.03
5778.00,1.03
5777.00,1.03
5776.00,1.03
5775.00,1.03
5774.00,1.03
5773.00,1.03
5772.00,1.02
5771.00,1.02
5770.00,1.02
5769.00,1.03
5768.00,1.03
5767.00,1.03
5766.00,1.03
5765.00,1.03
5764.00,1.03
5763.00,1.03
5762.00,1.03
5761.00,1.04
5760.00,1.04
5759.00,1.04
5758.00,1.04
5757.00,1.05
5756.00,1.05
5755.00,1.05
5754.00,1.06
5753.00,1.06
5752.00,1.06
5751.00,1.07
5750.00,1.07
5749.00,1.07
5748.00,1.08
5747.00,1.08
5746.00,1.08
5745.00,1.09
5744.00,1.09
5743.00,1.09
5742.00,1.09
5741.00,1.10
5740.00,1.10
5739.00,1.10
5738.00,1.10
5737.00,1.10
5736.00,1.11
5735.00,1.11
5734.00,1.11
5733.00,1.11
5732.00,1.11
5731.00,1.11
5730.00,1.11
5729.00,1.11
5728.00,1.11
5727.00,1.11
5726.00,1.11
5725.00,1.12
5724.00,1.12
5723.00,1.12
5722.00,1.12
5721.00,1.12
5720.00,1.12
5719.00,1.12
5718.00,1.12
5717.00,1.12
5716.00,1.12
5715.00,1.12
5714.00,1.12
5713.00,1.12
5712.00,1.12
5711.00,1.12
5710.00,1.12
5709.00,1.12
5708.00,1.12
5707.00,1.12
5706.00,1.11
5705.00,1.11
5704.00,1.11
5703.00,1.11
5702.00,1.11
5701.00,1.11
5700.00,1.11
5699.00,1.11
5698.00,1.11
5697.00,1.11
5696.00,1.10
5695.00,1.10
5694.00,1.10
5693.00,1.10
5692.00,1.10
5691.00,1.10
5690.00,1.10
5689.00,1.10
5688.00,1.09
5687.00,1.09
5686.00,1.09
5685.00,1.09
5684.00,1.09
5683.00,1.09
5682.00,1.09
5681.00,1.09
5680.00,1.09
5679.00,1.09
5678.00,1.09
5677.00,1.09
5676.00,1.09
5675.00,1.09
5674.00,1.09
5673.00,1.09
5672.00,1.09
5671.00,1.09
5670.00,1.09
5669.00,1.09
5668.00,1.09
5667.00,1.09
5666.00,1.09
5665.00,1.09
5664.00,1.09
5663.00,1.10
5662.00,1.10
5661.00,1.10
5660.00,1.10
5659.00,1.10
5658.00,1.10
5657.00,1.10
5656.00,1.10
5655.00,1.11
5654.00,1.11
5653.00,1.11
5652.00,1.11
5651.00,1.11
5650.00,1.11
5649.00,1.12
5648.00,1.12
5647.00,1.12
5646.00,1.12
5645.00,1.12
5644.00,1.12
5643.00,1.12
5642.00,1.12
5641.00,1.13
5640.00,1.13
5639.00,1.13
5638.00,1.13
5637.00,1.13
5636.00,1.13
5635.00,1.13
5634.00,1.13
5633.00,1.13
5632.00,1.14
5631.00,1.14
5630.00,1.14
5629.00,1.14
5628.00,1.14
5627.00,1.14
5626.00,1.14
5625.00,1.14
5624.00,1.14
5623.00,1.15
5622.00,1.15
5621.00,1.15
5620.00,1.15
5619.00,1.15
5618.00,1.15
5617.00,1.15
5616.00,1.16
5615.00,1.16
5614.00,1.16
5613.00,1.16
5612.00,1.16
5611.00,1.16
5610.00,1.17
5609.00,1.17
5608.00,1.17
5607.00,1.17
5606.00,1.17
5605.00,1.17
5604.00,1.18
5603.00,1.18
5602.00,1.18
5601.00,1.18
5600.00,1.18
5599.00,1.18
5598.00,1.19
5597.00,1.19
5596.00,1.19
5595.00,1.19
5594.00,1.19
5593.00,1.19
5592.00,1.19
5591.00,1.19
5590.00,1.19
5589.00,1.20
5588.00,1.20
5587.00,1.20
5586.00,1.20
5585.00,1.20
5584.00,1.20
5583.00,1.20
5582.00,1.20
5581.00,1.20
5580.00,1.20
5579.00,1.21
5578.00,1.21
5577.00,1.21
5576.00,1.21
5575.00,1.21
5574.00,1.21
5573.00,1.21
5572.00,1.21
5571.00,1.21
5570.00,1.21
5569.00,1.22
5568.00,1.22
5567.00,1.22
5566.00,1.22
5565.00,1.22
5564.00,1.22
5563.00,1.22
5562.00,1.22
5561.00,1.22
5560.00,1.22
5559.00,1.23
5558.00,1.23
5557.00,1.23
5556.00,1.23
5555.00,1.23
5554.00,1.23
5553.00,1.23
5552.00,1.24
5551.00,1.24
5550.00,1.24
5549.00,1.24
5548.00,1.24
5547.00,1.24
5546.00,1.24
5545.00,1.24
5544.00,1.25
5543.00,1.25
5542.00,1.25
5541.00,1.25
5540.00,1.25
5539.00,1.25
5538.00,1.25
5537.00,1.25
5536.00,1.25
5535.00,1.25
5534.00,1.25
5533.00,1.26
5532.00,1.26
5531.00,1.26
5530.00,1.26
5529.00,1.26
5528.00,1.26
5527.00,1.26
5526.00,1.26
5525.00,1.26
5524.00,1.26
5523.00,1.26
5522.00,1.26
5521.00,1.26
5520.00,1.26
5519.00,1.27
5518.00,1.27
5517.00,1.27
5516.00,1.27
5515.00,1.27
5514.00,1.27
5513.00,1.27
5512.00,1.27
5511.00,1.27
5510.00,1.27
5509.00,1.27
5508.00,1.27
5507.00,1.27
5506.00,1.27
5505.00,1.27
5504.00,1.27
5503.00,1.27
5502.00,1.27
5501.00,1.27
5500.00,1.27
5499.00,1.27
5498.00,1.28
5497.00,1.28
5496.00,1.28
5495.00,1.28
5494.00,1.28
5493.00,1.28
5492.00,1.28
5491.00,1.28
5490.00,1.28
5489.00,1.28
5488.00,1.28
5487.00,1.29
5486.00,1.29
5485.00,1.29
5484.00,1.29
5483.00,1.29
5482.00,1.29
5481.00,1.29
5480.00,1.29
5479.00,1.29
5478.00,1.30
5477.00,1.30
5476.00,1.30
5475.00,1.30
5474.00,1.30
5473.00,1.30
5472.00,1.30
5471.00,1.30
5470.00,1.30
5469.00,1.30
5468.00,1.30
5467.00,1.30
5466.00,1.31
5465.00,1.31
5464.00,1.31
5463.00,1.31
5462.00,1.31
5461.00,1.31
5460.00,1.31
5459.00,1.31
5458.00,1.31
5457.00,1.32
5456.00,1.32
5455.00,1.32
5454.00,1.32
5453.00,1.32
5452.00,1.32
5451.00,1.32
5450.00,1.32
5449.00,1.32
5448.00,1.32
5447.00,1.32
5446.00,1.32
5445.00,1.32
5444.00,1.32
5443.00,1.32
5442.00,1.32
5441.00,1.32
5440.00,1.32
5439.00,1.32
5438.00,1.32
5437.00,1.32
5436.00,1.32
5435.00,1.32
5434.00,1.32
5433.00,1.32
5432.00,1.32
5431.00,1.32
5430.00,1.32
5429.00,1.32
5428.00,1.32
5427.00,1.32
5426.00,1.32
5425.00,1.32
5424.00,1.32
5423.00,1.32
5422.00,1.32
5421.00,1.32
5420.00,1.32
5419.00,1.32
5418.00,1.32
5417.00,1.32
5416.00,1.32
5415.00,1.32
5414.00,1.32
5413.00,1.32
5412.00,1.32
5411.00,1.32
5410.00,1.32
5409.00,1.32
5408.00,1.32
5407.00,1.32
5406.00,1.32
5405.00,1.32
5404.00,1.32
5403.00,1.32
5402.00,1.32
5401.00,1.32
5400.00,1.32
5399.00,1.32
5398.00,1.32
5397.00,1.32
5396.00,1.32
5395.00,1.32
5394.00,1.32
5393.00,1.32
5392.00,1.32
5391.00,1.31
5390.00,1.31
5389.00,1.31
5388.00,1.31
5387.00,1.31
5386.00,1.31
5385.00,1.30
5384.00,1.30
5383.00,1.30
5382.00,1.30
5381.00,1.30
5380.00,1.29
5379.00,1.29
5378.00,1.29
5377.00,1.29
5376.00,1.28
5375.00,1.28
5374.00,1.28
5373.00,1.27
5372.00,1.27
5371.00,1.27
5370.00,1.27
5369.00,1.26
5368.00,1.26
5367.00,1.25
5366.00,1.25
5365.00,1.25
5364.00,1.24
5363.00,1.24
5362.00,1.23
5361.00,1.23
5360.00,1.22
5359.00,1.22
5358.00,1.21
5357.00,1.20
5356.00,1.20
5355.00,1.19
5354.00,1.18
5353.00,1.18
5352.00,1.17
5351.00,1.16
5350.00,1.16
5349.00,1.15
5348.00,1.14
5347.00,1.13
5346.00,1.13
5345.00,1.12
5344.00,1.11
5343.00,1.10
5342.00,1.09
5341.00,1.08
5340.00,1.08
5339.00,1.07
5338.00,1.06
5337.00,1.05
5336.00,1.04
5335.00,1.03
5334.00,1.02
5333.00,1.02
5332.00,1.01
5331.00,1.00
5330.00,0.99
5329.00,0.98
5328.00,0.97
5327.00,0.97
5326.00,0.96
5325.00,0.95
5324.00,0.94
5323.00,0.93
5322.00,0.93
5321.00,0.92
5320.00,0.91
5319.00,0.90
5318.00,0.89
5317.00,0.89
5316.00,0.88
5315.00,0.87
5314.00,0.86
5313.00,0.86
5312.00,0.85
5311.00,0.84
5310.00,0.84
5309.00,0.83
5308.00,0.83
5307.00,0.82
5306.00,0.82
5305.00,0.81
5304.00,0.81
5303.00,0.80
5302.00,0.80
5301.00,0.79
5300.00,0.79
5299.00,0.79
5298.00,0.78
5297.00,0.78
5296.00,0.78
5295.00,0.78
5294.00,0.77
5293.00,0.77
5292.00,0.77
5291.00,0.77
5290.00,0.77
5289.00,0.76
5288.00,0.76
5287.00,0.76
5286.00,0.76
5285.00,0.76
5284.00,0.76
5283.00,0.76
5282.00,0.75
5281.00,0.75
5280.00,0.75
5279.00,0.75
5278.00,0.75
5277.00,0.75
5276.00,0.75
5275.00,0.75
5274.00,0.75
5273.00,0.75
5272.00,0.75
5271.00,0.75
5270.00,0.75
5269.00,0.75
5268.00,0.75
5267.00,0.75
5266.00,0.74
5265.00,0.74
5264.00,0.74
5263.00,0.74
5262.00,0.74
5261.00,0.74
5260.00,0.74
5259.00,0.74
5258.00,0.74
5257.00,0.74
5256.00,0.74
5255.00,0.74
5254.00,0.74
5253.00,0.74
5252.00,0.74
5251.00,0.74
5250.00,0.74
5249.00,0.74
5248.00,0.74
5247.00,0.74
5246.00,0.74
5245.00,0.74
5244.00,0.74
5243.00,0.74
5242.00,0.74
5241.00,0.74
5240.00,0.74
5239.00,0.74
5238.00,0.74
5237.00,0.74
5236.00,0.74
5235.00,0.74
5234.00,0.74
5233.00,0.74
5232.00,0.74
5231.00,0.74
5230.00,0.74
5229.00,0.74
5228.00,0.74
5227.00,0.74
5226.00,0.74
5225.00,0.74
5224.00,0.75
5223.00,0.75
5222.00,0.75
5221.00,0.75
5220.00,0.75
5219.00,0.75
5218.00,0.75
5217.00,0.75
5216.00,0.75
5215.00,0.75
5214.00,0.75
5213.00,0.75
5212.00,0.75
5211.00,0.75
5210.00,0.75
5209.00,0.75
5208.00,0.75
5207.00,0.75
5206.00,0.75
5205.00,0.75
5204.00,0.75
5203.00,0.75
5202.00,0.75
5201.00,0.75
5200.00,0.75
5199.00,0.75
5198.00,0.75
5197.00,0.75
5196.00,0.75
5195.00,0.76
5194.00,0.76
5193.00,0.76
5192.00,0.76
5191.00,0.76
5190.00,0.76
5189.00,0.76
5188.00,0.76
5187.00,0.76
5186.00,0.76
5185.00,0.76
5184.00,0.76
5183.00,0.76
5182.00,0.76
5181.00,0.76
5180.00,0.76
5179.00,0.76
5178.00,0.76
5177.00,0.76
5176.00,0.76
5175.00,0.76
5174.00,0.76
5173.00,0.76
5172.00,0.76
5171.00,0.76
5170.00,0.76
5169.00,0.76
5168.00,0.76
5167.00,0.76
5166.00,0.76
5165.00,0.76
5164.00,0.76
5163.00,0.76
5162.00,0.76
5161.00,0.76
5160.00,0.76
5159.00,0.76
5158.00,0.77
5157.00,0.77
5156.00,0.77
5155.00,0.77
5154.00,0.77
5153.00,0.77
5152.00,0.77
5151.00,0.77
5150.00,0.77
5149.00,0.77
5148.00,0.77
5147.00,0.77
5146.00,0.78
5145.00,0.78
5144.00,0.78
5143.00,0.78
5142.00,0.78
5141.00,0.78
5140.00,0.78
5139.00,0.78
5138.00,0.78
5137.00,0.78
5136.00,0.78
5135.00,0.78
5134.00,0.78
5133.00,0.78
5132.00,0.78
5131.00,0.78
5130.00,0.78
5129.00,0.79
5128.00,0.79
5127.00,0.79
5126.00,0.79
5125.00,0.79
5124.00,0.79
5123.00,0.79
5122.00,0.79
5121.00,0.79
5120.00,0.79
5119.00,0.79
5118.00,0.79
5117.00,0.79
5116.00,0.79
5115.00,0.79
5114.00,0.79
5113.00,0.79
5112.00,0.79
5111.00,0.79
5110.00,0.79
5109.00,0.79
5108.00,0.79
5107.00,0.80
5106.00,0.80
5105.00,0.80
5104.00,0.80
5103.00,0.80
5102.00,0.80
5101.00,0.80
5100.00,0.80
5099.00,0.80
5098.00,0.80
5097.00,0.80
5096.00,0.80
5095.00,0.80
5094.00,0.80
5093.00,0.80
5092.00,0.80
5091.00,0.80
5090.00,0.80
5089.00,0.80
5088.00,0.80
5087.00,0.80
5086.00,0.80
5085.00,0.80
5084.00,0.80
5083.00,0.80
5082.00,0.80
5081.00,0.80
5080.00,0.80
5079.00,0.80
5078.00,0.80
5077.00,0.80
5076.00,0.81
5075.00,0.81
5074.00,0.81
5073.00,0.81
5072.00,0.81
5071.00,0.81
5070.00,0.81
5069.00,0.81
5068.00,0.81
5067.00,0.81
5066.00,0.81
5065.00,0.81
5064.00,0.81
5063.00,0.81
5062.00,0.81
5061.00,0.81
5060.00,0.81
5059.00,0.81
5058.00,0.81
5057.00,0.81
5056.00,0.82
5055.00,0.82
5054.00,0.82
5053.00,0.82
5052.00,0.82
5051.00,0.82
5050.00,0.82
5049.00,0.82
5048.00,0.82
5047.00,0.82
5046.00,0.82
5045.00,0.82
5044.00,0.82
5043.00,0.82
5042.00,0.83
5041.00,0.83
5040.00,0.83
5039.00,0.83
5038.00,0.83
5037.00,0.83
5036.00,0.83
5035.00,0.83
5034.00,0.83
5033.00,0.83
5032.00,0.83
5031.00,0.83
5030.00,0.83
5029.00,0.84
5028.00,0.84
5027.00,0.84
5026.00,0.84
5025.00,0.84
5024.00,0.84
5023.00,0.84
5022.00,0.84
5021.00,0.84
5020.00,0.84
5019.00,0.84
5018.00,0.84
5017.00,0.84
5016.00,0.84
5015.00,0.84
5014.00,0.84
5013.00,0.84
5012.00,0.84
5011.00,0.84
5010.00,0.84
5009.00,0.84
5008.00,0.84
5007.00,0.84
5006.00,0.84
5005.00,0.84
5004.00,0.84
5003.00,0.85
5002.00,0.85
5001.00,0.85
5000.00,0.85
4999.00,0.85
4998.00,0.85
4997.00,0.85
4996.00,0.85
4995.00,0.85
4994.00,0.85
4993.00,0.85
4992.00,0.85
4991.00,0.85
4990.00,0.85
4989.00,0.85
4988.00,0.85
4987.00,0.85
4986.00,0.85
4985.00,0.86
4984.00,0.86
4983.00,0.86
4982.00,0.86
4981.00,0.86
4980.00,0.86
4979.00,0.86
4978.00,0.86
4977.00,0.86
4976.00,0.86
4975.00,0.87
4974.00,0.87
4973.00,0.87
4972.00,0.87
4971.00,0.87
4970.00,0.87
4969.00,0.87
4968.00,0.87
4967.00,0.87
4966.00,0.87
4965.00,0.88
4964.00,0.88
4963.00,0.88
4962.00,0.88
4961.00,0.88
4960.00,0.88
4959.00,0.88
4958.00,0.88
4957.00,0.88
4956.00,0.88
4955.00,0.88
4954.00,0.88
4953.00,0.88
4952.00,0.88
4951.00,0.88
4950.00,0.88
4949.00,0.88
4948.00,0.88
4947.00,0.89
4946.00,0.89
4945.00,0.89
4944.00,0.89
4943.00,0.89
4942.00,0.89
4941.00,0.89
4940.00,0.89
4939.00,0.89
4938.00,0.89
4937.00,0.89
4936.00,0.89
4935.00,0.90
4934.00,0.90
4933.00,0.90
4932.00,0.90
4931.00,0.90
4930.00,0.90
4929.00,0.90
4928.00,0.90
4927.00,0.90
4926.00,0.90
4925.00,0.90
4924.00,0.90
4923.00,0.90
4922.00,0.90
4921.00,0.90
4920.00,0.90
4919.00,0.90
4918.00,0.90
4917.00,0.91
4916.00,0.91
4915.00,0.91
4914.00,0.91
4913.00,0.91
4912.00,0.91
4911.00,0.91
4910.00,0.91
4909.00,0.91
4908.00,0.91
4907.00,0.91
4906.00,0.91
4905.00,0.91
4904.00,0.91
4903.00,0.91
4902.00,0.92
4901.00,0.92
4900.00,0.92
4899.00,0.92
4898.00,0.92
4897.00,0.92
4896.00,0.92
4895.00,0.92
4894.00,0.92
4893.00,0.92
4892.00,0.92
4891.00,0.92
4890.00,0.92
4889.00,0.92
4888.00,0.92
4887.00,0.92
4886.00,0.92
4885.00,0.92
4884.00,0.92
4883.00,0.92
4882.00,0.92
4881.00,0.92
4880.00,0.92
4879.00,0.92
4878.00,0.92
4877.00,0.92
4876.00,0.92
4875.00,0.93
4874.00,0.93
4873.00,0.93
4872.00,0.93
4871.00,0.93
4870.00,0.93
4869.00,0.93
4868.00,0.93
4867.00,0.93
4866.00,0.93
4865.00,0.93
4864.00,0.93
4863.00,0.93
4862.00,0.93
4861.00,0.93
4860.00,0.93
4859.00,0.93
4858.00,0.93
4857.00,0.93
4856.00,0.93
4855.00,0.93
4854.00,0.94
4853.00,0.94
4852.00,0.94
4851.00,0.94
4850.00,0.94
4849.00,0.94
4848.00,0.94
4847.00,0.94
4846.00,0.94
4845.00,0.94
4844.00,0.94
4843.00,0.94
4842.00,0.94
4841.00,0.94
4840.00,0.94
4839.00,0.94
4838.00,0.95
4837.00,0.95
4836.00,0.95
4835.00,0.95
4834.00,0.95
4833.00,0.95
4832.00,0.95
4831.00,0.95
4830.00,0.95
4829.00,0.95
4828.00,0.95
4827.00,0.95
4826.00,0.95
4825.00,0.95
4824.00,0.95
4823.00,0.95
4822.00,0.95
4821.00,0.95
4820.00,0.95
4819.00,0.95
4818.00,0.95
4817.00,0.95
4816.00,0.95
4815.00,0.96
4814.00,0.96
4813.00,0.96
4812.00,0.96
4811.00,0.96
4810.00,0.96
4809.00,0.96
4808.00,0.97
4807.00,0.97
4806.00,0.97
4805.00,0.97
4804.00,0.97
4803.00,0.98
4802.00,0.98
4801.00,0.98
4800.00,0.98
4799.00,0.98
4798.00,0.98
4797.00,0.98
4796.00,0.98
4795.00,0.98
4794.00,0.98
4793.00,0.99
4792.00,0.99
4791.00,0.99
4790.00,0.99
4789.00,0.99
4788.00,0.99
4787.00,0.99
4786.00,0.99
4785.00,0.99
4784.00,0.99
4783.00,0.99
4782.00,0.99
4781.00,0.99
4780.00,0.99
4779.00,1.00
4778.00,1.00
4777.00,1.00
4776.00,1.00
4775.00,1.00
4774.00,1.00
4773.00,1.00
4772.00,1.00
4771.00,1.00
4770.00,1.01
4769.00,1.01
4768.00,1.01
4767.00,1.01
4766.00,1.01
4765.00,1.01
4764.00,1.01
4763.00,1.01
4762.00,1.02
4761.00,1.02
4760.00,1.02
4759.00,1.02
4758.00,1.02
4757.00,1.02
4756.00,1.02
4755.00,1.02
4754.00,1.02
4753.00,1.02
4752.00,1.02
4751.00,1.03
4750.00,1.03
4749.00,1.03
4748.00,1.03
4747.00,1.03
4746.00,1.03
4745.00,1.03
4744.00,1.03
4743.00,1.03
4742.00,1.03
4741.00,1.03
4740.00,1.03
4739.00,1.04
4738.00,1.04
4737.00,1.04
4736.00,1.04
4735.00,1.04
4734.00,1.04
4733.00,1.04
4732.00,1.05
4731.00,1.05
4730.00,1.05
4729.00,1.05
4728.00,1.05
4727.00,1.05
4726.00,1.05
4725.00,1.06
4724.00,1.06
4723.00,1.06
4722.00,1.06
4721.00,1.06
4720.00,1.06
4719.00,1.06
4718.00,1.06
4717.00,1.07
4716.00,1.07
4715.00,1.07
4714.00,1.07
4713.00,1.07
4712.00,1.07
4711.00,1.07
4710.00,1.07
4709.00,1.08
4708.00,1.08
4707.00,1.08
4706.00,1.08
4705.00,1.08
4704.00,1.08
4703.00,1.08
4702.00,1.08
4701.00,1.09
4700.00,1.09
4699.00,1.09
4698.00,1.09
4697.00,1.09
4696.00,1.09
4695.00,1.09
4694.00,1.10
4693.00,1.10
4692.00,1.10
4691.00,1.10
4690.00,1.10
4689.00,1.10
4688.00,1.10
4687.00,1.10
4686.00,1.10
4685.00,1.10
4684.00,1.10
4683.00,1.10
4682.00,1.11
4681.00,1.11
4680.00,1.11
4679.00,1.11
4678.00,1.11
4677.00,1.11
4676.00,1.11
4675.00,1.11
4674.00,1.11
4673.00,1.11
4672.00,1.11
4671.00,1.12
4670.00,1.12
4669.00,1.12
4668.00,1.12
4667.00,1.12
4666.00,1.12
4665.00,1.12
4664.00,1.13
4663.00,1.13
4662.00,1.13
4661.00,1.13
4660.00,1.13
4659.00,1.13
4658.00,1.13
4657.00,1.13
4656.00,1.14
4655.00,1.14
4654.00,1.14
4653.00,1.14
4652.00,1.14
4651.00,1.14
4650.00,1.14
4649.00,1.14
4648.00,1.14
4647.00,1.14
4646.00,1.15
4645.00,1.15
4644.00,1.15
4643.00,1.15
4642.00,1.15
4641.00,1.15
4640.00,1.15
4639.00,1.15
4638.00,1.15
4637.00,1.15
4636.00,1.15
4635.00,1.15
4634.00,1.16
4633.00,1.16
4632.00,1.16
4631.00,1.16
4630.00,1.16
4629.00,1.16
4628.00,1.16
4627.00,1.16
4626.00,1.16
4625.00,1.16
4624.00,1.16
4623.00,1.16
4622.00,1.16
4621.00,1.16
4620.00,1.16
4619.00,1.16
4618.00,1.17
4617.00,1.17
4616.00,1.17
4615.00,1.17
4614.00,1.17
4613.00,1.17
4612.00,1.17
4611.00,1.18
4610.00,1.18
4609.00,1.18
4608.00,1.18
4607.00,1.18
4606.00,1.18
4605.00,1.18
4604.00,1.18
4603.00,1.18
4602.00,1.18
4601.00,1.19
4600.00,1.19
4599.00,1.19
4598.00,1.19
4597.00,1.19
4596.00,1.19
4595.00,1.19
4594.00,1.19
4593.00,1.19
4592.00,1.19
4591.00,1.19
4590.00,1.19
4589.00,1.19
4588.00,1.19
4587.00,1.20
4586.00,1.20
4585.00,1.20
4584.00,1.20
4583.00,1.20
4582.00,1.20
4581.00,1.20
4580.00,1.20
4579.00,1.20
4578.00,1.20
4577.00,1.20
4576.00,1.20
4575.00,1.20
4574.00,1.20
4573.00,1.21
4572.00,1.21
4571.00,1.21
4570.00,1.21
4569.00,1.21
4568.00,1.21
4567.00,1.21
4566.00,1.21
4565.00,1.21
4564.00,1.21
4563.00,1.21
4562.00,1.21
4561.00,1.21
4560.00,1.21
4559.00,1.21
4558.00,1.21
4557.00,1.21
4556.00,1.21
4555.00,1.21
4554.00,1.21
4553.00,1.21
4552.00,1.21
4551.00,1.22
4550.00,1.22
4549.00,1.22
4548.00,1.22
4547.00,1.22
4546.00,1.22
4545.00,1.22
4544.00,1.22
4543.00,1.22
4542.00,1.22
4541.00,1.22
4540.00,1.22
4539.00,1.23
4538.00,1.23
4537.00,1.23
4536.00,1.23
4535.00,1.23
4534.00,1.23
4533.00,1.23
4532.00,1.23
4531.00,1.23
4530.00,1.23
4529.00,1.23
4528.00,1.23
4527.00,1.24
4526.00,1.24
4525.00,1.24
4524.00,1.24
4523.00,1.24
4522.00,1.24
4521.00,1.24
4520.00,1.24
4519.00,1.24
4518.00,1.24
4517.00,1.24
4516.00,1.24
4515.00,1.24
4514.00,1.24
4513.00,1.24
4512.00,1.24
4511.00,1.24
4510.00,1.24
4509.00,1.24
4508.00,1.24
4507.00,1.24
4506.00,1.24
4505.00,1.24
4504.00,1.24
4503.00,1.24
4502.00,1.24
4501.00,1.24
4500.00,1.24
4499.00,1.24
4498.00,1.24
4497.00,1.24
4496.00,1.24
4495.00,1.24
4494.00,1.24
4493.00,1.24
4492.00,1.23
4491.00,1.23
4490.00,1.23
4489.00,1.23
4488.00,1.23
4487.00,1.23
4486.00,1.23
4485.00,1.23
4484.00,1.23
4483.00,1.23
4482.00,1.23
4481.00,1.23
4480.00,1.23
4479.00,1.22
4478.00,1.22
4477.00,1.22
4476.00,1.22
4475.00,1.22
4474.00,1.22
4473.00,1.22
4472.00,1.22
4471.00,1.21
4470.00,1.21
4469.00,1.21
4468.00,1.21
4467.00,1.21
4466.00,1.20
4465.00,1.20
4464.00,1.20
4463.00,1.20
4462.00,1.19
4461.00,1.19
4460.00,1.19
4459.00,1.19
4458.00,1.18
4457.00,1.18
4456.00,1.18
4455.00,1.18
4454.00,1.17
4453.00,1.17
4452.00,1.17
4451.00,1.17
4450.00,1.16
4449.00,1.16
4448.00,1.16
4447.00,1.16
4446.00,1.15
4445.00,1.15
4444.00,1.15
4443.00,1.15
4442.00,1.14
4441.00,1.14
4440.00,1.14
4439.00,1.14
4438.00,1.13
4437.00,1.13
4436.00,1.13
4435.00,1.13
4434.00,1.12
4433.00,1.12
4432.00,1.12
4431.00,1.12
4430.00,1.12
4429.00,1.12
4428.00,1.11
4427.00,1.11
4426.00,1.11
4425.00,1.11
4424.00,1.11
4423.00,1.11
4422.00,1.11
4421.00,1.11
4420.00,1.11
4419.00,1.11
4418.00,1.11
4417.00,1.11
4416.00,1.10
4415.00,1.10
4414.00,1.10
4413.00,1.10
4412.00,1.10
4411.00,1.10
4410.00,1.10
4409.00,1.11
4408.00,1.11
4407.00,1.11
4406.00,1.11
4405.00,1.11
4404.00,1.11
4403.00,1.11
4402.00,1.11
4401.00,1.11
4400.00,1.11
4399.00,1.11
4398.00,1.12
4397.00,1.12
4396.00,1.12
4395.00,1.12
4394.00,1.12
4393.00,1.12
4392.00,1.12
4391.00,1.12
4390.00,1.12
4389.00,1.12
4388.00,1.12
4387.00,1.12
4386.00,1.13
4385.00,1.13
4384.00,1.13
4383.00,1.13
4382.00,1.13
4381.00,1.13
4380.00,1.13
4379.00,1.13
4378.00,1.13
4377.00,1.13
4376.00,1.13
4375.00,1.13
4374.00,1.13
4373.00,1.13
4372.00,1.13
4371.00,1.13
4370.00,1.14
4369.00,1.14
4368.00,1.14
4367.00,1.14
4366.00,1.14
4365.00,1.14
4364.00,1.14
4363.00,1.14
4362.00,1.14
4361.00,1.14
4360.00,1.14
4359.00,1.14
4358.00,1.14
4357.00,1.14
4356.00,1.14
4355.00,1.14
4354.00,1.14
4353.00,1.14
4352.00,1.14
4351.00,1.14
4350.00,1.14
4349.00,1.14
4348.00,1.14
4347.00,1.14
4346.00,1.14
4345.00,1.14
4344.00,1.14
4343.00,1.14
4342.00,1.14
4341.00,1.14
4340.00,1.14
4339.00,1.14
4338.00,1.14
4337.00,1.14
4336.00,1.14
4335.00,1.14
4334.00,1.14
4333.00,1.14
4332.00,1.15
4331.00,1.15
4330.00,1.15
4329.00,1.15
4328.00,1.15
4327.00,1.15
4326.00,1.16
4325.00,1.16
4324.00,1.16
4323.00,1.16
4322.00,1.16
4321.00,1.16
4320.00,1.16
4319.00,1.17
4318.00,1.17
4317.00,1.17
4316.00,1.17
4315.00,1.17
4314.00,1.17
4313.00,1.17
4312.00,1.17
4311.00,1.18
4310.00,1.18
4309.00,1.18
4308.00,1.18
4307.00,1.18
4306.00,1.18
4305.00,1.18
4304.00,1.18
4303.00,1.18
4302.00,1.18
4301.00,1.18
4300.00,1.19
4299.00,1.19
4298.00,1.19
4297.00,1.19
4296.00,1.19
4295.00,1.19
4294.00,1.19
4293.00,1.19
4292.00,1.19
4291.00,1.19
4290.00,1.19
4289.00,1.19
4288.00,1.20
4287.00,1.20
4286.00,1.20
4285.00,1.20
4284.00,1.20
4283.00,1.20
4282.00,1.20
4281.00,1.20
4280.00,1.20
4279.00,1.20
4278.00,1.20
4277.00,1.20
4276.00,1.20
4275.00,1.20
4274.00,1.20
4273.00,1.20
4272.00,1.20
4271.00,1.20
4270.00,1.20
4269.00,1.20
4268.00,1.20
4267.00,1.20
4266.00,1.20
4265.00,1.20
4264.00,1.20
4263.00,1.20
4262.00,1.20
4261.00,1.20
4260.00,1.20
4259.00,1.20
4258.00,1.20
4257.00,1.20
4256.00,1.20
4255.00,1.20
4254.00,1.20
4253.00,1.20
4252.00,1.20
4251.00,1.20
4250.00,1.20
4249.00,1.20
4248.00,1.20
4247.00,1.20
4246.00,1.20
4245.00,1.20
4244.00,1.20
4243.00,1.20
4242.00,1.20
4241.00,1.20
4240.00,1.20
4239.00,1.21
4238.00,1.21
4237.00,1.21
4236.00,1.21
4235.00,1.21
4234.00,1.21
4233.00,1.21
4232.00,1.21
4231.00,1.21
4230.00,1.21
4229.00,1.22
4228.00,1.22
4227.00,1.22
4226.00,1.22
4225.00,1.22
4224.00,1.22
4223.00,1.22
4222.00,1.22
4221.00,1.22
4220.00,1.22
4219.00,1.23
4218.00,1.23
4217.00,1.23
4216.00,1.23
4215.00,1.23
4214.00,1.23
4213.00,1.23
4212.00,1.23
4211.00,1.23
4210.00,1.23
4209.00,1.23
4208.00,1.23
4207.00,1.23
4206.00,1.23
4205.00,1.23
4204.00,1.24
4203.00,1.24
4202.00,1.24
4201.00,1.24
4200.00,1.24
4199.00,1.24
4198.00,1.24
4197.00,1.24
4196.00,1.25
4195.00,1.25
4194.00,1.25
4193.00,1.25
4192.00,1.25
4191.00,1.25
4190.00,1.25
4189.00,1.25
4188.00,1.25
4187.00,1.25
4186.00,1.25
4185.00,1.25
4184.00,1.25
4183.00,1.25
4182.00,1.25
4181.00,1.25
4180.00,1.25
4179.00,1.25
4178.00,1.25
4177.00,1.25
4176.00,1.25
4175.00,1.25
4174.00,1.25
4173.00,1.25
4172.00,1.26
4171.00,1.26
4170.00,1.26
4169.00,1.26
4168.00,1.26
4167.00,1.26
4166.00,1.26
4165.00,1.26
4164.00,1.26
4163.00,1.26
4162.00,1.26
4161.00,1.26
4160.00,1.26
4159.00,1.26
4158.00,1.26
4157.00,1.26
4156.00,1.26
4155.00,1.26
4154.00,1.26
4153.00,1.26
4152.00,1.26
4151.00,1.26
4150.00,1.26
4149.00,1.26
4148.00,1.26
4147.00,1.26
4146.00,1.26
4145.00,1.26
4144.00,1.26
4143.00,1.26
4142.00,1.26
4141.00,1.26
4140.00,1.26
4139.00,1.27
4138.00,1.27
4137.00,1.27
4136.00,1.27
4135.00,1.27
4134.00,1.27
4133.00,1.27
4132.00,1.27
4131.00,1.27
4130.00,1.27
4129.00,1.27
4128.00,1.27
4127.00,1.27
4126.00,1.27
4125.00,1.27
4124.00,1.27
4123.00,1.27
4122.00,1.27
4121.00,1.27
4120.00,1.27
4119.00,1.28
4118.00,1.28
4117.00,1.28
4116.00,1.28
4115.00,1.28
4114.00,1.28
4113.00,1.28
4112.00,1.28
4111.00,1.28
4110.00,1.28
4109.00,1.29
4108.00,1.29
4107.00,1.29
4106.00,1.29
4105.00,1.29
4104.00,1.29
4103.00,1.29
4102.00,1.29
4101.00,1.29
4100.00,1.29
4099.00,1.29
4098.00,1.29
4097.00,1.29
4096.00,1.29
4095.00,1.29
4094.00,1.29
4093.00,1.29
4092.00,1.29
4091.00,1.29
4090.00,1.29
4089.00,1.29
4088.00,1.29
4087.00,1.29
4086.00,1.29
4085.00,1.29
4084.00,1.29
4083.00,1.29
4082.00,1.29
4081.00,1.29
4080.00,1.29
4079.00,1.29
4078.00,1.29
4077.00,1.29
4076.00,1.29
4075.00,1.29
4074.00,1.29
4073.00,1.30
4072.00,1.30
4071.00,1.30
4070.00,1.30
4069.00,1.30
4068.00,1.30
4067.00,1.30
4066.00,1.30
4065.00,1.30
4064.00,1.30
4063.00,1.30
4062.00,1.30
4061.00,1.30
4060.00,1.30
4059.00,1.30
4058.00,1.30
4057.00,1.30
4056.00,1.30
4055.00,1.30
4054.00,1.30
4053.00,1.30
4052.00,1.30
4051.00,1.30
4050.00,1.30
4049.00,1.30
4048.00,1.30
4047.00,1.30
4046.00,1.30
4045.00,1.30
4044.00,1.30
4043.00,1.30
4042.00,1.30
4041.00,1.30
4040.00,1.30
4039.00,1.30
4038.00,1.30
4037.00,1.30
4036.00,1.30
4035.00,1.30
4034.00,1.30
4033.00,1.31
4032.00,1.31
4031.00,1.31
4030.00,1.31
4029.00,1.31
4028.00,1.31
4027.00,1.31
4026.00,1.31
4025.00,1.31
4024.00,1.31
4023.00,1.31
4022.00,1.31
4021.00,1.31
4020.00,1.31
4019.00,1.32
4018.00,1.32
4017.00,1.32
4016.00,1.32
4015.00,1.32
4014.00,1.32
4013.00,1.32
4012.00,1.32
4011.00,1.32
4010.00,1.32
4009.00,1.32
4008.00,1.32
4007.00,1.32
4006.00,1.32
4005.00,1.32
4004.00,1.32
4003.00,1.32
4002.00,1.32
4001.00,1.32
4000.00,1.32
