创建为新数据集,样品 004 用户 Administrator 日期 星期二, 十月 31 2017
cm-1,%T
10000.00,1.44
9999.00,1.44
9998.00,1.43
9997.00,1.43
9996.00,1.43
9995.00,1.43
9994.00,1.42
9993.00,1.42
9992.00,1.42
9991.00,1.42
9990.00,1.42
9989.00,1.42
9988.00,1.42
9987.00,1.42
9986.00,1.42
9985.00,1.42
9984.00,1.42
9983.00,1.42
9982.00,1.42
9981.00,1.42
9980.00,1.42
9979.00,1.42
9978.00,1.42
9977.00,1.42
9976.00,1.42
9975.00,1.41
9974.00,1.41
9973.00,1.41
9972.00,1.41
9971.00,1.41
9970.00,1.40
9969.00,1.40
9968.00,1.40
9967.00,1.40
9966.00,1.40
9965.00,1.40
9964.00,1.40
9963.00,1.40
9962.00,1.41
9961.00,1.41
9960.00,1.41
9959.00,1.41
9958.00,1.41
9957.00,1.42
9956.00,1.42
9955.00,1.42
9954.00,1.42
9953.00,1.42
9952.00,1.42
9951.00,1.42
9950.00,1.42
9949.00,1.42
9948.00,1.42
9947.00,1.42
9946.00,1.42
9945.00,1.42
9944.00,1.42
9943.00,1.42
9942.00,1.43
9941.00,1.43
9940.00,1.43
9939.00,1.43
9938.00,1.43
9937.00,1.43
9936.00,1.43
9935.00,1.43
9934.00,1.43
9933.00,1.43
9932.00,1.43
9931.00,1.43
9930.00,1.43
9929.00,1.43
9928.00,1.43
9927.00,1.43
9926.00,1.43
9925.00,1.43
9924.00,1.43
9923.00,1.42
9922.00,1.42
9921.00,1.42
9920.00,1.42
9919.00,1.42
9918.00,1.42
9917.00,1.41
9916.00,1.41
9915.00,1.41
9914.00,1.41
9913.00,1.41
9912.00,1.41
9911.00,1.40
9910.00,1.40
9909.00,1.40
9908.00,1.40
9907.00,1.40
9906.00,1.40
9905.00,1.40
9904.00,1.40
9903.00,1.40
9902.00,1.40
9901.00,1.40
9900.00,1.40
9899.00,1.40
9898.00,1.40
9897.00,1.40
9896.00,1.40
9895.00,1.40
9894.00,1.40
9893.00,1.40
9892.00,1.40
9891.00,1.40
9890.00,1.40
9889.00,1.40
9888.00,1.40
9887.00,1.40
9886.00,1.40
9885.00,1.39
9884.00,1.39
9883.00,1.39
9882.00,1.39
9881.00,1.40
9880.00,1.40
9879.00,1.40
9878.00,1.40
9877.00,1.40
9876.00,1.40
9875.00,1.40
9874.00,1.40
9873.00,1.40
9872.00,1.40
9871.00,1.40
9870.00,1.40
9869.00,1.40
9868.00,1.40
9867.00,1.39
9866.00,1.39
9865.00,1.39
9864.00,1.39
9863.00,1.39
9862.00,1.39
9861.00,1.39
9860.00,1.39
9859.00,1.39
9858.00,1.39
9857.00,1.39
9856.00,1.39
9855.00,1.39
9854.00,1.39
9853.00,1.39
9852.00,1.40
9851.00,1.40
9850.00,1.40
9849.00,1.40
9848.00,1.41
9847.00,1.41
9846.00,1.41
9845.00,1.41
9844.00,1.41
9843.00,1.41
9842.00,1.42
9841.00,1.42
9840.00,1.42
9839.00,1.42
9838.00,1.42
9837.00,1.42
9836.00,1.42
9835.00,1.42
9834.00,1.42
9833.00,1.43
9832.00,1.43
9831.00,1.43
9830.00,1.43
9829.00,1.43
9828.00,1.43
9827.00,1.43
9826.00,1.43
9825.00,1.43
9824.00,1.43
9823.00,1.43
9822.00,1.43
9821.00,1.43
9820.00,1.43
9819.00,1.42
9818.00,1.42
9817.00,1.42
9816.00,1.42
9815.00,1.42
9814.00,1.41
9813.00,1.41
9812.00,1.41
9811.00,1.41
9810.00,1.40
9809.00,1.40
9808.00,1.40
9807.00,1.40
9806.00,1.40
9805.00,1.40
9804.00,1.40
9803.00,1.40
9802.00,1.40
9801.00,1.40
9800.00,1.40
9799.00,1.40
9798.00,1.40
9797.00,1.40
9796.00,1.40
9795.00,1.40
9794.00,1.40
9793.00,1.40
9792.00,1.40
9791.00,1.40
9790.00,1.40
9789.00,1.40
9788.00,1.40
9787.00,1.40
9786.00,1.40
9785.00,1.40
9784.00,1.40
9783.00,1.40
9782.00,1.40
9781.00,1.41
9780.00,1.41
9779.00,1.41
9778.00,1.41
9777.00,1.41
9776.00,1.41
9775.00,1.41
9774.00,1.41
9773.00,1.41
9772.00,1.41
9771.00,1.41
9770.00,1.41
9769.00,1.41
9768.00,1.41
9767.00,1.41
9766.00,1.41
9765.00,1.40
9764.00,1.40
9763.00,1.40
9762.00,1.40
9761.00,1.40
9760.00,1.39
9759.00,1.39
9758.00,1.39
9757.00,1.39
9756.00,1.39
9755.00,1.38
9754.00,1.38
9753.00,1.38
9752.00,1.38
9751.00,1.38
9750.00,1.38
9749.00,1.38
9748.00,1.38
9747.00,1.38
9746.00,1.38
9745.00,1.38
9744.00,1.39
9743.00,1.39
9742.00,1.39
9741.00,1.39
9740.00,1.39
9739.00,1.40
9738.00,1.40
9737.00,1.40
9736.00,1.40
9735.00,1.40
9734.00,1.41
9733.00,1.41
9732.00,1.41
9731.00,1.41
9730.00,1.41
9729.00,1.41
9728.00,1.41
9727.00,1.42
9726.00,1.42
9725.00,1.42
9724.00,1.42
9723.00,1.42
9722.00,1.42
9721.00,1.42
9720.00,1.43
9719.00,1.43
9718.00,1.43
9717.00,1.43
9716.00,1.43
9715.00,1.43
9714.00,1.43
9713.00,1.43
9712.00,1.43
9711.00,1.43
9710.00,1.43
9709.00,1.43
9708.00,1.43
9707.00,1.43
9706.00,1.43
9705.00,1.43
9704.00,1.43
9703.00,1.43
9702.00,1.43
9701.00,1.43
9700.00,1.42
9699.00,1.42
9698.00,1.42
9697.00,1.42
9696.00,1.42
9695.00,1.42
9694.00,1.42
9693.00,1.42
9692.00,1.42
9691.00,1.42
9690.00,1.42
9689.00,1.42
9688.00,1.42
9687.00,1.42
9686.00,1.43
9685.00,1.43
9684.00,1.43
9683.00,1.43
9682.00,1.43
9681.00,1.43
9680.00,1.43
9679.00,1.43
9678.00,1.43
9677.00,1.43
9676.00,1.43
9675.00,1.43
9674.00,1.43
9673.00,1.43
9672.00,1.43
9671.00,1.42
9670.00,1.42
9669.00,1.42
9668.00,1.42
9667.00,1.42
9666.00,1.42
9665.00,1.42
9664.00,1.42
9663.00,1.42
9662.00,1.42
9661.00,1.42
9660.00,1.42
9659.00,1.42
9658.00,1.41
9657.00,1.41
9656.00,1.41
9655.00,1.41
9654.00,1.41
9653.00,1.41
9652.00,1.41
9651.00,1.41
9650.00,1.41
9649.00,1.41
9648.00,1.41
9647.00,1.42
9646.00,1.42
9645.00,1.42
9644.00,1.42
9643.00,1.42
9642.00,1.42
9641.00,1.42
9640.00,1.42
9639.00,1.42
9638.00,1.42
9637.00,1.42
9636.00,1.42
9635.00,1.41
9634.00,1.41
9633.00,1.41
9632.00,1.41
9631.00,1.41
9630.00,1.41
9629.00,1.41
9628.00,1.41
9627.00,1.40
9626.00,1.40
9625.00,1.40
9624.00,1.40
9623.00,1.40
9622.00,1.39
9621.00,1.39
9620.00,1.39
9619.00,1.39
9618.00,1.39
9617.00,1.38
9616.00,1.38
9615.00,1.38
9614.00,1.38
9613.00,1.38
9612.00,1.37
9611.00,1.37
9610.00,1.37
9609.00,1.37
9608.00,1.37
9607.00,1.37
9606.00,1.37
9605.00,1.37
9604.00,1.37
9603.00,1.37
9602.00,1.37
9601.00,1.37
9600.00,1.37
9599.00,1.37
9598.00,1.37
9597.00,1.37
9596.00,1.37
9595.00,1.38
9594.00,1.38
9593.00,1.38
9592.00,1.38
9591.00,1.38
9590.00,1.38
9589.00,1.39
9588.00,1.39
9587.00,1.39
9586.00,1.39
9585.00,1.39
9584.00,1.39
9583.00,1.40
9582.00,1.40
9581.00,1.40
9580.00,1.40
9579.00,1.40
9578.00,1.40
9577.00,1.40
9576.00,1.41
9575.00,1.41
9574.00,1.41
9573.00,1.41
9572.00,1.41
9571.00,1.41
9570.00,1.41
9569.00,1.41
9568.00,1.41
9567.00,1.41
9566.00,1.41
9565.00,1.41
9564.00,1.41
9563.00,1.41
9562.00,1.41
9561.00,1.41
9560.00,1.41
9559.00,1.41
9558.00,1.41
9557.00,1.41
9556.00,1.41
9555.00,1.41
9554.00,1.41
9553.00,1.41
9552.00,1.41
9551.00,1.41
9550.00,1.41
9549.00,1.41
9548.00,1.41
9547.00,1.41
9546.00,1.41
9545.00,1.41
9544.00,1.41
9543.00,1.41
9542.00,1.41
9541.00,1.41
9540.00,1.41
9539.00,1.41
9538.00,1.42
9537.00,1.42
9536.00,1.42
9535.00,1.42
9534.00,1.42
9533.00,1.42
9532.00,1.42
9531.00,1.42
9530.00,1.42
9529.00,1.42
9528.00,1.42
9527.00,1.42
9526.00,1.42
9525.00,1.42
9524.00,1.42
9523.00,1.42
9522.00,1.42
9521.00,1.42
9520.00,1.42
9519.00,1.42
9518.00,1.42
9517.00,1.42
9516.00,1.42
9515.00,1.42
9514.00,1.42
9513.00,1.42
9512.00,1.42
9511.00,1.42
9510.00,1.42
9509.00,1.42
9508.00,1.42
9507.00,1.42
9506.00,1.42
9505.00,1.42
9504.00,1.42
9503.00,1.42
9502.00,1.42
9501.00,1.42
9500.00,1.42
9499.00,1.42
9498.00,1.42
9497.00,1.42
9496.00,1.42
9495.00,1.42
9494.00,1.41
9493.00,1.41
9492.00,1.41
9491.00,1.41
9490.00,1.40
9489.00,1.40
9488.00,1.40
9487.00,1.40
9486.00,1.40
9485.00,1.39
9484.00,1.39
9483.00,1.39
9482.00,1.39
9481.00,1.39
9480.00,1.39
9479.00,1.39
9478.00,1.39
9477.00,1.39
9476.00,1.40
9475.00,1.40
9474.00,1.40
9473.00,1.40
9472.00,1.41
9471.00,1.41
9470.00,1.41
9469.00,1.42
9468.00,1.42
9467.00,1.42
9466.00,1.42
9465.00,1.43
9464.00,1.43
9463.00,1.43
9462.00,1.43
9461.00,1.43
9460.00,1.43
9459.00,1.43
9458.00,1.43
9457.00,1.43
9456.00,1.43
9455.00,1.43
9454.00,1.43
9453.00,1.43
9452.00,1.42
9451.00,1.42
9450.00,1.42
9449.00,1.42
9448.00,1.41
9447.00,1.41
9446.00,1.41
9445.00,1.41
9444.00,1.40
9443.00,1.40
9442.00,1.40
9441.00,1.40
9440.00,1.40
9439.00,1.40
9438.00,1.40
9437.00,1.40
9436.00,1.40
9435.00,1.40
9434.00,1.40
9433.00,1.40
9432.00,1.40
9431.00,1.41
9430.00,1.41
9429.00,1.41
9428.00,1.41
9427.00,1.41
9426.00,1.41
9425.00,1.41
9424.00,1.41
9423.00,1.41
9422.00,1.41
9421.00,1.41
9420.00,1.41
9419.00,1.41
9418.00,1.41
9417.00,1.42
9416.00,1.42
9415.00,1.42
9414.00,1.42
9413.00,1.42
9412.00,1.42
9411.00,1.42
9410.00,1.42
9409.00,1.42
9408.00,1.42
9407.00,1.42
9406.00,1.42
9405.00,1.42
9404.00,1.42
9403.00,1.42
9402.00,1.42
9401.00,1.42
9400.00,1.42
9399.00,1.41
9398.00,1.41
9397.00,1.41
9396.00,1.41
9395.00,1.41
9394.00,1.41
9393.00,1.41
9392.00,1.40
9391.00,1.40
9390.00,1.40
9389.00,1.40
9388.00,1.40
9387.00,1.40
9386.00,1.40
9385.00,1.40
9384.00,1.40
9383.00,1.40
9382.00,1.40
9381.00,1.40
9380.00,1.40
9379.00,1.40
9378.00,1.40
9377.00,1.40
9376.00,1.40
9375.00,1.40
9374.00,1.40
9373.00,1.40
9372.00,1.40
9371.00,1.40
9370.00,1.40
9369.00,1.40
9368.00,1.40
9367.00,1.40
9366.00,1.41
9365.00,1.41
9364.00,1.41
9363.00,1.41
9362.00,1.41
9361.00,1.42
9360.00,1.42
9359.00,1.42
9358.00,1.42
9357.00,1.42
9356.00,1.42
9355.00,1.42
9354.00,1.42
9353.00,1.42
9352.00,1.42
9351.00,1.42
9350.00,1.42
9349.00,1.42
9348.00,1.42
9347.00,1.41
9346.00,1.41
9345.00,1.41
9344.00,1.41
9343.00,1.41
9342.00,1.41
9341.00,1.41
9340.00,1.41
9339.00,1.41
9338.00,1.41
9337.00,1.41
9336.00,1.41
9335.00,1.41
9334.00,1.41
9333.00,1.41
9332.00,1.41
9331.00,1.41
9330.00,1.41
9329.00,1.42
9328.00,1.42
9327.00,1.42
9326.00,1.42
9325.00,1.42
9324.00,1.42
9323.00,1.42
9322.00,1.42
9321.00,1.42
9320.00,1.42
9319.00,1.42
9318.00,1.42
9317.00,1.42
9316.00,1.42
9315.00,1.42
9314.00,1.42
9313.00,1.42
9312.00,1.42
9311.00,1.41
9310.00,1.41
9309.00,1.41
9308.00,1.41
9307.00,1.41
9306.00,1.41
9305.00,1.41
9304.00,1.41
9303.00,1.41
9302.00,1.41
9301.00,1.41
9300.00,1.41
9299.00,1.40
9298.00,1.40
9297.00,1.41
9296.00,1.41
9295.00,1.41
9294.00,1.41
9293.00,1.41
9292.00,1.41
9291.00,1.41
9290.00,1.41
9289.00,1.41
9288.00,1.41
9287.00,1.41
9286.00,1.42
9285.00,1.42
9284.00,1.42
9283.00,1.42
9282.00,1.42
9281.00,1.42
9280.00,1.42
9279.00,1.42
9278.00,1.42
9277.00,1.42
9276.00,1.42
9275.00,1.42
9274.00,1.42
9273.00,1.42
9272.00,1.42
9271.00,1.42
9270.00,1.42
9269.00,1.42
9268.00,1.43
9267.00,1.43
9266.00,1.43
9265.00,1.43
9264.00,1.43
9263.00,1.43
9262.00,1.43
9261.00,1.43
9260.00,1.43
9259.00,1.43
9258.00,1.43
9257.00,1.43
9256.00,1.43
9255.00,1.43
9254.00,1.43
9253.00,1.42
9252.00,1.42
9251.00,1.42
9250.00,1.42
9249.00,1.41
9248.00,1.41
9247.00,1.41
9246.00,1.41
9245.00,1.41
9244.00,1.41
9243.00,1.41
9242.00,1.41
9241.00,1.40
9240.00,1.40
9239.00,1.40
9238.00,1.40
9237.00,1.40
9236.00,1.40
9235.00,1.40
9234.00,1.40
9233.00,1.40
9232.00,1.40
9231.00,1.40
9230.00,1.40
9229.00,1.40
9228.00,1.40
9227.00,1.40
9226.00,1.40
9225.00,1.40
9224.00,1.40
9223.00,1.40
9222.00,1.40
9221.00,1.41
9220.00,1.41
9219.00,1.41
9218.00,1.41
9217.00,1.41
9216.00,1.42
9215.00,1.42
9214.00,1.42
9213.00,1.42
9212.00,1.42
9211.00,1.42
9210.00,1.43
9209.00,1.43
9208.00,1.43
9207.00,1.43
9206.00,1.43
9205.00,1.43
9204.00,1.43
9203.00,1.43
9202.00,1.43
9201.00,1.43
9200.00,1.43
9199.00,1.43
9198.00,1.43
9197.00,1.43
9196.00,1.43
9195.00,1.43
9194.00,1.43
9193.00,1.43
9192.00,1.43
9191.00,1.43
9190.00,1.43
9189.00,1.43
9188.00,1.43
9187.00,1.43
9186.00,1.43
9185.00,1.43
9184.00,1.42
9183.00,1.42
9182.00,1.42
9181.00,1.42
9180.00,1.42
9179.00,1.42
9178.00,1.42
9177.00,1.42
9176.00,1.42
9175.00,1.42
9174.00,1.42
9173.00,1.42
9172.00,1.42
9171.00,1.42
9170.00,1.42
9169.00,1.42
9168.00,1.41
9167.00,1.41
9166.00,1.41
9165.00,1.41
9164.00,1.41
9163.00,1.41
9162.00,1.41
9161.00,1.41
9160.00,1.41
9159.00,1.41
9158.00,1.41
9157.00,1.42
9156.00,1.42
9155.00,1.42
9154.00,1.42
9153.00,1.42
9152.00,1.42
9151.00,1.42
9150.00,1.42
9149.00,1.41
9148.00,1.41
9147.00,1.41
9146.00,1.41
9145.00,1.41
9144.00,1.41
9143.00,1.41
9142.00,1.41
9141.00,1.41
9140.00,1.41
9139.00,1.41
9138.00,1.41
9137.00,1.41
9136.00,1.42
9135.00,1.42
9134.00,1.42
9133.00,1.42
9132.00,1.42
9131.00,1.42
9130.00,1.42
9129.00,1.42
9128.00,1.42
9127.00,1.42
9126.00,1.42
9125.00,1.42
9124.00,1.42
9123.00,1.42
9122.00,1.42
9121.00,1.42
9120.00,1.42
9119.00,1.41
9118.00,1.41
9117.00,1.41
9116.00,1.41
9115.00,1.41
9114.00,1.41
9113.00,1.41
9112.00,1.41
9111.00,1.41
9110.00,1.41
9109.00,1.42
9108.00,1.42
9107.00,1.42
9106.00,1.42
9105.00,1.42
9104.00,1.42
9103.00,1.42
9102.00,1.42
9101.00,1.42
9100.00,1.42
9099.00,1.42
9098.00,1.42
9097.00,1.42
9096.00,1.42
9095.00,1.42
9094.00,1.42
9093.00,1.42
9092.00,1.42
9091.00,1.42
9090.00,1.42
9089.00,1.42
9088.00,1.42
9087.00,1.42
9086.00,1.42
9085.00,1.42
9084.00,1.42
9083.00,1.42
9082.00,1.42
9081.00,1.42
9080.00,1.42
9079.00,1.42
9078.00,1.42
9077.00,1.42
9076.00,1.42
9075.00,1.42
9074.00,1.42
9073.00,1.42
9072.00,1.42
9071.00,1.42
9070.00,1.42
9069.00,1.42
9068.00,1.42
9067.00,1.41
9066.00,1.41
9065.00,1.41
9064.00,1.41
9063.00,1.41
9062.00,1.41
9061.00,1.41
9060.00,1.41
9059.00,1.41
9058.00,1.41
9057.00,1.41
9056.00,1.41
9055.00,1.41
9054.00,1.41
9053.00,1.42
9052.00,1.42
9051.00,1.42
9050.00,1.42
9049.00,1.42
9048.00,1.42
9047.00,1.42
9046.00,1.42
9045.00,1.42
9044.00,1.43
9043.00,1.43
9042.00,1.43
9041.00,1.43
9040.00,1.42
9039.00,1.42
9038.00,1.42
9037.00,1.42
9036.00,1.42
9035.00,1.42
9034.00,1.42
9033.00,1.42
9032.00,1.41
9031.00,1.41
9030.00,1.41
9029.00,1.41
9028.00,1.41
9027.00,1.41
9026.00,1.41
9025.00,1.41
9024.00,1.41
9023.00,1.41
9022.00,1.41
9021.00,1.41
9020.00,1.41
9019.00,1.42
9018.00,1.42
9017.00,1.42
9016.00,1.42
9015.00,1.42
9014.00,1.42
9013.00,1.42
9012.00,1.42
9011.00,1.42
9010.00,1.42
9009.00,1.42
9008.00,1.42
9007.00,1.41
9006.00,1.41
9005.00,1.41
9004.00,1.41
9003.00,1.41
9002.00,1.41
9001.00,1.41
9000.00,1.41
8999.00,1.41
8998.00,1.41
8997.00,1.41
8996.00,1.41
8995.00,1.41
8994.00,1.41
8993.00,1.41
8992.00,1.42
8991.00,1.42
8990.00,1.42
8989.00,1.42
8988.00,1.42
8987.00,1.42
8986.00,1.42
8985.00,1.42
8984.00,1.42
8983.00,1.42
8982.00,1.42
8981.00,1.42
8980.00,1.42
8979.00,1.42
8978.00,1.41
8977.00,1.41
8976.00,1.41
8975.00,1.41
8974.00,1.41
8973.00,1.41
8972.00,1.41
8971.00,1.41
8970.00,1.41
8969.00,1.41
8968.00,1.41
8967.00,1.41
8966.00,1.41
8965.00,1.41
8964.00,1.41
8963.00,1.41
8962.00,1.41
8961.00,1.41
8960.00,1.41
8959.00,1.41
8958.00,1.41
8957.00,1.41
8956.00,1.41
8955.00,1.41
8954.00,1.41
8953.00,1.41
8952.00,1.41
8951.00,1.41
8950.00,1.41
8949.00,1.41
8948.00,1.41
8947.00,1.41
8946.00,1.41
8945.00,1.42
8944.00,1.42
8943.00,1.42
8942.00,1.42
8941.00,1.42
8940.00,1.42
8939.00,1.42
8938.00,1.42
8937.00,1.42
8936.00,1.42
8935.00,1.42
8934.00,1.42
8933.00,1.42
8932.00,1.42
8931.00,1.42
8930.00,1.43
8929.00,1.43
8928.00,1.43
8927.00,1.43
8926.00,1.43
8925.00,1.43
8924.00,1.43
8923.00,1.43
8922.00,1.43
8921.00,1.43
8920.00,1.43
8919.00,1.43
8918.00,1.43
8917.00,1.43
8916.00,1.43
8915.00,1.43
8914.00,1.43
8913.00,1.43
8912.00,1.43
8911.00,1.42
8910.00,1.42
8909.00,1.42
8908.00,1.42
8907.00,1.42
8906.00,1.42
8905.00,1.42
8904.00,1.42
8903.00,1.42
8902.00,1.42
8901.00,1.42
8900.00,1.42
8899.00,1.43
8898.00,1.43
8897.00,1.43
8896.00,1.43
8895.00,1.43
8894.00,1.43
8893.00,1.43
8892.00,1.43
8891.00,1.43
8890.00,1.43
8889.00,1.43
8888.00,1.43
8887.00,1.43
8886.00,1.42
8885.00,1.42
8884.00,1.42
8883.00,1.42
8882.00,1.42
8881.00,1.42
8880.00,1.42
8879.00,1.42
8878.00,1.42
8877.00,1.42
8876.00,1.42
8875.00,1.41
8874.00,1.41
8873.00,1.41
8872.00,1.41
8871.00,1.41
8870.00,1.40
8869.00,1.40
8868.00,1.40
8867.00,1.40
8866.00,1.40
8865.00,1.40
8864.00,1.39
8863.00,1.39
8862.00,1.39
8861.00,1.39
8860.00,1.39
8859.00,1.39
8858.00,1.39
8857.00,1.40
8856.00,1.40
8855.00,1.40
8854.00,1.40
8853.00,1.40
8852.00,1.41
8851.00,1.41
8850.00,1.41
8849.00,1.41
8848.00,1.42
8847.00,1.42
8846.00,1.42
8845.00,1.42
8844.00,1.42
8843.00,1.42
8842.00,1.42
8841.00,1.42
8840.00,1.42
8839.00,1.42
8838.00,1.42
8837.00,1.42
8836.00,1.42
8835.00,1.42
8834.00,1.42
8833.00,1.42
8832.00,1.42
8831.00,1.42
8830.00,1.42
8829.00,1.42
8828.00,1.42
8827.00,1.42
8826.00,1.41
8825.00,1.41
8824.00,1.41
8823.00,1.41
8822.00,1.41
8821.00,1.41
8820.00,1.41
8819.00,1.40
8818.00,1.40
8817.00,1.40
8816.00,1.40
8815.00,1.40
8814.00,1.40
8813.00,1.39
8812.00,1.39
8811.00,1.39
8810.00,1.39
8809.00,1.39
8808.00,1.39
8807.00,1.39
8806.00,1.39
8805.00,1.38
8804.00,1.38
8803.00,1.38
8802.00,1.38
8801.00,1.38
8800.00,1.38
8799.00,1.38
8798.00,1.38
8797.00,1.38
8796.00,1.38
8795.00,1.38
8794.00,1.38
8793.00,1.38
8792.00,1.38
8791.00,1.38
8790.00,1.38
8789.00,1.39
8788.00,1.39
8787.00,1.39
8786.00,1.39
8785.00,1.39
8784.00,1.39
8783.00,1.39
8782.00,1.39
8781.00,1.39
8780.00,1.39
8779.00,1.39
8778.00,1.39
8777.00,1.38
8776.00,1.38
8775.00,1.38
8774.00,1.38
8773.00,1.38
8772.00,1.38
8771.00,1.38
8770.00,1.38
8769.00,1.38
8768.00,1.38
8767.00,1.38
8766.00,1.38
8765.00,1.38
8764.00,1.38
8763.00,1.38
8762.00,1.38
8761.00,1.38
8760.00,1.38
8759.00,1.38
8758.00,1.38
8757.00,1.38
8756.00,1.37
8755.00,1.37
8754.00,1.37
8753.00,1.37
8752.00,1.37
8751.00,1.37
8750.00,1.37
8749.00,1.37
8748.00,1.37
8747.00,1.37
8746.00,1.37
8745.00,1.37
8744.00,1.37
8743.00,1.37
8742.00,1.37
8741.00,1.37
8740.00,1.37
8739.00,1.37
8738.00,1.38
8737.00,1.38
8736.00,1.38
8735.00,1.38
8734.00,1.38
8733.00,1.38
8732.00,1.38
8731.00,1.38
8730.00,1.38
8729.00,1.38
8728.00,1.38
8727.00,1.38
8726.00,1.38
8725.00,1.38
8724.00,1.37
8723.00,1.37
8722.00,1.37
8721.00,1.37
8720.00,1.37
8719.00,1.37
8718.00,1.36
8717.00,1.36
8716.00,1.36
8715.00,1.36
8714.00,1.36
8713.00,1.36
8712.00,1.36
8711.00,1.36
8710.00,1.36
8709.00,1.36
8708.00,1.36
8707.00,1.37
8706.00,1.37
8705.00,1.37
8704.00,1.37
8703.00,1.37
8702.00,1.37
8701.00,1.37
8700.00,1.37
8699.00,1.37
8698.00,1.37
8697.00,1.37
8696.00,1.37
8695.00,1.37
8694.00,1.37
8693.00,1.37
8692.00,1.36
8691.00,1.36
8690.00,1.36
8689.00,1.36
8688.00,1.36
8687.00,1.36
8686.00,1.36
8685.00,1.36
8684.00,1.36
8683.00,1.35
8682.00,1.35
8681.00,1.35
8680.00,1.35
8679.00,1.35
8678.00,1.35
8677.00,1.35
8676.00,1.35
8675.00,1.35
8674.00,1.35
8673.00,1.35
8672.00,1.35
8671.00,1.35
8670.00,1.35
8669.00,1.35
8668.00,1.35
8667.00,1.35
8666.00,1.35
8665.00,1.35
8664.00,1.35
8663.00,1.35
8662.00,1.35
8661.00,1.35
8660.00,1.35
8659.00,1.35
8658.00,1.35
8657.00,1.35
8656.00,1.35
8655.00,1.35
8654.00,1.35
8653.00,1.35
8652.00,1.35
8651.00,1.35
8650.00,1.34
8649.00,1.34
8648.00,1.34
8647.00,1.34
8646.00,1.34
8645.00,1.34
8644.00,1.34
8643.00,1.34
8642.00,1.34
8641.00,1.34
8640.00,1.34
8639.00,1.34
8638.00,1.34
8637.00,1.34
8636.00,1.34
8635.00,1.34
8634.00,1.34
8633.00,1.34
8632.00,1.34
8631.00,1.34
8630.00,1.34
8629.00,1.34
8628.00,1.34
8627.00,1.34
8626.00,1.34
8625.00,1.34
8624.00,1.34
8623.00,1.34
8622.00,1.34
8621.00,1.34
8620.00,1.34
8619.00,1.34
8618.00,1.34
8617.00,1.34
8616.00,1.34
8615.00,1.34
8614.00,1.34
8613.00,1.34
8612.00,1.34
8611.00,1.34
8610.00,1.34
8609.00,1.34
8608.00,1.34
8607.00,1.34
8606.00,1.34
8605.00,1.34
8604.00,1.34
8603.00,1.33
8602.00,1.33
8601.00,1.33
8600.00,1.33
8599.00,1.33
8598.00,1.33
8597.00,1.33
8596.00,1.33
8595.00,1.33
8594.00,1.33
8593.00,1.33
8592.00,1.33
8591.00,1.33
8590.00,1.33
8589.00,1.33
8588.00,1.33
8587.00,1.33
8586.00,1.33
8585.00,1.33
8584.00,1.33
8583.00,1.33
8582.00,1.33
8581.00,1.33
8580.00,1.33
8579.00,1.33
8578.00,1.33
8577.00,1.33
8576.00,1.33
8575.00,1.32
8574.00,1.32
8573.00,1.32
8572.00,1.32
8571.00,1.32
8570.00,1.32
8569.00,1.32
8568.00,1.32
8567.00,1.32
8566.00,1.32
8565.00,1.32
8564.00,1.31
8563.00,1.31
8562.00,1.31
8561.00,1.31
8560.00,1.31
8559.00,1.31
8558.00,1.31
8557.00,1.30
8556.00,1.30
8555.00,1.30
8554.00,1.30
8553.00,1.30
8552.00,1.30
8551.00,1.30
8550.00,1.30
8549.00,1.30
8548.00,1.30
8547.00,1.30
8546.00,1.30
8545.00,1.30
8544.00,1.30
8543.00,1.30
8542.00,1.30
8541.00,1.30
8540.00,1.30
8539.00,1.30
8538.00,1.30
8537.00,1.30
8536.00,1.30
8535.00,1.29
8534.00,1.29
8533.00,1.29
8532.00,1.29
8531.00,1.29
8530.00,1.29
8529.00,1.29
8528.00,1.29
8527.00,1.29
8526.00,1.29
8525.00,1.29
8524.00,1.29
8523.00,1.29
8522.00,1.29
8521.00,1.29
8520.00,1.29
8519.00,1.29
8518.00,1.29
8517.00,1.29
8516.00,1.29
8515.00,1.29
8514.00,1.29
8513.00,1.29
8512.00,1.29
8511.00,1.29
8510.00,1.29
8509.00,1.29
8508.00,1.29
8507.00,1.29
8506.00,1.29
8505.00,1.29
8504.00,1.29
8503.00,1.29
8502.00,1.29
8501.00,1.30
8500.00,1.30
8499.00,1.30
8498.00,1.30
8497.00,1.30
8496.00,1.30
8495.00,1.30
8494.00,1.30
8493.00,1.30
8492.00,1.29
8491.00,1.29
8490.00,1.29
8489.00,1.29
8488.00,1.29
8487.00,1.29
8486.00,1.28
8485.00,1.28
8484.00,1.28
8483.00,1.28
8482.00,1.27
8481.00,1.27
8480.00,1.27
8479.00,1.27
8478.00,1.27
8477.00,1.27
8476.00,1.26
8475.00,1.26
8474.00,1.26
8473.00,1.26
8472.00,1.26
8471.00,1.26
8470.00,1.26
8469.00,1.26
8468.00,1.26
8467.00,1.26
8466.00,1.26
8465.00,1.26
8464.00,1.26
8463.00,1.26
8462.00,1.26
8461.00,1.26
8460.00,1.26
8459.00,1.26
8458.00,1.25
8457.00,1.25
8456.00,1.25
8455.00,1.25
8454.00,1.25
8453.00,1.25
8452.00,1.25
8451.00,1.24
8450.00,1.24
8449.00,1.24
8448.00,1.24
8447.00,1.24
8446.00,1.24
8445.00,1.23
8444.00,1.23
8443.00,1.23
8442.00,1.23
8441.00,1.23
8440.00,1.23
8439.00,1.23
8438.00,1.23
8437.00,1.23
8436.00,1.23
8435.00,1.23
8434.00,1.24
8433.00,1.24
8432.00,1.24
8431.00,1.24
8430.00,1.24
8429.00,1.24
8428.00,1.25
8427.00,1.25
8426.00,1.25
8425.00,1.25
8424.00,1.25
8423.00,1.25
8422.00,1.25
8421.00,1.25
8420.00,1.25
8419.00,1.25
8418.00,1.25
8417.00,1.25
8416.00,1.25
8415.00,1.25
8414.00,1.26
8413.00,1.26
8412.00,1.26
8411.00,1.26
8410.00,1.26
8409.00,1.26
8408.00,1.26
8407.00,1.26
8406.00,1.26
8405.00,1.26
8404.00,1.26
8403.00,1.26
8402.00,1.26
8401.00,1.26
8400.00,1.26
8399.00,1.26
8398.00,1.26
8397.00,1.26
8396.00,1.26
8395.00,1.26
8394.00,1.26
8393.00,1.26
8392.00,1.27
8391.00,1.27
8390.00,1.27
8389.00,1.27
8388.00,1.27
8387.00,1.27
8386.00,1.27
8385.00,1.28
8384.00,1.28
8383.00,1.28
8382.00,1.28
8381.00,1.28
8380.00,1.28
8379.00,1.28
8378.00,1.29
8377.00,1.29
8376.00,1.29
8375.00,1.29
8374.00,1.29
8373.00,1.29
8372.00,1.29
8371.00,1.29
8370.00,1.30
8369.00,1.30
8368.00,1.30
8367.00,1.30
8366.00,1.30
8365.00,1.30
8364.00,1.30
8363.00,1.30
8362.00,1.30
8361.00,1.30
8360.00,1.30
8359.00,1.30
8358.00,1.29
8357.00,1.29
8356.00,1.29
8355.00,1.29
8354.00,1.29
8353.00,1.29
8352.00,1.29
8351.00,1.29
8350.00,1.29
8349.00,1.29
8348.00,1.29
8347.00,1.29
8346.00,1.29
8345.00,1.29
8344.00,1.29
8343.00,1.29
8342.00,1.29
8341.00,1.29
8340.00,1.29
8339.00,1.29
8338.00,1.29
8337.00,1.29
8336.00,1.29
8335.00,1.29
8334.00,1.29
8333.00,1.29
8332.00,1.29
8331.00,1.29
8330.00,1.29
8329.00,1.29
8328.00,1.29
8327.00,1.29
8326.00,1.29
8325.00,1.29
8324.00,1.29
8323.00,1.29
8322.00,1.29
8321.00,1.29
8320.00,1.29
8319.00,1.29
8318.00,1.29
8317.00,1.29
8316.00,1.29
8315.00,1.29
8314.00,1.29
8313.00,1.29
8312.00,1.30
8311.00,1.30
8310.00,1.30
8309.00,1.30
8308.00,1.30
8307.00,1.30
8306.00,1.30
8305.00,1.30
8304.00,1.30
8303.00,1.30
8302.00,1.30
8301.00,1.30
8300.00,1.30
8299.00,1.30
8298.00,1.30
8297.00,1.29
8296.00,1.29
8295.00,1.29
8294.00,1.29
8293.00,1.29
8292.00,1.29
8291.00,1.29
8290.00,1.29
8289.00,1.29
8288.00,1.29
8287.00,1.29
8286.00,1.29
8285.00,1.29
8284.00,1.29
8283.00,1.29
8282.00,1.29
8281.00,1.29
8280.00,1.29
8279.00,1.29
8278.00,1.30
8277.00,1.30
8276.00,1.30
8275.00,1.30
8274.00,1.30
8273.00,1.30
8272.00,1.30
8271.00,1.30
8270.00,1.30
8269.00,1.31
8268.00,1.31
8267.00,1.31
8266.00,1.31
8265.00,1.31
8264.00,1.31
8263.00,1.31
8262.00,1.31
8261.00,1.31
8260.00,1.31
8259.00,1.31
8258.00,1.31
8257.00,1.32
8256.00,1.32
8255.00,1.32
8254.00,1.32
8253.00,1.32
8252.00,1.32
8251.00,1.32
8250.00,1.32
8249.00,1.32
8248.00,1.32
8247.00,1.33
8246.00,1.33
8245.00,1.33
8244.00,1.33
8243.00,1.32
8242.00,1.32
8241.00,1.32
8240.00,1.32
8239.00,1.32
8238.00,1.32
8237.00,1.32
8236.00,1.32
8235.00,1.31
8234.00,1.31
8233.00,1.31
8232.00,1.31
8231.00,1.31
8230.00,1.31
8229.00,1.31
8228.00,1.31
8227.00,1.31
8226.00,1.31
8225.00,1.31
8224.00,1.31
8223.00,1.31
8222.00,1.31
8221.00,1.31
8220.00,1.31
8219.00,1.31
8218.00,1.31
8217.00,1.31
8216.00,1.31
8215.00,1.31
8214.00,1.32
8213.00,1.32
8212.00,1.32
8211.00,1.32
8210.00,1.32
8209.00,1.32
8208.00,1.33
8207.00,1.33
8206.00,1.33
8205.00,1.33
8204.00,1.33
8203.00,1.34
8202.00,1.34
8201.00,1.34
8200.00,1.34
8199.00,1.34
8198.00,1.34
8197.00,1.34
8196.00,1.35
8195.00,1.35
8194.00,1.35
8193.00,1.35
8192.00,1.35
8191.00,1.35
8190.00,1.35
8189.00,1.35
8188.00,1.35
8187.00,1.35
8186.00,1.35
8185.00,1.35
8184.00,1.35
8183.00,1.35
8182.00,1.35
8181.00,1.35
8180.00,1.35
8179.00,1.34
8178.00,1.34
8177.00,1.34
8176.00,1.34
8175.00,1.34
8174.00,1.34
8173.00,1.34
8172.00,1.34
8171.00,1.33
8170.00,1.33
8169.00,1.33
8168.00,1.33
8167.00,1.33
8166.00,1.33
8165.00,1.34
8164.00,1.34
8163.00,1.34
8162.00,1.34
8161.00,1.34
8160.00,1.34
8159.00,1.34
8158.00,1.34
8157.00,1.34
8156.00,1.34
8155.00,1.35
8154.00,1.35
8153.00,1.35
8152.00,1.35
8151.00,1.35
8150.00,1.35
8149.00,1.35
8148.00,1.35
8147.00,1.35
8146.00,1.35
8145.00,1.35
8144.00,1.35
8143.00,1.35
8142.00,1.35
8141.00,1.35
8140.00,1.35
8139.00,1.35
8138.00,1.35
8137.00,1.35
8136.00,1.35
8135.00,1.35
8134.00,1.35
8133.00,1.36
8132.00,1.36
8131.00,1.36
8130.00,1.36
8129.00,1.36
8128.00,1.36
8127.00,1.36
8126.00,1.36
8125.00,1.36
8124.00,1.36
8123.00,1.36
8122.00,1.36
8121.00,1.36
8120.00,1.36
8119.00,1.36
8118.00,1.36
8117.00,1.37
8116.00,1.37
8115.00,1.37
8114.00,1.37
8113.00,1.37
8112.00,1.37
8111.00,1.37
8110.00,1.37
8109.00,1.37
8108.00,1.37
8107.00,1.37
8106.00,1.37
8105.00,1.37
8104.00,1.37
8103.00,1.37
8102.00,1.36
8101.00,1.36
8100.00,1.36
8099.00,1.36
8098.00,1.36
8097.00,1.36
8096.00,1.36
8095.00,1.36
8094.00,1.36
8093.00,1.36
8092.00,1.36
8091.00,1.37
8090.00,1.37
8089.00,1.37
8088.00,1.37
8087.00,1.37
8086.00,1.37
8085.00,1.37
8084.00,1.37
8083.00,1.37
8082.00,1.37
8081.00,1.37
8080.00,1.37
8079.00,1.37
8078.00,1.37
8077.00,1.37
8076.00,1.37
8075.00,1.37
8074.00,1.37
8073.00,1.37
8072.00,1.37
8071.00,1.37
8070.00,1.37
8069.00,1.37
8068.00,1.37
8067.00,1.37
8066.00,1.37
8065.00,1.37
8064.00,1.37
8063.00,1.37
8062.00,1.37
8061.00,1.37
8060.00,1.37
8059.00,1.37
8058.00,1.37
8057.00,1.37
8056.00,1.37
8055.00,1.37
8054.00,1.37
8053.00,1.37
8052.00,1.37
8051.00,1.37
8050.00,1.37
8049.00,1.37
8048.00,1.37
8047.00,1.37
8046.00,1.37
8045.00,1.37
8044.00,1.37
8043.00,1.37
8042.00,1.37
8041.00,1.38
8040.00,1.38
8039.00,1.38
8038.00,1.38
8037.00,1.38
8036.00,1.38
8035.00,1.38
8034.00,1.38
8033.00,1.38
8032.00,1.38
8031.00,1.38
8030.00,1.38
8029.00,1.38
8028.00,1.38
8027.00,1.38
8026.00,1.38
8025.00,1.38
8024.00,1.38
8023.00,1.38
8022.00,1.38
8021.00,1.38
8020.00,1.38
8019.00,1.38
8018.00,1.38
8017.00,1.38
8016.00,1.38
8015.00,1.38
8014.00,1.38
8013.00,1.38
8012.00,1.38
8011.00,1.38
8010.00,1.38
8009.00,1.38
8008.00,1.38
8007.00,1.38
8006.00,1.38
8005.00,1.38
8004.00,1.38
8003.00,1.38
8002.00,1.38
8001.00,1.38
8000.00,1.38
7999.00,1.38
7998.00,1.38
7997.00,1.38
7996.00,1.38
7995.00,1.39
7994.00,1.39
7993.00,1.39
7992.00,1.39
7991.00,1.39
7990.00,1.39
7989.00,1.39
7988.00,1.40
7987.00,1.40
7986.00,1.40
7985.00,1.40
7984.00,1.40
7983.00,1.40
7982.00,1.40
7981.00,1.40
7980.00,1.40
7979.00,1.40
7978.00,1.40
7977.00,1.40
7976.00,1.40
7975.00,1.40
7974.00,1.40
7973.00,1.40
7972.00,1.40
7971.00,1.40
7970.00,1.40
7969.00,1.40
7968.00,1.40
7967.00,1.40
7966.00,1.40
7965.00,1.40
7964.00,1.40
7963.00,1.40
7962.00,1.40
7961.00,1.40
7960.00,1.40
7959.00,1.40
7958.00,1.40
7957.00,1.39
7956.00,1.39
7955.00,1.39
7954.00,1.39
7953.00,1.39
7952.00,1.39
7951.00,1.39
7950.00,1.39
7949.00,1.39
7948.00,1.40
7947.00,1.40
7946.00,1.40
7945.00,1.40
7944.00,1.40
7943.00,1.40
7942.00,1.40
7941.00,1.40
7940.00,1.40
7939.00,1.40
7938.00,1.40
7937.00,1.40
7936.00,1.40
7935.00,1.40
7934.00,1.40
7933.00,1.40
7932.00,1.40
7931.00,1.40
7930.00,1.40
7929.00,1.40
7928.00,1.40
7927.00,1.40
7926.00,1.40
7925.00,1.40
7924.00,1.40
7923.00,1.40
7922.00,1.40
7921.00,1.40
7920.00,1.40
7919.00,1.40
7918.00,1.40
7917.00,1.40
7916.00,1.40
7915.00,1.41
7914.00,1.41
7913.00,1.41
7912.00,1.41
7911.00,1.41
7910.00,1.41
7909.00,1.41
7908.00,1.41
7907.00,1.41
7906.00,1.41
7905.00,1.41
7904.00,1.41
7903.00,1.41
7902.00,1.41
7901.00,1.41
7900.00,1.41
7899.00,1.41
7898.00,1.41
7897.00,1.41
7896.00,1.41
7895.00,1.41
7894.00,1.40
7893.00,1.40
7892.00,1.40
7891.00,1.40
7890.00,1.41
7889.00,1.41
7888.00,1.41
7887.00,1.41
7886.00,1.41
7885.00,1.41
7884.00,1.41
7883.00,1.41
7882.00,1.42
7881.00,1.42
7880.00,1.42
7879.00,1.42
7878.00,1.42
7877.00,1.42
7876.00,1.42
7875.00,1.42
7874.00,1.42
7873.00,1.42
7872.00,1.42
7871.00,1.42
7870.00,1.42
7869.00,1.42
7868.00,1.42
7867.00,1.42
7866.00,1.42
7865.00,1.42
7864.00,1.42
7863.00,1.42
7862.00,1.42
7861.00,1.42
7860.00,1.42
7859.00,1.42
7858.00,1.42
7857.00,1.42
7856.00,1.42
7855.00,1.42
7854.00,1.41
7853.00,1.41
7852.00,1.41
7851.00,1.41
7850.00,1.41
7849.00,1.41
7848.00,1.41
7847.00,1.41
7846.00,1.41
7845.00,1.41
7844.00,1.42
7843.00,1.42
7842.00,1.42
7841.00,1.42
7840.00,1.42
7839.00,1.42
7838.00,1.42
7837.00,1.42
7836.00,1.42
7835.00,1.42
7834.00,1.42
7833.00,1.42
7832.00,1.43
7831.00,1.43
7830.00,1.43
7829.00,1.43
7828.00,1.43
7827.00,1.43
7826.00,1.43
7825.00,1.43
7824.00,1.42
7823.00,1.42
7822.00,1.42
7821.00,1.42
7820.00,1.42
7819.00,1.42
7818.00,1.42
7817.00,1.42
7816.00,1.42
7815.00,1.42
7814.00,1.42
7813.00,1.42
7812.00,1.42
7811.00,1.42
7810.00,1.42
7809.00,1.42
7808.00,1.42
7807.00,1.42
7806.00,1.42
7805.00,1.42
7804.00,1.42
7803.00,1.42
7802.00,1.42
7801.00,1.42
7800.00,1.42
7799.00,1.42
7798.00,1.42
7797.00,1.42
7796.00,1.42
7795.00,1.42
7794.00,1.42
7793.00,1.42
7792.00,1.42
7791.00,1.42
7790.00,1.42
7789.00,1.42
7788.00,1.42
7787.00,1.42
7786.00,1.42
7785.00,1.42
7784.00,1.42
7783.00,1.42
7782.00,1.42
7781.00,1.42
7780.00,1.42
7779.00,1.42
7778.00,1.42
7777.00,1.42
7776.00,1.42
7775.00,1.42
7774.00,1.42
7773.00,1.42
7772.00,1.43
7771.00,1.43
7770.00,1.43
7769.00,1.43
7768.00,1.43
7767.00,1.43
7766.00,1.43
7765.00,1.43
7764.00,1.43
7763.00,1.43
7762.00,1.43
7761.00,1.43
7760.00,1.43
7759.00,1.43
7758.00,1.43
7757.00,1.43
7756.00,1.43
7755.00,1.43
7754.00,1.43
7753.00,1.43
7752.00,1.43
7751.00,1.43
7750.00,1.43
7749.00,1.43
7748.00,1.43
7747.00,1.43
7746.00,1.43
7745.00,1.43
7744.00,1.43
7743.00,1.43
7742.00,1.43
7741.00,1.43
7740.00,1.43
7739.00,1.43
7738.00,1.43
7737.00,1.43
7736.00,1.43
7735.00,1.43
7734.00,1.43
7733.00,1.43
7732.00,1.43
7731.00,1.43
7730.00,1.43
7729.00,1.43
7728.00,1.43
7727.00,1.43
7726.00,1.43
7725.00,1.43
7724.00,1.43
7723.00,1.43
7722.00,1.43
7721.00,1.43
7720.00,1.43
7719.00,1.43
7718.00,1.43
7717.00,1.43
7716.00,1.43
7715.00,1.43
7714.00,1.43
7713.00,1.43
7712.00,1.43
7711.00,1.43
7710.00,1.43
7709.00,1.43
7708.00,1.43
7707.00,1.43
7706.00,1.43
7705.00,1.43
7704.00,1.43
7703.00,1.43
7702.00,1.43
7701.00,1.43
7700.00,1.43
7699.00,1.43
7698.00,1.43
7697.00,1.43
7696.00,1.43
7695.00,1.43
7694.00,1.43
7693.00,1.43
7692.00,1.43
7691.00,1.43
7690.00,1.43
7689.00,1.43
7688.00,1.43
7687.00,1.43
7686.00,1.43
7685.00,1.43
7684.00,1.43
7683.00,1.43
7682.00,1.43
7681.00,1.43
7680.00,1.43
7679.00,1.43
7678.00,1.43
7677.00,1.43
7676.00,1.43
7675.00,1.43
7674.00,1.43
7673.00,1.43
7672.00,1.43
7671.00,1.43
7670.00,1.43
7669.00,1.43
7668.00,1.43
7667.00,1.43
7666.00,1.43
7665.00,1.43
7664.00,1.43
7663.00,1.42
7662.00,1.42
7661.00,1.42
7660.00,1.42
7659.00,1.42
7658.00,1.42
7657.00,1.42
7656.00,1.42
7655.00,1.42
7654.00,1.42
7653.00,1.42
7652.00,1.42
7651.00,1.42
7650.00,1.42
7649.00,1.42
7648.00,1.42
7647.00,1.42
7646.00,1.42
7645.00,1.43
7644.00,1.43
7643.00,1.43
7642.00,1.43
7641.00,1.43
7640.00,1.43
7639.00,1.43
7638.00,1.43
7637.00,1.43
7636.00,1.43
7635.00,1.43
7634.00,1.43
7633.00,1.43
7632.00,1.43
7631.00,1.43
7630.00,1.43
7629.00,1.43
7628.00,1.43
7627.00,1.43
7626.00,1.43
7625.00,1.43
7624.00,1.43
7623.00,1.43
7622.00,1.43
7621.00,1.43
7620.00,1.43
7619.00,1.43
7618.00,1.43
7617.00,1.43
7616.00,1.43
7615.00,1.43
7614.00,1.43
7613.00,1.43
7612.00,1.43
7611.00,1.43
7610.00,1.43
7609.00,1.43
7608.00,1.43
7607.00,1.43
7606.00,1.43
7605.00,1.43
7604.00,1.43
7603.00,1.43
7602.00,1.43
7601.00,1.43
7600.00,1.43
7599.00,1.43
7598.00,1.43
7597.00,1.43
7596.00,1.43
7595.00,1.43
7594.00,1.43
7593.00,1.43
7592.00,1.43
7591.00,1.43
7590.00,1.43
7589.00,1.43
7588.00,1.43
7587.00,1.43
7586.00,1.43
7585.00,1.43
7584.00,1.43
7583.00,1.43
7582.00,1.43
7581.00,1.43
7580.00,1.43
7579.00,1.43
7578.00,1.43
7577.00,1.43
7576.00,1.43
7575.00,1.43
7574.00,1.43
7573.00,1.43
7572.00,1.43
7571.00,1.43
7570.00,1.43
7569.00,1.43
7568.00,1.43
7567.00,1.43
7566.00,1.43
7565.00,1.43
7564.00,1.43
7563.00,1.43
7562.00,1.43
7561.00,1.43
7560.00,1.43
7559.00,1.43
7558.00,1.43
7557.00,1.43
7556.00,1.42
7555.00,1.42
7554.00,1.42
7553.00,1.42
7552.00,1.42
7551.00,1.42
7550.00,1.42
7549.00,1.42
7548.00,1.42
7547.00,1.42
7546.00,1.42
7545.00,1.41
7544.00,1.41
7543.00,1.41
7542.00,1.41
7541.00,1.41
7540.00,1.41
7539.00,1.41
7538.00,1.41
7537.00,1.41
7536.00,1.41
7535.00,1.41
7534.00,1.41
7533.00,1.41
7532.00,1.41
7531.00,1.41
7530.00,1.41
7529.00,1.41
7528.00,1.41
7527.00,1.41
7526.00,1.41
7525.00,1.41
7524.00,1.41
7523.00,1.41
7522.00,1.41
7521.00,1.41
7520.00,1.41
7519.00,1.41
7518.00,1.41
7517.00,1.41
7516.00,1.41
7515.00,1.41
7514.00,1.41
7513.00,1.41
7512.00,1.41
7511.00,1.41
7510.00,1.41
7509.00,1.41
7508.00,1.41
7507.00,1.41
7506.00,1.41
7505.00,1.41
7504.00,1.40
7503.00,1.40
7502.00,1.40
7501.00,1.40
7500.00,1.40
7499.00,1.40
7498.00,1.40
7497.00,1.40
7496.00,1.40
7495.00,1.40
7494.00,1.40
7493.00,1.40
7492.00,1.40
7491.00,1.40
7490.00,1.40
7489.00,1.40
7488.00,1.40
7487.00,1.40
7486.00,1.40
7485.00,1.40
7484.00,1.40
7483.00,1.40
7482.00,1.40
7481.00,1.39
7480.00,1.39
7479.00,1.39
7478.00,1.39
7477.00,1.39
7476.00,1.39
7475.00,1.39
7474.00,1.39
7473.00,1.39
7472.00,1.39
7471.00,1.39
7470.00,1.39
7469.00,1.39
7468.00,1.39
7467.00,1.39
7466.00,1.38
7465.00,1.38
7464.00,1.38
7463.00,1.38
7462.00,1.38
7461.00,1.38
7460.00,1.38
7459.00,1.38
7458.00,1.38
7457.00,1.38
7456.00,1.37
7455.00,1.37
7454.00,1.37
7453.00,1.37
7452.00,1.37
7451.00,1.37
7450.00,1.37
7449.00,1.37
7448.00,1.37
7447.00,1.37
7446.00,1.37
7445.00,1.37
7444.00,1.37
7443.00,1.37
7442.00,1.37
7441.00,1.37
7440.00,1.37
7439.00,1.37
7438.00,1.37
7437.00,1.37
7436.00,1.37
7435.00,1.37
7434.00,1.37
7433.00,1.37
7432.00,1.37
7431.00,1.38
7430.00,1.38
7429.00,1.38
7428.00,1.38
7427.00,1.38
7426.00,1.38
7425.00,1.38
7424.00,1.37
7423.00,1.37
7422.00,1.37
7421.00,1.37
7420.00,1.37
7419.00,1.37
7418.00,1.37
7417.00,1.37
7416.00,1.37
7415.00,1.36
7414.00,1.36
7413.00,1.36
7412.00,1.36
7411.00,1.36
7410.00,1.36
7409.00,1.36
7408.00,1.36
7407.00,1.36
7406.00,1.35
7405.00,1.35
7404.00,1.35
7403.00,1.35
7402.00,1.35
7401.00,1.35
7400.00,1.35
7399.00,1.35
7398.00,1.35
7397.00,1.35
7396.00,1.34
7395.00,1.34
7394.00,1.34
7393.00,1.34
7392.00,1.34
7391.00,1.34
7390.00,1.33
7389.00,1.33
7388.00,1.33
7387.00,1.33
7386.00,1.33
7385.00,1.33
7384.00,1.33
7383.00,1.32
7382.00,1.32
7381.00,1.32
7380.00,1.32
7379.00,1.32
7378.00,1.32
7377.00,1.32
7376.00,1.32
7375.00,1.32
7374.00,1.32
7373.00,1.32
7372.00,1.32
7371.00,1.32
7370.00,1.32
7369.00,1.32
7368.00,1.32
7367.00,1.32
7366.00,1.32
7365.00,1.32
7364.00,1.31
7363.00,1.31
7362.00,1.31
7361.00,1.31
7360.00,1.31
7359.00,1.31
7358.00,1.31
7357.00,1.31
7356.00,1.31
7355.00,1.31
7354.00,1.31
7353.00,1.31
7352.00,1.31
7351.00,1.31
7350.00,1.31
7349.00,1.31
7348.00,1.31
7347.00,1.31
7346.00,1.31
7345.00,1.30
7344.00,1.30
7343.00,1.30
7342.00,1.30
7341.00,1.30
7340.00,1.30
7339.00,1.30
7338.00,1.30
7337.00,1.30
7336.00,1.29
7335.00,1.29
7334.00,1.29
7333.00,1.29
7332.00,1.29
7331.00,1.29
7330.00,1.29
7329.00,1.29
7328.00,1.29
7327.00,1.29
7326.00,1.29
7325.00,1.29
7324.00,1.29
7323.00,1.29
7322.00,1.29
7321.00,1.29
7320.00,1.29
7319.00,1.29
7318.00,1.29
7317.00,1.29
7316.00,1.29
7315.00,1.29
7314.00,1.29
7313.00,1.29
7312.00,1.29
7311.00,1.29
7310.00,1.29
7309.00,1.29
7308.00,1.29
7307.00,1.29
7306.00,1.29
7305.00,1.29
7304.00,1.29
7303.00,1.29
7302.00,1.29
7301.00,1.29
7300.00,1.29
7299.00,1.29
7298.00,1.29
7297.00,1.28
7296.00,1.28
7295.00,1.28
7294.00,1.28
7293.00,1.28
7292.00,1.28
7291.00,1.28
7290.00,1.28
7289.00,1.28
7288.00,1.27
7287.00,1.27
7286.00,1.27
7285.00,1.27
7284.00,1.27
7283.00,1.27
7282.00,1.26
7281.00,1.26
7280.00,1.26
7279.00,1.26
7278.00,1.26
7277.00,1.26
7276.00,1.26
7275.00,1.26
7274.00,1.25
7273.00,1.25
7272.00,1.25
7271.00,1.25
7270.00,1.25
7269.00,1.25
7268.00,1.25
7267.00,1.25
7266.00,1.24
7265.00,1.24
7264.00,1.24
7263.00,1.24
7262.00,1.24
7261.00,1.23
7260.00,1.23
7259.00,1.23
7258.00,1.23
7257.00,1.23
7256.00,1.22
7255.00,1.22
7254.00,1.22
7253.00,1.22
7252.00,1.22
7251.00,1.21
7250.00,1.21
7249.00,1.21
7248.00,1.21
7247.00,1.21
7246.00,1.21
7245.00,1.20
7244.00,1.20
7243.00,1.20
7242.00,1.20
7241.00,1.19
7240.00,1.19
7239.00,1.19
7238.00,1.19
7237.00,1.18
7236.00,1.18
7235.00,1.18
7234.00,1.17
7233.00,1.17
7232.00,1.17
7231.00,1.16
7230.00,1.16
7229.00,1.16
7228.00,1.16
7227.00,1.15
7226.00,1.15
7225.00,1.15
7224.00,1.14
7223.00,1.14
7222.00,1.13
7221.00,1.13
7220.00,1.13
7219.00,1.12
7218.00,1.12
7217.00,1.11
7216.00,1.11
7215.00,1.11
7214.00,1.10
7213.00,1.10
7212.00,1.09
7211.00,1.09
7210.00,1.09
7209.00,1.08
7208.00,1.08
7207.00,1.08
7206.00,1.07
7205.00,1.07
7204.00,1.06
7203.00,1.06
7202.00,1.06
7201.00,1.05
7200.00,1.05
7199.00,1.05
7198.00,1.04
7197.00,1.04
7196.00,1.04
7195.00,1.03
7194.00,1.03
7193.00,1.03
7192.00,1.02
7191.00,1.02
7190.00,1.02
7189.00,1.02
7188.00,1.01
7187.00,1.01
7186.00,1.01
7185.00,1.00
7184.00,1.00
7183.00,1.00
7182.00,1.00
7181.00,0.99
7180.00,0.99
7179.00,0.99
7178.00,0.98
7177.00,0.98
7176.00,0.98
7175.00,0.98
7174.00,0.97
7173.00,0.97
7172.00,0.97
7171.00,0.96
7170.00,0.96
7169.00,0.96
7168.00,0.96
7167.00,0.95
7166.00,0.95
7165.00,0.95
7164.00,0.95
7163.00,0.94
7162.00,0.94
7161.00,0.94
7160.00,0.94
7159.00,0.94
7158.00,0.93
7157.00,0.93
7156.00,0.93
7155.00,0.93
7154.00,0.93
7153.00,0.92
7152.00,0.92
7151.00,0.92
7150.00,0.92
7149.00,0.91
7148.00,0.91
7147.00,0.91
7146.00,0.91
7145.00,0.90
7144.00,0.90
7143.00,0.90
7142.00,0.89
7141.00,0.89
7140.00,0.89
7139.00,0.88
7138.00,0.88
7137.00,0.88
7136.00,0.87
7135.00,0.87
7134.00,0.87
7133.00,0.86
7132.00,0.86
7131.00,0.86
7130.00,0.85
7129.00,0.85
7128.00,0.85
7127.00,0.85
7126.00,0.84
7125.00,0.84
7124.00,0.84
7123.00,0.84
7122.00,0.84
7121.00,0.83
7120.00,0.83
7119.00,0.83
7118.00,0.83
7117.00,0.83
7116.00,0.82
7115.00,0.82
7114.00,0.82
7113.00,0.82
7112.00,0.81
7111.00,0.81
7110.00,0.81
7109.00,0.81
7108.00,0.80
7107.00,0.80
7106.00,0.80
7105.00,0.80
7104.00,0.79
7103.00,0.79
7102.00,0.79
7101.00,0.79
7100.00,0.78
7099.00,0.78
7098.00,0.78
7097.00,0.78
7096.00,0.78
7095.00,0.78
7094.00,0.77
7093.00,0.77
7092.00,0.77
7091.00,0.77
7090.00,0.77
7089.00,0.76
7088.00,0.76
7087.00,0.76
7086.00,0.76
7085.00,0.76
7084.00,0.75
7083.00,0.75
7082.00,0.75
7081.00,0.75
7080.00,0.75
7079.00,0.75
7078.00,0.74
7077.00,0.74
7076.00,0.74
7075.00,0.74
7074.00,0.74
7073.00,0.74
7072.00,0.74
7071.00,0.74
7070.00,0.73
7069.00,0.73
7068.00,0.73
7067.00,0.73
7066.00,0.73
7065.00,0.73
7064.00,0.72
7063.00,0.72
7062.00,0.72
7061.00,0.72
7060.00,0.72
7059.00,0.72
7058.00,0.71
7057.00,0.71
7056.00,0.71
7055.00,0.71
7054.00,0.71
7053.00,0.71
7052.00,0.70
7051.00,0.70
7050.00,0.70
7049.00,0.70
7048.00,0.70
7047.00,0.70
7046.00,0.70
7045.00,0.70
7044.00,0.70
7043.00,0.70
7042.00,0.70
7041.00,0.70
7040.00,0.70
7039.00,0.69
7038.00,0.69
7037.00,0.69
7036.00,0.69
7035.00,0.69
7034.00,0.69
7033.00,0.69
7032.00,0.69
7031.00,0.69
7030.00,0.69
7029.00,0.69
7028.00,0.69
7027.00,0.68
7026.00,0.68
7025.00,0.68
7024.00,0.68
7023.00,0.68
7022.00,0.68
7021.00,0.68
7020.00,0.68
7019.00,0.68
7018.00,0.68
7017.00,0.68
7016.00,0.68
7015.00,0.68
7014.00,0.68
7013.00,0.68
7012.00,0.68
7011.00,0.68
7010.00,0.68
7009.00,0.68
7008.00,0.68
7007.00,0.67
7006.00,0.67
7005.00,0.67
7004.00,0.67
7003.00,0.67
7002.00,0.67
7001.00,0.67
7000.00,0.67
6999.00,0.67
6998.00,0.67
6997.00,0.67
6996.00,0.66
6995.00,0.66
6994.00,0.66
6993.00,0.66
6992.00,0.66
6991.00,0.66
6990.00,0.66
6989.00,0.66
6988.00,0.65
6987.00,0.65
6986.00,0.65
6985.00,0.65
6984.00,0.65
6983.00,0.65
6982.00,0.65
6981.00,0.65
6980.00,0.65
6979.00,0.65
6978.00,0.65
6977.00,0.65
6976.00,0.65
6975.00,0.65
6974.00,0.65
6973.00,0.65
6972.00,0.65
6971.00,0.65
6970.00,0.65
6969.00,0.65
6968.00,0.65
6967.00,0.65
6966.00,0.65
6965.00,0.65
6964.00,0.65
6963.00,0.65
6962.00,0.64
6961.00,0.64
6960.00,0.64
6959.00,0.64
6958.00,0.64
6957.00,0.64
6956.00,0.64
6955.00,0.64
6954.00,0.64
6953.00,0.64
6952.00,0.64
6951.00,0.64
6950.00,0.64
6949.00,0.64
6948.00,0.64
6947.00,0.64
6946.00,0.64
6945.00,0.64
6944.00,0.64
6943.00,0.64
6942.00,0.64
6941.00,0.64
6940.00,0.64
6939.00,0.64
6938.00,0.64
6937.00,0.64
6936.00,0.64
6935.00,0.64
6934.00,0.64
6933.00,0.64
6932.00,0.64
6931.00,0.64
6930.00,0.64
6929.00,0.64
6928.00,0.64
6927.00,0.63
6926.00,0.63
6925.00,0.63
6924.00,0.63
6923.00,0.63
6922.00,0.63
6921.00,0.63
6920.00,0.63
6919.00,0.64
6918.00,0.64
6917.00,0.64
6916.00,0.64
6915.00,0.64
6914.00,0.64
6913.00,0.64
6912.00,0.64
6911.00,0.64
6910.00,0.64
6909.00,0.64
6908.00,0.64
6907.00,0.64
6906.00,0.64
6905.00,0.64
6904.00,0.64
6903.00,0.64
6902.00,0.64
6901.00,0.64
6900.00,0.64
6899.00,0.64
6898.00,0.64
6897.00,0.63
6896.00,0.63
6895.00,0.63
6894.00,0.63
6893.00,0.63
6892.00,0.63
6891.00,0.63
6890.00,0.63
6889.00,0.63
6888.00,0.63
6887.00,0.63
6886.00,0.63
6885.00,0.63
6884.00,0.63
6883.00,0.63
6882.00,0.63
6881.00,0.62
6880.00,0.62
6879.00,0.62
6878.00,0.62
6877.00,0.63
6876.00,0.63
6875.00,0.63
6874.00,0.63
6873.00,0.63
6872.00,0.63
6871.00,0.63
6870.00,0.63
6869.00,0.63
6868.00,0.63
6867.00,0.63
6866.00,0.63
6865.00,0.63
6864.00,0.63
6863.00,0.63
6862.00,0.63
6861.00,0.63
6860.00,0.63
6859.00,0.63
6858.00,0.63
6857.00,0.63
6856.00,0.64
6855.00,0.64
6854.00,0.64
6853.00,0.64
6852.00,0.64
6851.00,0.64
6850.00,0.64
6849.00,0.64
6848.00,0.64
6847.00,0.64
6846.00,0.64
6845.00,0.64
6844.00,0.64
6843.00,0.64
6842.00,0.64
6841.00,0.64
6840.00,0.64
6839.00,0.64
6838.00,0.64
6837.00,0.63
6836.00,0.63
6835.00,0.63
6834.00,0.63
6833.00,0.63
6832.00,0.63
6831.00,0.63
6830.00,0.63
6829.00,0.63
6828.00,0.63
6827.00,0.63
6826.00,0.64
6825.00,0.64
6824.00,0.64
6823.00,0.64
6822.00,0.64
6821.00,0.64
6820.00,0.64
6819.00,0.64
6818.00,0.64
6817.00,0.64
6816.00,0.64
6815.00,0.64
6814.00,0.64
6813.00,0.64
6812.00,0.64
6811.00,0.64
6810.00,0.64
6809.00,0.64
6808.00,0.64
6807.00,0.64
6806.00,0.64
6805.00,0.65
6804.00,0.65
6803.00,0.65
6802.00,0.65
6801.00,0.64
6800.00,0.64
6799.00,0.64
6798.00,0.64
6797.00,0.64
6796.00,0.64
6795.00,0.64
6794.00,0.64
6793.00,0.64
6792.00,0.64
6791.00,0.64
6790.00,0.64
6789.00,0.64
6788.00,0.64
6787.00,0.64
6786.00,0.64
6785.00,0.65
6784.00,0.65
6783.00,0.65
6782.00,0.65
6781.00,0.65
6780.00,0.65
6779.00,0.65
6778.00,0.65
6777.00,0.65
6776.00,0.65
6775.00,0.65
6774.00,0.66
6773.00,0.66
6772.00,0.66
6771.00,0.66
6770.00,0.66
6769.00,0.66
6768.00,0.66
6767.00,0.66
6766.00,0.66
6765.00,0.66
6764.00,0.67
6763.00,0.67
6762.00,0.67
6761.00,0.67
6760.00,0.67
6759.00,0.67
6758.00,0.67
6757.00,0.67
6756.00,0.67
6755.00,0.67
6754.00,0.67
6753.00,0.66
6752.00,0.66
6751.00,0.67
6750.00,0.67
6749.00,0.67
6748.00,0.67
6747.00,0.67
6746.00,0.67
6745.00,0.67
6744.00,0.67
6743.00,0.67
6742.00,0.67
6741.00,0.67
6740.00,0.68
6739.00,0.68
6738.00,0.68
6737.00,0.68
6736.00,0.68
6735.00,0.68
6734.00,0.68
6733.00,0.68
6732.00,0.68
6731.00,0.68
6730.00,0.68
6729.00,0.68
6728.00,0.68
6727.00,0.68
6726.00,0.68
6725.00,0.69
6724.00,0.69
6723.00,0.69
6722.00,0.69
6721.00,0.69
6720.00,0.69
6719.00,0.69
6718.00,0.69
6717.00,0.69
6716.00,0.69
6715.00,0.69
6714.00,0.69
6713.00,0.70
6712.00,0.70
6711.00,0.70
6710.00,0.70
6709.00,0.70
6708.00,0.70
6707.00,0.70
6706.00,0.70
6705.00,0.70
6704.00,0.70
6703.00,0.70
6702.00,0.70
6701.00,0.70
6700.00,0.70
6699.00,0.70
6698.00,0.71
6697.00,0.71
6696.00,0.71
6695.00,0.71
6694.00,0.71
6693.00,0.71
6692.00,0.71
6691.00,0.71
6690.00,0.71
6689.00,0.71
6688.00,0.71
6687.00,0.72
6686.00,0.72
6685.00,0.72
6684.00,0.72
6683.00,0.72
6682.00,0.72
6681.00,0.72
6680.00,0.72
6679.00,0.72
6678.00,0.72
6677.00,0.72
6676.00,0.72
6675.00,0.72
6674.00,0.73
6673.00,0.73
6672.00,0.73
6671.00,0.73
6670.00,0.73
6669.00,0.73
6668.00,0.73
6667.00,0.73
6666.00,0.74
6665.00,0.74
6664.00,0.74
6663.00,0.74
6662.00,0.74
6661.00,0.74
6660.00,0.74
6659.00,0.74
6658.00,0.74
6657.00,0.74
6656.00,0.74
6655.00,0.74
6654.00,0.74
6653.00,0.74
6652.00,0.74
6651.00,0.74
6650.00,0.74
6649.00,0.74
6648.00,0.74
6647.00,0.74
6646.00,0.74
6645.00,0.74
6644.00,0.74
6643.00,0.75
6642.00,0.75
6641.00,0.75
6640.00,0.75
6639.00,0.75
6638.00,0.75
6637.00,0.75
6636.00,0.75
6635.00,0.75
6634.00,0.75
6633.00,0.76
6632.00,0.76
6631.00,0.76
6630.00,0.76
6629.00,0.76
6628.00,0.76
6627.00,0.76
6626.00,0.76
6625.00,0.76
6624.00,0.76
6623.00,0.76
6622.00,0.76
6621.00,0.77
6620.00,0.77
6619.00,0.77
6618.00,0.77
6617.00,0.77
6616.00,0.77
6615.00,0.77
6614.00,0.77
6613.00,0.77
6612.00,0.77
6611.00,0.77
6610.00,0.77
6609.00,0.77
6608.00,0.78
6607.00,0.78
6606.00,0.78
6605.00,0.78
6604.00,0.78
6603.00,0.78
6602.00,0.78
6601.00,0.78
6600.00,0.78
6599.00,0.78
6598.00,0.79
6597.00,0.79
6596.00,0.79
6595.00,0.79
6594.00,0.79
6593.00,0.79
6592.00,0.79
6591.00,0.79
6590.00,0.79
6589.00,0.80
6588.00,0.80
6587.00,0.80
6586.00,0.80
6585.00,0.80
6584.00,0.80
6583.00,0.80
6582.00,0.80
6581.00,0.80
6580.00,0.81
6579.00,0.81
6578.00,0.81
6577.00,0.81
6576.00,0.81
6575.00,0.81
6574.00,0.81
6573.00,0.81
6572.00,0.81
6571.00,0.81
6570.00,0.81
6569.00,0.81
6568.00,0.81
6567.00,0.81
6566.00,0.82
6565.00,0.82
6564.00,0.82
6563.00,0.82
6562.00,0.82
6561.00,0.82
6560.00,0.82
6559.00,0.83
6558.00,0.83
6557.00,0.83
6556.00,0.83
6555.00,0.83
6554.00,0.83
6553.00,0.83
6552.00,0.84
6551.00,0.84
6550.00,0.84
6549.00,0.84
6548.00,0.84
6547.00,0.84
6546.00,0.84
6545.00,0.84
6544.00,0.84
6543.00,0.84
6542.00,0.84
6541.00,0.85
6540.00,0.85
6539.00,0.85
6538.00,0.85
6537.00,0.85
6536.00,0.85
6535.00,0.85
6534.00,0.85
6533.00,0.85
6532.00,0.85
6531.00,0.85
6530.00,0.85
6529.00,0.85
6528.00,0.85
6527.00,0.85
6526.00,0.85
6525.00,0.85
6524.00,0.85
6523.00,0.85
6522.00,0.85
6521.00,0.85
6520.00,0.85
6519.00,0.86
6518.00,0.86
6517.00,0.86
6516.00,0.86
6515.00,0.86
6514.00,0.86
6513.00,0.86
6512.00,0.86
6511.00,0.86
6510.00,0.86
6509.00,0.87
6508.00,0.87
6507.00,0.87
6506.00,0.87
6505.00,0.87
6504.00,0.87
6503.00,0.87
6502.00,0.87
6501.00,0.87
6500.00,0.87
6499.00,0.87
6498.00,0.87
6497.00,0.87
6496.00,0.87
6495.00,0.87
6494.00,0.87
6493.00,0.87
6492.00,0.88
6491.00,0.88
6490.00,0.88
6489.00,0.88
6488.00,0.88
6487.00,0.88
6486.00,0.88
6485.00,0.88
6484.00,0.88
6483.00,0.88
6482.00,0.88
6481.00,0.88
6480.00,0.88
6479.00,0.88
6478.00,0.88
6477.00,0.89
6476.00,0.89
6475.00,0.89
6474.00,0.89
6473.00,0.89
6472.00,0.89
6471.00,0.89
6470.00,0.89
6469.00,0.89
6468.00,0.89
6467.00,0.89
6466.00,0.89
6465.00,0.89
6464.00,0.89
6463.00,0.89
6462.00,0.89
6461.00,0.90
6460.00,0.90
6459.00,0.90
6458.00,0.90
6457.00,0.90
6456.00,0.90
6455.00,0.90
6454.00,0.90
6453.00,0.90
6452.00,0.90
6451.00,0.90
6450.00,0.90
6449.00,0.90
6448.00,0.90
6447.00,0.90
6446.00,0.90
6445.00,0.90
6444.00,0.90
6443.00,0.90
6442.00,0.91
6441.00,0.91
6440.00,0.91
6439.00,0.91
6438.00,0.91
6437.00,0.91
6436.00,0.91
6435.00,0.91
6434.00,0.91
6433.00,0.91
6432.00,0.91
6431.00,0.91
6430.00,0.91
6429.00,0.91
6428.00,0.91
6427.00,0.91
6426.00,0.91
6425.00,0.91
6424.00,0.92
6423.00,0.92
6422.00,0.92
6421.00,0.92
6420.00,0.92
6419.00,0.92
6418.00,0.92
6417.00,0.92
6416.00,0.92
6415.00,0.93
6414.00,0.93
6413.00,0.93
6412.00,0.93
6411.00,0.93
6410.00,0.93
6409.00,0.93
6408.00,0.93
6407.00,0.93
6406.00,0.93
6405.00,0.93
6404.00,0.93
6403.00,0.93
6402.00,0.93
6401.00,0.93
6400.00,0.93
6399.00,0.93
6398.00,0.93
6397.00,0.93
6396.00,0.93
6395.00,0.93
6394.00,0.94
6393.00,0.94
6392.00,0.94
6391.00,0.94
6390.00,0.94
6389.00,0.94
6388.00,0.94
6387.00,0.94
6386.00,0.94
6385.00,0.94
6384.00,0.94
6383.00,0.94
6382.00,0.94
6381.00,0.94
6380.00,0.95
6379.00,0.95
6378.00,0.95
6377.00,0.95
6376.00,0.95
6375.00,0.95
6374.00,0.95
6373.00,0.95
6372.00,0.95
6371.00,0.95
6370.00,0.96
6369.00,0.96
6368.00,0.96
6367.00,0.96
6366.00,0.96
6365.00,0.96
6364.00,0.96
6363.00,0.96
6362.00,0.96
6361.00,0.96
6360.00,0.96
6359.00,0.96
6358.00,0.96
6357.00,0.96
6356.00,0.96
6355.00,0.96
6354.00,0.96
6353.00,0.96
6352.00,0.96
6351.00,0.96
6350.00,0.97
6349.00,0.97
6348.00,0.97
6347.00,0.97
6346.00,0.97
6345.00,0.97
6344.00,0.97
6343.00,0.97
6342.00,0.97
6341.00,0.97
6340.00,0.97
6339.00,0.97
6338.00,0.97
6337.00,0.97
6336.00,0.98
6335.00,0.98
6334.00,0.98
6333.00,0.98
6332.00,0.98
6331.00,0.98
6330.00,0.98
6329.00,0.98
6328.00,0.98
6327.00,0.98
6326.00,0.98
6325.00,0.98
6324.00,0.99
6323.00,0.99
6322.00,0.99
6321.00,0.99
6320.00,0.99
6319.00,0.99
6318.00,0.99
6317.00,0.99
6316.00,0.99
6315.00,0.99
6314.00,0.99
6313.00,0.99
6312.00,0.99
6311.00,1.00
6310.00,1.00
6309.00,1.00
6308.00,1.00
6307.00,1.00
6306.00,1.00
6305.00,1.00
6304.00,1.00
6303.00,1.01
6302.00,1.01
6301.00,1.01
6300.00,1.01
6299.00,1.01
6298.00,1.01
6297.00,1.01
6296.00,1.02
6295.00,1.02
6294.00,1.02
6293.00,1.02
6292.00,1.02
6291.00,1.02
6290.00,1.02
6289.00,1.02
6288.00,1.02
6287.00,1.02
6286.00,1.02
6285.00,1.02
6284.00,1.03
6283.00,1.03
6282.00,1.03
6281.00,1.03
6280.00,1.03
6279.00,1.03
6278.00,1.03
6277.00,1.03
6276.00,1.03
6275.00,1.04
6274.00,1.04
6273.00,1.04
6272.00,1.04
6271.00,1.04
6270.00,1.05
6269.00,1.05
6268.00,1.05
6267.00,1.05
6266.00,1.05
6265.00,1.05
6264.00,1.06
6263.00,1.06
6262.00,1.06
6261.00,1.06
6260.00,1.06
6259.00,1.06
6258.00,1.06
6257.00,1.06
6256.00,1.06
6255.00,1.06
6254.00,1.06
6253.00,1.06
6252.00,1.07
6251.00,1.07
6250.00,1.07
6249.00,1.07
6248.00,1.07
6247.00,1.07
6246.00,1.07
6245.00,1.07
6244.00,1.07
6243.00,1.07
6242.00,1.07
6241.00,1.07
6240.00,1.08
6239.00,1.08
6238.00,1.08
6237.00,1.08
6236.00,1.08
6235.00,1.08
6234.00,1.08
6233.00,1.09
6232.00,1.09
6231.00,1.09
6230.00,1.09
6229.00,1.09
6228.00,1.10
6227.00,1.10
6226.00,1.10
6225.00,1.10
6224.00,1.10
6223.00,1.10
6222.00,1.11
6221.00,1.11
6220.00,1.11
6219.00,1.11
6218.00,1.11
6217.00,1.11
6216.00,1.11
6215.00,1.11
6214.00,1.11
6213.00,1.12
6212.00,1.12
6211.00,1.12
6210.00,1.12
6209.00,1.12
6208.00,1.12
6207.00,1.12
6206.00,1.12
6205.00,1.12
6204.00,1.12
6203.00,1.12
6202.00,1.12
6201.00,1.13
6200.00,1.13
6199.00,1.13
6198.00,1.13
6197.00,1.13
6196.00,1.13
6195.00,1.13
6194.00,1.13
6193.00,1.14
6192.00,1.14
6191.00,1.14
6190.00,1.14
6189.00,1.14
6188.00,1.14
6187.00,1.14
6186.00,1.14
6185.00,1.15
6184.00,1.15
6183.00,1.15
6182.00,1.15
6181.00,1.15
6180.00,1.15
6179.00,1.15
6178.00,1.16
6177.00,1.16
6176.00,1.16
6175.00,1.16
6174.00,1.16
6173.00,1.16
6172.00,1.17
6171.00,1.17
6170.00,1.17
6169.00,1.17
6168.00,1.17
6167.00,1.18
6166.00,1.18
6165.00,1.18
6164.00,1.18
6163.00,1.18
6162.00,1.18
6161.00,1.19
6160.00,1.19
6159.00,1.19
6158.00,1.19
6157.00,1.19
6156.00,1.19
6155.00,1.19
6154.00,1.19
6153.00,1.19
6152.00,1.20
6151.00,1.20
6150.00,1.20
6149.00,1.20
6148.00,1.20
6147.00,1.20
6146.00,1.20
6145.00,1.21
6144.00,1.21
6143.00,1.21
6142.00,1.21
6141.00,1.21
6140.00,1.21
6139.00,1.22
6138.00,1.22
6137.00,1.22
6136.00,1.22
6135.00,1.22
6134.00,1.22
6133.00,1.23
6132.00,1.23
6131.00,1.23
6130.00,1.23
6129.00,1.23
6128.00,1.23
6127.00,1.24
6126.00,1.24
6125.00,1.24
6124.00,1.24
6123.00,1.24
6122.00,1.24
6121.00,1.24
6120.00,1.25
6119.00,1.25
6118.00,1.25
6117.00,1.25
6116.00,1.25
6115.00,1.25
6114.00,1.26
6113.00,1.26
6112.00,1.26
6111.00,1.26
6110.00,1.26
6109.00,1.26
6108.00,1.26
6107.00,1.27
6106.00,1.27
6105.00,1.27
6104.00,1.27
6103.00,1.27
6102.00,1.27
6101.00,1.27
6100.00,1.27
6099.00,1.27
6098.00,1.27
6097.00,1.27
6096.00,1.27
6095.00,1.27
6094.00,1.28
6093.00,1.28
6092.00,1.28
6091.00,1.28
6090.00,1.28
6089.00,1.28
6088.00,1.28
6087.00,1.29
6086.00,1.29
6085.00,1.29
6084.00,1.29
6083.00,1.29
6082.00,1.29
6081.00,1.30
6080.00,1.30
6079.00,1.30
6078.00,1.30
6077.00,1.30
6076.00,1.30
6075.00,1.30
6074.00,1.31
6073.00,1.31
6072.00,1.31
6071.00,1.31
6070.00,1.31
6069.00,1.31
6068.00,1.31
6067.00,1.31
6066.00,1.31
6065.00,1.32
6064.00,1.32
6063.00,1.32
6062.00,1.32
6061.00,1.32
6060.00,1.32
6059.00,1.32
6058.00,1.32
6057.00,1.32
6056.00,1.32
6055.00,1.32
6054.00,1.32
6053.00,1.32
6052.00,1.32
6051.00,1.32
6050.00,1.32
6049.00,1.32
6048.00,1.32
6047.00,1.32
6046.00,1.32
6045.00,1.33
6044.00,1.33
6043.00,1.33
6042.00,1.33
6041.00,1.33
6040.00,1.33
6039.00,1.33
6038.00,1.33
6037.00,1.33
6036.00,1.33
6035.00,1.33
6034.00,1.33
6033.00,1.33
6032.00,1.33
6031.00,1.33
6030.00,1.33
6029.00,1.33
6028.00,1.34
6027.00,1.34
6026.00,1.34
6025.00,1.34
6024.00,1.34
6023.00,1.34
6022.00,1.34
6021.00,1.34
6020.00,1.34
6019.00,1.34
6018.00,1.34
6017.00,1.34
6016.00,1.34
6015.00,1.34
6014.00,1.34
6013.00,1.35
6012.00,1.35
6011.00,1.35
6010.00,1.35
6009.00,1.35
6008.00,1.35
6007.00,1.35
6006.00,1.35
6005.00,1.34
6004.00,1.34
6003.00,1.34
6002.00,1.34
6001.00,1.34
6000.00,1.34
5999.00,1.34
5998.00,1.34
5997.00,1.34
5996.00,1.34
5995.00,1.34
5994.00,1.33
5993.00,1.33
5992.00,1.33
5991.00,1.33
5990.00,1.33
5989.00,1.32
5988.00,1.32
5987.00,1.32
5986.00,1.32
5985.00,1.32
5984.00,1.31
5983.00,1.31
5982.00,1.31
5981.00,1.31
5980.00,1.30
5979.00,1.30
5978.00,1.30
5977.00,1.29
5976.00,1.29
5975.00,1.28
5974.00,1.28
5973.00,1.28
5972.00,1.27
5971.00,1.27
5970.00,1.26
5969.00,1.25
5968.00,1.25
5967.00,1.24
5966.00,1.24
5965.00,1.23
5964.00,1.22
5963.00,1.21
5962.00,1.21
5961.00,1.20
5960.00,1.19
5959.00,1.18
5958.00,1.18
5957.00,1.17
5956.00,1.16
5955.00,1.16
5954.00,1.15
5953.00,1.15
5952.00,1.14
5951.00,1.13
5950.00,1.13
5949.00,1.12
5948.00,1.12
5947.00,1.12
5946.00,1.11
5945.00,1.11
5944.00,1.11
5943.00,1.10
5942.00,1.10
5941.00,1.10
5940.00,1.10
5939.00,1.10
5938.00,1.10
5937.00,1.10
5936.00,1.09
5935.00,1.09
5934.00,1.09
5933.00,1.09
5932.00,1.09
5931.00,1.09
5930.00,1.09
5929.00,1.09
5928.00,1.09
5927.00,1.09
5926.00,1.09
5925.00,1.08
5924.00,1.08
5923.00,1.08
5922.00,1.08
5921.00,1.08
5920.00,1.07
5919.00,1.07
5918.00,1.07
5917.00,1.07
5916.00,1.06
5915.00,1.06
5914.00,1.06
5913.00,1.05
5912.00,1.05
5911.00,1.05
5910.00,1.05
5909.00,1.04
5908.00,1.04
5907.00,1.04
5906.00,1.04
5905.00,1.04
5904.00,1.04
5903.00,1.03
5902.00,1.03
5901.00,1.03
5900.00,1.03
5899.00,1.03
5898.00,1.03
5897.00,1.03
5896.00,1.03
5895.00,1.04
5894.00,1.04
5893.00,1.04
5892.00,1.04
5891.00,1.04
5890.00,1.05
5889.00,1.05
5888.00,1.05
5887.00,1.05
5886.00,1.06
5885.00,1.06
5884.00,1.06
5883.00,1.06
5882.00,1.07
5881.00,1.07
5880.00,1.07
5879.00,1.08
5878.00,1.08
5877.00,1.08
5876.00,1.08
5875.00,1.09
5874.00,1.09
5873.00,1.09
5872.00,1.09
5871.00,1.09
5870.00,1.10
5869.00,1.10
5868.00,1.10
5867.00,1.10
5866.00,1.11
5865.00,1.11
5864.00,1.11
5863.00,1.11
5862.00,1.11
5861.00,1.12
5860.00,1.12
5859.00,1.12
5858.00,1.12
5857.00,1.12
5856.00,1.12
5855.00,1.13
5854.00,1.13
5853.00,1.13
5852.00,1.13
5851.00,1.13
5850.00,1.13
5849.00,1.13
5848.00,1.13
5847.00,1.13
5846.00,1.13
5845.00,1.13
5844.00,1.14
5843.00,1.14
5842.00,1.14
5841.00,1.14
5840.00,1.13
5839.00,1.13
5838.00,1.13
5837.00,1.13
5836.00,1.13
5835.00,1.13
5834.00,1.13
5833.00,1.13
5832.00,1.13
5831.00,1.13
5830.00,1.13
5829.00,1.13
5828.00,1.13
5827.00,1.13
5826.00,1.13
5825.00,1.13
5824.00,1.13
5823.00,1.13
5822.00,1.13
5821.00,1.13
5820.00,1.13
5819.00,1.13
5818.00,1.13
5817.00,1.13
5816.00,1.13
5815.00,1.13
5814.00,1.13
5813.00,1.13
5812.00,1.13
5811.00,1.13
5810.00,1.13
5809.00,1.13
5808.00,1.13
5807.00,1.13
5806.00,1.13
5805.00,1.13
5804.00,1.13
5803.00,1.13
5802.00,1.13
5801.00,1.13
5800.00,1.13
5799.00,1.13
5798.00,1.12
5797.00,1.12
5796.00,1.12
5795.00,1.12
5794.00,1.12
5793.00,1.12
5792.00,1.11
5791.00,1.11
5790.00,1.11
5789.00,1.11
5788.00,1.11
5787.00,1.11
5786.00,1.10
5785.00,1.10
5784.00,1.10
5783.00,1.10
5782.00,1.10
5781.00,1.10
5780.00,1.09
5779.00,1.09
5778.00,1.09
5777.00,1.09
5776.00,1.09
5775.00,1.09
5774.00,1.09
5773.00,1.09
5772.00,1.09
5771.00,1.09
5770.00,1.09
5769.00,1.09
5768.00,1.09
5767.00,1.09
5766.00,1.09
5765.00,1.09
5764.00,1.10
5763.00,1.10
5762.00,1.10
5761.00,1.10
5760.00,1.10
5759.00,1.11
5758.00,1.11
5757.00,1.11
5756.00,1.11
5755.00,1.12
5754.00,1.12
5753.00,1.12
5752.00,1.13
5751.00,1.13
5750.00,1.13
5749.00,1.14
5748.00,1.14
5747.00,1.14
5746.00,1.15
5745.00,1.15
5744.00,1.15
5743.00,1.16
5742.00,1.16
5741.00,1.16
5740.00,1.17
5739.00,1.17
5738.00,1.17
5737.00,1.17
5736.00,1.18
5735.00,1.18
5734.00,1.18
5733.00,1.18
5732.00,1.18
5731.00,1.19
5730.00,1.19
5729.00,1.19
5728.00,1.19
5727.00,1.19
5726.00,1.19
5725.00,1.19
5724.00,1.19
5723.00,1.19
5722.00,1.19
5721.00,1.19
5720.00,1.19
5719.00,1.19
5718.00,1.19
5717.00,1.19
5716.00,1.19
5715.00,1.19
5714.00,1.19
5713.00,1.19
5712.00,1.19
5711.00,1.19
5710.00,1.19
5709.00,1.19
5708.00,1.19
5707.00,1.19
5706.00,1.19
5705.00,1.19
5704.00,1.19
5703.00,1.18
5702.00,1.18
5701.00,1.18
5700.00,1.18
5699.00,1.18
5698.00,1.18
5697.00,1.18
5696.00,1.18
5695.00,1.17
5694.00,1.17
5693.00,1.17
5692.00,1.17
5691.00,1.17
5690.00,1.17
5689.00,1.16
5688.00,1.16
5687.00,1.16
5686.00,1.16
5685.00,1.16
5684.00,1.16
5683.00,1.16
5682.00,1.16
5681.00,1.16
5680.00,1.16
5679.00,1.15
5678.00,1.15
5677.00,1.15
5676.00,1.15
5675.00,1.15
5674.00,1.15
5673.00,1.15
5672.00,1.15
5671.00,1.16
5670.00,1.16
5669.00,1.16
5668.00,1.16
5667.00,1.16
5666.00,1.16
5665.00,1.16
5664.00,1.16
5663.00,1.16
5662.00,1.16
5661.00,1.16
5660.00,1.17
5659.00,1.17
5658.00,1.17
5657.00,1.17
5656.00,1.17
5655.00,1.17
5654.00,1.17
5653.00,1.18
5652.00,1.18
5651.00,1.18
5650.00,1.18
5649.00,1.18
5648.00,1.18
5647.00,1.19
5646.00,1.19
5645.00,1.19
5644.00,1.19
5643.00,1.19
5642.00,1.19
5641.00,1.20
5640.00,1.20
5639.00,1.20
5638.00,1.20
5637.00,1.20
5636.00,1.20
5635.00,1.21
5634.00,1.21
5633.00,1.21
5632.00,1.21
5631.00,1.21
5630.00,1.21
5629.00,1.21
5628.00,1.22
5627.00,1.22
5626.00,1.22
5625.00,1.22
5624.00,1.22
5623.00,1.22
5622.00,1.22
5621.00,1.23
5620.00,1.23
5619.00,1.23
5618.00,1.23
5617.00,1.23
5616.00,1.23
5615.00,1.23
5614.00,1.24
5613.00,1.24
5612.00,1.24
5611.00,1.24
5610.00,1.24
5609.00,1.24
5608.00,1.24
5607.00,1.25
5606.00,1.25
5605.00,1.25
5604.00,1.25
5603.00,1.25
5602.00,1.25
5601.00,1.26
5600.00,1.26
5599.00,1.26
5598.00,1.26
5597.00,1.26
5596.00,1.26
5595.00,1.27
5594.00,1.27
5593.00,1.27
5592.00,1.27
5591.00,1.27
5590.00,1.27
5589.00,1.28
5588.00,1.28
5587.00,1.28
5586.00,1.28
5585.00,1.28
5584.00,1.28
5583.00,1.29
5582.00,1.29
5581.00,1.29
5580.00,1.29
5579.00,1.29
5578.00,1.29
5577.00,1.29
5576.00,1.30
5575.00,1.30
5574.00,1.30
5573.00,1.30
5572.00,1.30
5571.00,1.30
5570.00,1.31
5569.00,1.31
5568.00,1.31
5567.00,1.31
5566.00,1.31
5565.00,1.31
5564.00,1.31
5563.00,1.31
5562.00,1.32
5561.00,1.32
5560.00,1.32
5559.00,1.32
5558.00,1.32
5557.00,1.32
5556.00,1.32
5555.00,1.32
5554.00,1.33
5553.00,1.33
5552.00,1.33
5551.00,1.33
5550.00,1.33
5549.00,1.33
5548.00,1.33
5547.00,1.33
5546.00,1.34
5545.00,1.34
5544.00,1.34
5543.00,1.34
5542.00,1.34
5541.00,1.34
5540.00,1.35
5539.00,1.35
5538.00,1.35
5537.00,1.35
5536.00,1.35
5535.00,1.35
5534.00,1.36
5533.00,1.36
5532.00,1.36
5531.00,1.36
5530.00,1.36
5529.00,1.36
5528.00,1.36
5527.00,1.36
5526.00,1.36
5525.00,1.36
5524.00,1.37
5523.00,1.37
5522.00,1.37
5521.00,1.37
5520.00,1.37
5519.00,1.37
5518.00,1.37
5517.00,1.37
5516.00,1.37
5515.00,1.37
5514.00,1.37
5513.00,1.37
5512.00,1.37
5511.00,1.37
5510.00,1.37
5509.00,1.37
5508.00,1.37
5507.00,1.37
5506.00,1.37
5505.00,1.37
5504.00,1.37
5503.00,1.38
5502.00,1.38
5501.00,1.38
5500.00,1.38
5499.00,1.38
5498.00,1.38
5497.00,1.38
5496.00,1.38
5495.00,1.38
5494.00,1.38
5493.00,1.38
5492.00,1.38
5491.00,1.38
5490.00,1.38
5489.00,1.38
5488.00,1.38
5487.00,1.39
5486.00,1.39
5485.00,1.39
5484.00,1.39
5483.00,1.39
5482.00,1.39
5481.00,1.39
5480.00,1.39
5479.00,1.40
5478.00,1.40
5477.00,1.40
5476.00,1.40
5475.00,1.40
5474.00,1.40
5473.00,1.40
5472.00,1.41
5471.00,1.41
5470.00,1.41
5469.00,1.41
5468.00,1.41
5467.00,1.41
5466.00,1.42
5465.00,1.42
5464.00,1.42
5463.00,1.42
5462.00,1.42
5461.00,1.42
5460.00,1.42
5459.00,1.42
5458.00,1.42
5457.00,1.42
5456.00,1.43
5455.00,1.43
5454.00,1.43
5453.00,1.43
5452.00,1.43
5451.00,1.43
5450.00,1.43
5449.00,1.43
5448.00,1.43
5447.00,1.43
5446.00,1.43
5445.00,1.43
5444.00,1.43
5443.00,1.43
5442.00,1.43
5441.00,1.43
5440.00,1.43
5439.00,1.43
5438.00,1.43
5437.00,1.43
5436.00,1.43
5435.00,1.43
5434.00,1.43
5433.00,1.43
5432.00,1.43
5431.00,1.43
5430.00,1.43
5429.00,1.43
5428.00,1.43
5427.00,1.43
5426.00,1.43
5425.00,1.43
5424.00,1.44
5423.00,1.44
5422.00,1.44
5421.00,1.44
5420.00,1.44
5419.00,1.43
5418.00,1.43
5417.00,1.43
5416.00,1.43
5415.00,1.43
5414.00,1.43
5413.00,1.43
5412.00,1.43
5411.00,1.43
5410.00,1.43
5409.00,1.43
5408.00,1.43
5407.00,1.43
5406.00,1.43
5405.00,1.43
5404.00,1.43
5403.00,1.43
5402.00,1.43
5401.00,1.43
5400.00,1.43
5399.00,1.43
5398.00,1.43
5397.00,1.43
5396.00,1.43
5395.00,1.42
5394.00,1.42
5393.00,1.42
5392.00,1.42
5391.00,1.42
5390.00,1.42
5389.00,1.41
5388.00,1.41
5387.00,1.41
5386.00,1.41
5385.00,1.40
5384.00,1.40
5383.00,1.40
5382.00,1.40
5381.00,1.39
5380.00,1.39
5379.00,1.39
5378.00,1.38
5377.00,1.38
5376.00,1.38
5375.00,1.37
5374.00,1.37
5373.00,1.37
5372.00,1.36
5371.00,1.36
5370.00,1.35
5369.00,1.35
5368.00,1.34
5367.00,1.34
5366.00,1.33
5365.00,1.33
5364.00,1.32
5363.00,1.32
5362.00,1.31
5361.00,1.30
5360.00,1.30
5359.00,1.29
5358.00,1.29
5357.00,1.28
5356.00,1.27
5355.00,1.26
5354.00,1.26
5353.00,1.25
5352.00,1.24
5351.00,1.23
5350.00,1.22
5349.00,1.22
5348.00,1.21
5347.00,1.20
5346.00,1.19
5345.00,1.18
5344.00,1.17
5343.00,1.16
5342.00,1.15
5341.00,1.14
5340.00,1.13
5339.00,1.12
5338.00,1.11
5337.00,1.10
5336.00,1.09
5335.00,1.08
5334.00,1.07
5333.00,1.06
5332.00,1.05
5331.00,1.04
5330.00,1.03
5329.00,1.02
5328.00,1.01
5327.00,1.00
5326.00,0.99
5325.00,0.98
5324.00,0.97
5323.00,0.96
5322.00,0.95
5321.00,0.94
5320.00,0.93
5319.00,0.93
5318.00,0.92
5317.00,0.91
5316.00,0.90
5315.00,0.89
5314.00,0.88
5313.00,0.88
5312.00,0.87
5311.00,0.86
5310.00,0.85
5309.00,0.85
5308.00,0.84
5307.00,0.83
5306.00,0.83
5305.00,0.82
5304.00,0.82
5303.00,0.81
5302.00,0.81
5301.00,0.80
5300.00,0.80
5299.00,0.79
5298.00,0.79
5297.00,0.78
5296.00,0.78
5295.00,0.78
5294.00,0.77
5293.00,0.77
5292.00,0.77
5291.00,0.76
5290.00,0.76
5289.00,0.76
5288.00,0.76
5287.00,0.76
5286.00,0.75
5285.00,0.75
5284.00,0.75
5283.00,0.75
5282.00,0.75
5281.00,0.75
5280.00,0.75
5279.00,0.75
5278.00,0.75
5277.00,0.74
5276.00,0.74
5275.00,0.74
5274.00,0.74
5273.00,0.74
5272.00,0.74
5271.00,0.74
5270.00,0.74
5269.00,0.74
5268.00,0.74
5267.00,0.74
5266.00,0.74
5265.00,0.74
5264.00,0.74
5263.00,0.74
5262.00,0.74
5261.00,0.74
5260.00,0.74
5259.00,0.74
5258.00,0.74
5257.00,0.74
5256.00,0.74
5255.00,0.74
5254.00,0.74
5253.00,0.74
5252.00,0.74
5251.00,0.74
5250.00,0.74
5249.00,0.74
5248.00,0.74
5247.00,0.74
5246.00,0.74
5245.00,0.74
5244.00,0.74
5243.00,0.74
5242.00,0.74
5241.00,0.74
5240.00,0.74
5239.00,0.74
5238.00,0.74
5237.00,0.74
5236.00,0.74
5235.00,0.74
5234.00,0.74
5233.00,0.75
5232.00,0.75
5231.00,0.75
5230.00,0.75
5229.00,0.75
5228.00,0.75
5227.00,0.75
5226.00,0.75
5225.00,0.75
5224.00,0.75
5223.00,0.75
5222.00,0.75
5221.00,0.75
5220.00,0.75
5219.00,0.75
5218.00,0.75
5217.00,0.75
5216.00,0.75
5215.00,0.75
5214.00,0.75
5213.00,0.75
5212.00,0.75
5211.00,0.75
5210.00,0.75
5209.00,0.75
5208.00,0.75
5207.00,0.75
5206.00,0.75
5205.00,0.75
5204.00,0.75
5203.00,0.75
5202.00,0.76
5201.00,0.76
5200.00,0.76
5199.00,0.76
5198.00,0.76
5197.00,0.76
5196.00,0.76
5195.00,0.76
5194.00,0.76
5193.00,0.76
5192.00,0.76
5191.00,0.76
5190.00,0.76
5189.00,0.76
5188.00,0.76
5187.00,0.77
5186.00,0.77
5185.00,0.77
5184.00,0.77
5183.00,0.77
5182.00,0.77
5181.00,0.77
5180.00,0.77
5179.00,0.77
5178.00,0.77
5177.00,0.77
5176.00,0.77
5175.00,0.77
5174.00,0.76
5173.00,0.76
5172.00,0.76
5171.00,0.76
5170.00,0.76
5169.00,0.76
5168.00,0.76
5167.00,0.76
5166.00,0.76
5165.00,0.76
5164.00,0.77
5163.00,0.77
5162.00,0.77
5161.00,0.77
5160.00,0.77
5159.00,0.77
5158.00,0.77
5157.00,0.77
5156.00,0.77
5155.00,0.77
5154.00,0.77
5153.00,0.77
5152.00,0.77
5151.00,0.77
5150.00,0.77
5149.00,0.78
5148.00,0.78
5147.00,0.78
5146.00,0.78
5145.00,0.78
5144.00,0.78
5143.00,0.78
5142.00,0.78
5141.00,0.78
5140.00,0.78
5139.00,0.78
5138.00,0.78
5137.00,0.78
5136.00,0.78
5135.00,0.78
5134.00,0.78
5133.00,0.78
5132.00,0.78
5131.00,0.78
5130.00,0.78
5129.00,0.78
5128.00,0.78
5127.00,0.78
5126.00,0.78
5125.00,0.78
5124.00,0.78
5123.00,0.79
5122.00,0.79
5121.00,0.79
5120.00,0.79
5119.00,0.79
5118.00,0.79
5117.00,0.79
5116.00,0.79
5115.00,0.79
5114.00,0.79
5113.00,0.79
5112.00,0.79
5111.00,0.79
5110.00,0.79
5109.00,0.79
5108.00,0.79
5107.00,0.79
5106.00,0.79
5105.00,0.79
5104.00,0.79
5103.00,0.79
5102.00,0.80
5101.00,0.80
5100.00,0.80
5099.00,0.80
5098.00,0.80
5097.00,0.80
5096.00,0.80
5095.00,0.80
5094.00,0.80
5093.00,0.80
5092.00,0.80
5091.00,0.80
5090.00,0.80
5089.00,0.80
5088.00,0.80
5087.00,0.80
5086.00,0.80
5085.00,0.81
5084.00,0.81
5083.00,0.81
5082.00,0.81
5081.00,0.81
5080.00,0.81
5079.00,0.81
5078.00,0.81
5077.00,0.81
5076.00,0.82
5075.00,0.82
5074.00,0.82
5073.00,0.82
5072.00,0.82
5071.00,0.82
5070.00,0.82
5069.00,0.82
5068.00,0.82
5067.00,0.82
5066.00,0.82
5065.00,0.82
5064.00,0.82
5063.00,0.82
5062.00,0.82
5061.00,0.82
5060.00,0.82
5059.00,0.82
5058.00,0.83
5057.00,0.83
5056.00,0.83
5055.00,0.83
5054.00,0.83
5053.00,0.83
5052.00,0.83
5051.00,0.83
5050.00,0.83
5049.00,0.83
5048.00,0.83
5047.00,0.83
5046.00,0.83
5045.00,0.83
5044.00,0.83
5043.00,0.83
5042.00,0.83
5041.00,0.83
5040.00,0.83
5039.00,0.83
5038.00,0.84
5037.00,0.84
5036.00,0.84
5035.00,0.84
5034.00,0.84
5033.00,0.84
5032.00,0.84
5031.00,0.84
5030.00,0.84
5029.00,0.84
5028.00,0.84
5027.00,0.84
5026.00,0.84
5025.00,0.84
5024.00,0.84
5023.00,0.84
5022.00,0.84
5021.00,0.84
5020.00,0.84
5019.00,0.84
5018.00,0.84
5017.00,0.84
5016.00,0.84
5015.00,0.85
5014.00,0.85
5013.00,0.85
5012.00,0.85
5011.00,0.85
5010.00,0.85
5009.00,0.85
5008.00,0.85
5007.00,0.85
5006.00,0.85
5005.00,0.85
5004.00,0.85
5003.00,0.86
5002.00,0.86
5001.00,0.86
5000.00,0.86
4999.00,0.86
4998.00,0.86
4997.00,0.86
4996.00,0.86
4995.00,0.86
4994.00,0.86
4993.00,0.86
4992.00,0.86
4991.00,0.86
4990.00,0.86
4989.00,0.86
4988.00,0.86
4987.00,0.86
4986.00,0.87
4985.00,0.87
4984.00,0.87
4983.00,0.87
4982.00,0.87
4981.00,0.87
4980.00,0.87
4979.00,0.87
4978.00,0.88
4977.00,0.88
4976.00,0.88
4975.00,0.88
4974.00,0.88
4973.00,0.88
4972.00,0.88
4971.00,0.88
4970.00,0.88
4969.00,0.88
4968.00,0.88
4967.00,0.88
4966.00,0.88
4965.00,0.88
4964.00,0.89
4963.00,0.89
4962.00,0.89
4961.00,0.89
4960.00,0.89
4959.00,0.89
4958.00,0.89
4957.00,0.89
4956.00,0.89
4955.00,0.90
4954.00,0.90
4953.00,0.90
4952.00,0.90
4951.00,0.90
4950.00,0.90
4949.00,0.90
4948.00,0.90
4947.00,0.90
4946.00,0.91
4945.00,0.91
4944.00,0.91
4943.00,0.91
4942.00,0.91
4941.00,0.91
4940.00,0.91
4939.00,0.91
4938.00,0.91
4937.00,0.91
4936.00,0.91
4935.00,0.91
4934.00,0.91
4933.00,0.91
4932.00,0.91
4931.00,0.91
4930.00,0.91
4929.00,0.91
4928.00,0.91
4927.00,0.91
4926.00,0.91
4925.00,0.91
4924.00,0.91
4923.00,0.91
4922.00,0.92
4921.00,0.92
4920.00,0.92
4919.00,0.92
4918.00,0.92
4917.00,0.92
4916.00,0.92
4915.00,0.92
4914.00,0.92
4913.00,0.92
4912.00,0.92
4911.00,0.92
4910.00,0.92
4909.00,0.92
4908.00,0.92
4907.00,0.92
4906.00,0.92
4905.00,0.92
4904.00,0.92
4903.00,0.92
4902.00,0.92
4901.00,0.92
4900.00,0.92
4899.00,0.92
4898.00,0.92
4897.00,0.93
4896.00,0.93
4895.00,0.93
4894.00,0.93
4893.00,0.93
4892.00,0.93
4891.00,0.93
4890.00,0.94
4889.00,0.94
4888.00,0.94
4887.00,0.94
4886.00,0.94
4885.00,0.95
4884.00,0.95
4883.00,0.95
4882.00,0.95
4881.00,0.95
4880.00,0.95
4879.00,0.95
4878.00,0.96
4877.00,0.96
4876.00,0.96
4875.00,0.96
4874.00,0.96
4873.00,0.96
4872.00,0.96
4871.00,0.96
4870.00,0.96
4869.00,0.96
4868.00,0.96
4867.00,0.96
4866.00,0.96
4865.00,0.96
4864.00,0.96
4863.00,0.96
4862.00,0.96
4861.00,0.96
4860.00,0.96
4859.00,0.96
4858.00,0.96
4857.00,0.96
4856.00,0.96
4855.00,0.96
4854.00,0.96
4853.00,0.96
4852.00,0.96
4851.00,0.96
4850.00,0.96
4849.00,0.96
4848.00,0.96
4847.00,0.96
4846.00,0.97
4845.00,0.97
4844.00,0.97
4843.00,0.97
4842.00,0.97
4841.00,0.97
4840.00,0.97
4839.00,0.97
4838.00,0.97
4837.00,0.97
4836.00,0.98
4835.00,0.98
4834.00,0.98
4833.00,0.98
4832.00,0.98
4831.00,0.98
4830.00,0.98
4829.00,0.98
4828.00,0.98
4827.00,0.98
4826.00,0.98
4825.00,0.98
4824.00,0.98
4823.00,0.98
4822.00,0.99
4821.00,0.99
4820.00,0.99
4819.00,0.99
4818.00,0.99
4817.00,0.99
4816.00,0.99
4815.00,1.00
4814.00,1.00
4813.00,1.00
4812.00,1.00
4811.00,1.00
4810.00,1.00
4809.00,1.00
4808.00,1.00
4807.00,1.00
4806.00,1.01
4805.00,1.01
4804.00,1.01
4803.00,1.01
4802.00,1.01
4801.00,1.01
4800.00,1.01
4799.00,1.01
4798.00,1.01
4797.00,1.01
4796.00,1.01
4795.00,1.01
4794.00,1.01
4793.00,1.01
4792.00,1.01
4791.00,1.01
4790.00,1.01
4789.00,1.01
4788.00,1.01
4787.00,1.01
4786.00,1.01
4785.00,1.02
4784.00,1.02
4783.00,1.02
4782.00,1.02
4781.00,1.02
4780.00,1.02
4779.00,1.02
4778.00,1.02
4777.00,1.02
4776.00,1.02
4775.00,1.03
4774.00,1.03
4773.00,1.03
4772.00,1.03
4771.00,1.03
4770.00,1.03
4769.00,1.03
4768.00,1.04
4767.00,1.04
4766.00,1.04
4765.00,1.04
4764.00,1.04
4763.00,1.05
4762.00,1.05
4761.00,1.05
4760.00,1.05
4759.00,1.05
4758.00,1.05
4757.00,1.06
4756.00,1.06
4755.00,1.06
4754.00,1.06
4753.00,1.06
4752.00,1.06
4751.00,1.06
4750.00,1.06
4749.00,1.06
4748.00,1.06
4747.00,1.06
4746.00,1.06
4745.00,1.07
4744.00,1.07
4743.00,1.07
4742.00,1.07
4741.00,1.07
4740.00,1.07
4739.00,1.07
4738.00,1.07
4737.00,1.07
4736.00,1.08
4735.00,1.08
4734.00,1.08
4733.00,1.08
4732.00,1.08
4731.00,1.08
4730.00,1.09
4729.00,1.09
4728.00,1.09
4727.00,1.09
4726.00,1.09
4725.00,1.10
4724.00,1.10
4723.00,1.10
4722.00,1.10
4721.00,1.10
4720.00,1.10
4719.00,1.11
4718.00,1.11
4717.00,1.11
4716.00,1.11
4715.00,1.11
4714.00,1.11
4713.00,1.11
4712.00,1.12
4711.00,1.12
4710.00,1.12
4709.00,1.12
4708.00,1.12
4707.00,1.12
4706.00,1.12
4705.00,1.12
4704.00,1.12
4703.00,1.13
4702.00,1.13
4701.00,1.13
4700.00,1.13
4699.00,1.13
4698.00,1.13
4697.00,1.13
4696.00,1.14
4695.00,1.14
4694.00,1.14
4693.00,1.14
4692.00,1.14
4691.00,1.14
4690.00,1.15
4689.00,1.15
4688.00,1.15
4687.00,1.15
4686.00,1.15
4685.00,1.15
4684.00,1.16
4683.00,1.16
4682.00,1.16
4681.00,1.16
4680.00,1.16
4679.00,1.16
4678.00,1.17
4677.00,1.17
4676.00,1.17
4675.00,1.17
4674.00,1.17
4673.00,1.17
4672.00,1.17
4671.00,1.18
4670.00,1.18
4669.00,1.18
4668.00,1.18
4667.00,1.18
4666.00,1.18
4665.00,1.19
4664.00,1.19
4663.00,1.19
4662.00,1.19
4661.00,1.19
4660.00,1.19
4659.00,1.20
4658.00,1.20
4657.00,1.20
4656.00,1.20
4655.00,1.20
4654.00,1.20
4653.00,1.20
4652.00,1.20
4651.00,1.20
4650.00,1.21
4649.00,1.21
4648.00,1.21
4647.00,1.21
4646.00,1.21
4645.00,1.21
4644.00,1.21
4643.00,1.21
4642.00,1.21
4641.00,1.21
4640.00,1.21
4639.00,1.21
4638.00,1.21
4637.00,1.21
4636.00,1.22
4635.00,1.22
4634.00,1.22
4633.00,1.22
4632.00,1.22
4631.00,1.22
4630.00,1.22
4629.00,1.22
4628.00,1.22
4627.00,1.22
4626.00,1.22
4625.00,1.22
4624.00,1.22
4623.00,1.22
4622.00,1.22
4621.00,1.22
4620.00,1.22
4619.00,1.23
4618.00,1.23
4617.00,1.23
4616.00,1.23
4615.00,1.23
4614.00,1.23
4613.00,1.23
4612.00,1.24
4611.00,1.24
4610.00,1.24
4609.00,1.24
4608.00,1.24
4607.00,1.24
4606.00,1.25
4605.00,1.25
4604.00,1.25
4603.00,1.25
4602.00,1.25
4601.00,1.25
4600.00,1.26
4599.00,1.26
4598.00,1.26
4597.00,1.26
4596.00,1.26
4595.00,1.26
4594.00,1.26
4593.00,1.26
4592.00,1.26
4591.00,1.27
4590.00,1.27
4589.00,1.27
4588.00,1.27
4587.00,1.27
4586.00,1.27
4585.00,1.27
4584.00,1.27
4583.00,1.27
4582.00,1.28
4581.00,1.28
4580.00,1.28
4579.00,1.28
4578.00,1.28
4577.00,1.28
4576.00,1.28
4575.00,1.28
4574.00,1.28
4573.00,1.28
4572.00,1.28
4571.00,1.28
4570.00,1.28
4569.00,1.28
4568.00,1.28
4567.00,1.28
4566.00,1.28
4565.00,1.28
4564.00,1.28
4563.00,1.28
4562.00,1.28
4561.00,1.28
4560.00,1.28
4559.00,1.28
4558.00,1.28
4557.00,1.28
4556.00,1.28
4555.00,1.28
4554.00,1.28
4553.00,1.28
4552.00,1.28
4551.00,1.28
4550.00,1.28
4549.00,1.28
4548.00,1.28
4547.00,1.29
4546.00,1.29
4545.00,1.29
4544.00,1.29
4543.00,1.30
4542.00,1.30
4541.00,1.30
4540.00,1.30
4539.00,1.30
4538.00,1.31
4537.00,1.31
4536.00,1.31
4535.00,1.31
4534.00,1.31
4533.00,1.31
4532.00,1.31
4531.00,1.32
4530.00,1.32
4529.00,1.32
4528.00,1.32
4527.00,1.32
4526.00,1.32
4525.00,1.32
4524.00,1.31
4523.00,1.31
4522.00,1.31
4521.00,1.31
4520.00,1.31
4519.00,1.31
4518.00,1.31
4517.00,1.31
4516.00,1.31
4515.00,1.31
4514.00,1.31
4513.00,1.31
4512.00,1.31
4511.00,1.31
4510.00,1.31
4509.00,1.31
4508.00,1.31
4507.00,1.31
4506.00,1.31
4505.00,1.31
4504.00,1.31
4503.00,1.31
4502.00,1.31
4501.00,1.31
4500.00,1.31
4499.00,1.31
4498.00,1.31
4497.00,1.31
4496.00,1.31
4495.00,1.31
4494.00,1.30
4493.00,1.30
4492.00,1.30
4491.00,1.30
4490.00,1.30
4489.00,1.30
4488.00,1.30
4487.00,1.30
4486.00,1.30
4485.00,1.30
4484.00,1.30
4483.00,1.30
4482.00,1.30
4481.00,1.30
4480.00,1.29
4479.00,1.29
4478.00,1.29
4477.00,1.29
4476.00,1.29
4475.00,1.29
4474.00,1.29
4473.00,1.29
4472.00,1.28
4471.00,1.28
4470.00,1.28
4469.00,1.28
4468.00,1.27
4467.00,1.27
4466.00,1.27
4465.00,1.27
4464.00,1.26
4463.00,1.26
4462.00,1.26
4461.00,1.25
4460.00,1.25
4459.00,1.25
4458.00,1.25
4457.00,1.24
4456.00,1.24
4455.00,1.24
4454.00,1.24
4453.00,1.23
4452.00,1.23
4451.00,1.23
4450.00,1.23
4449.00,1.23
4448.00,1.22
4447.00,1.22
4446.00,1.22
4445.00,1.22
4444.00,1.22
4443.00,1.21
4442.00,1.21
4441.00,1.21
4440.00,1.21
4439.00,1.20
4438.00,1.20
4437.00,1.20
4436.00,1.20
4435.00,1.20
4434.00,1.19
4433.00,1.19
4432.00,1.19
4431.00,1.19
4430.00,1.18
4429.00,1.18
4428.00,1.18
4427.00,1.18
4426.00,1.17
4425.00,1.17
4424.00,1.17
4423.00,1.17
4422.00,1.17
4421.00,1.17
4420.00,1.17
4419.00,1.17
4418.00,1.17
4417.00,1.16
4416.00,1.16
4415.00,1.16
4414.00,1.16
4413.00,1.16
4412.00,1.16
4411.00,1.16
4410.00,1.16
4409.00,1.16
4408.00,1.16
4407.00,1.17
4406.00,1.17
4405.00,1.17
4404.00,1.17
4403.00,1.17
4402.00,1.17
4401.00,1.17
4400.00,1.17
4399.00,1.17
4398.00,1.17
4397.00,1.17
4396.00,1.17
4395.00,1.17
4394.00,1.17
4393.00,1.18
4392.00,1.18
4391.00,1.18
4390.00,1.18
4389.00,1.18
4388.00,1.18
4387.00,1.18
4386.00,1.19
4385.00,1.19
4384.00,1.19
4383.00,1.19
4382.00,1.19
4381.00,1.19
4380.00,1.20
4379.00,1.20
4378.00,1.20
4377.00,1.20
4376.00,1.20
4375.00,1.20
4374.00,1.20
4373.00,1.20
4372.00,1.20
4371.00,1.21
4370.00,1.21
4369.00,1.21
4368.00,1.21
4367.00,1.21
4366.00,1.21
4365.00,1.21
4364.00,1.21
4363.00,1.21
4362.00,1.21
4361.00,1.21
4360.00,1.21
4359.00,1.21
4358.00,1.21
4357.00,1.21
4356.00,1.21
4355.00,1.21
4354.00,1.21
4353.00,1.21
4352.00,1.21
4351.00,1.21
4350.00,1.21
4349.00,1.21
4348.00,1.21
4347.00,1.21
4346.00,1.21
4345.00,1.21
4344.00,1.21
4343.00,1.21
4342.00,1.20
4341.00,1.20
4340.00,1.20
4339.00,1.20
4338.00,1.20
4337.00,1.20
4336.00,1.20
4335.00,1.20
4334.00,1.20
4333.00,1.20
4332.00,1.20
4331.00,1.21
4330.00,1.21
4329.00,1.21
4328.00,1.21
4327.00,1.21
4326.00,1.21
4325.00,1.22
4324.00,1.22
4323.00,1.22
4322.00,1.22
4321.00,1.22
4320.00,1.22
4319.00,1.23
4318.00,1.23
4317.00,1.23
4316.00,1.23
4315.00,1.23
4314.00,1.23
4313.00,1.24
4312.00,1.24
4311.00,1.24
4310.00,1.24
4309.00,1.24
4308.00,1.24
4307.00,1.25
4306.00,1.25
4305.00,1.25
4304.00,1.25
4303.00,1.25
4302.00,1.25
4301.00,1.25
4300.00,1.26
4299.00,1.26
4298.00,1.26
4297.00,1.26
4296.00,1.26
4295.00,1.26
4294.00,1.26
4293.00,1.26
4292.00,1.26
4291.00,1.26
4290.00,1.26
4289.00,1.26
4288.00,1.26
4287.00,1.26
4286.00,1.26
4285.00,1.26
4284.00,1.26
4283.00,1.26
4282.00,1.26
4281.00,1.26
4280.00,1.26
4279.00,1.26
4278.00,1.26
4277.00,1.26
4276.00,1.26
4275.00,1.26
4274.00,1.26
4273.00,1.26
4272.00,1.26
4271.00,1.27
4270.00,1.27
4269.00,1.27
4268.00,1.27
4267.00,1.27
4266.00,1.27
4265.00,1.26
4264.00,1.26
4263.00,1.26
4262.00,1.26
4261.00,1.26
4260.00,1.26
4259.00,1.26
4258.00,1.26
4257.00,1.26
4256.00,1.27
4255.00,1.27
4254.00,1.27
4253.00,1.27
4252.00,1.27
4251.00,1.27
4250.00,1.27
4249.00,1.28
4248.00,1.28
4247.00,1.28
4246.00,1.28
4245.00,1.28
4244.00,1.29
4243.00,1.29
4242.00,1.29
4241.00,1.29
4240.00,1.29
4239.00,1.29
4238.00,1.30
4237.00,1.30
4236.00,1.30
4235.00,1.30
4234.00,1.30
4233.00,1.30
4232.00,1.30
4231.00,1.31
4230.00,1.31
4229.00,1.31
4228.00,1.31
4227.00,1.31
4226.00,1.31
4225.00,1.31
4224.00,1.31
4223.00,1.31
4222.00,1.31
4221.00,1.31
4220.00,1.31
4219.00,1.31
4218.00,1.31
4217.00,1.31
4216.00,1.31
4215.00,1.31
4214.00,1.31
4213.00,1.31
4212.00,1.31
4211.00,1.31
4210.00,1.31
4209.00,1.31
4208.00,1.31
4207.00,1.31
4206.00,1.31
4205.00,1.32
4204.00,1.32
4203.00,1.32
4202.00,1.32
4201.00,1.32
4200.00,1.32
4199.00,1.33
4198.00,1.33
4197.00,1.33
4196.00,1.33
4195.00,1.33
4194.00,1.33
4193.00,1.33
4192.00,1.34
4191.00,1.34
4190.00,1.34
4189.00,1.34
4188.00,1.34
4187.00,1.34
4186.00,1.34
4185.00,1.34
4184.00,1.34
4183.00,1.34
4182.00,1.34
4181.00,1.34
4180.00,1.34
4179.00,1.34
4178.00,1.34
4177.00,1.34
4176.00,1.34
4175.00,1.34
4174.00,1.34
4173.00,1.34
4172.00,1.34
4171.00,1.34
4170.00,1.34
4169.00,1.34
4168.00,1.34
4167.00,1.34
4166.00,1.34
4165.00,1.34
4164.00,1.34
4163.00,1.34
4162.00,1.34
4161.00,1.34
4160.00,1.34
4159.00,1.34
4158.00,1.34
4157.00,1.34
4156.00,1.34
4155.00,1.34
4154.00,1.34
4153.00,1.34
4152.00,1.35
4151.00,1.35
4150.00,1.35
4149.00,1.35
4148.00,1.35
4147.00,1.35
4146.00,1.35
4145.00,1.35
4144.00,1.35
4143.00,1.35
4142.00,1.35
4141.00,1.35
4140.00,1.35
4139.00,1.36
4138.00,1.36
4137.00,1.36
4136.00,1.36
4135.00,1.36
4134.00,1.36
4133.00,1.36
4132.00,1.36
4131.00,1.36
4130.00,1.36
4129.00,1.36
4128.00,1.36
4127.00,1.36
4126.00,1.36
4125.00,1.37
4124.00,1.37
4123.00,1.37
4122.00,1.37
4121.00,1.37
4120.00,1.37
4119.00,1.37
4118.00,1.37
4117.00,1.37
4116.00,1.37
4115.00,1.38
4114.00,1.38
4113.00,1.38
4112.00,1.38
4111.00,1.38
4110.00,1.38
4109.00,1.38
4108.00,1.38
4107.00,1.38
4106.00,1.38
4105.00,1.38
4104.00,1.38
4103.00,1.38
4102.00,1.38
4101.00,1.38
4100.00,1.38
4099.00,1.39
4098.00,1.39
4097.00,1.39
4096.00,1.39
4095.00,1.39
4094.00,1.39
4093.00,1.39
4092.00,1.39
4091.00,1.39
4090.00,1.39
4089.00,1.39
4088.00,1.39
4087.00,1.39
4086.00,1.39
4085.00,1.39
4084.00,1.39
4083.00,1.39
4082.00,1.39
4081.00,1.39
4080.00,1.39
4079.00,1.39
4078.00,1.39
4077.00,1.39
4076.00,1.39
4075.00,1.39
4074.00,1.40
4073.00,1.40
4072.00,1.40
4071.00,1.40
4070.00,1.40
4069.00,1.41
4068.00,1.41
4067.00,1.41
4066.00,1.41
4065.00,1.41
4064.00,1.42
4063.00,1.42
4062.00,1.42
4061.00,1.42
4060.00,1.42
4059.00,1.42
4058.00,1.42
4057.00,1.42
4056.00,1.42
4055.00,1.42
4054.00,1.42
4053.00,1.42
4052.00,1.42
4051.00,1.42
4050.00,1.42
4049.00,1.41
4048.00,1.41
4047.00,1.41
4046.00,1.41
4045.00,1.41
4044.00,1.41
4043.00,1.41
4042.00,1.41
4041.00,1.41
4040.00,1.41
4039.00,1.41
4038.00,1.41
4037.00,1.41
4036.00,1.42
4035.00,1.42
4034.00,1.42
4033.00,1.42
4032.00,1.42
4031.00,1.42
4030.00,1.42
4029.00,1.42
4028.00,1.42
4027.00,1.42
4026.00,1.42
4025.00,1.42
4024.00,1.42
4023.00,1.42
4022.00,1.43
4021.00,1.43
4020.00,1.43
4019.00,1.43
4018.00,1.43
4017.00,1.43
4016.00,1.43
4015.00,1.43
4014.00,1.43
4013.00,1.43
4012.00,1.43
4011.00,1.43
4010.00,1.43
4009.00,1.43
4008.00,1.43
4007.00,1.43
4006.00,1.43
4005.00,1.43
4004.00,1.43
4003.00,1.43
4002.00,1.43
4001.00,1.43
4000.00,1.44
