创建为新数据集,样品 023 用户 Administrator 日期 星期三, 十一月 01 2017
cm-1,%T
10000.00,1.21
9999.00,1.21
9998.00,1.21
9997.00,1.21
9996.00,1.20
9995.00,1.20
9994.00,1.20
9993.00,1.20
9992.00,1.20
9991.00,1.20
9990.00,1.20
9989.00,1.20
9988.00,1.20
9987.00,1.20
9986.00,1.20
9985.00,1.20
9984.00,1.20
9983.00,1.21
9982.00,1.21
9981.00,1.21
9980.00,1.21
9979.00,1.21
9978.00,1.21
9977.00,1.20
9976.00,1.20
9975.00,1.20
9974.00,1.20
9973.00,1.20
9972.00,1.19
9971.00,1.19
9970.00,1.19
9969.00,1.19
9968.00,1.18
9967.00,1.18
9966.00,1.18
9965.00,1.18
9964.00,1.17
9963.00,1.17
9962.00,1.17
9961.00,1.17
9960.00,1.17
9959.00,1.17
9958.00,1.17
9957.00,1.17
9956.00,1.17
9955.00,1.17
9954.00,1.17
9953.00,1.17
9952.00,1.17
9951.00,1.17
9950.00,1.17
9949.00,1.17
9948.00,1.18
9947.00,1.18
9946.00,1.18
9945.00,1.18
9944.00,1.18
9943.00,1.18
9942.00,1.18
9941.00,1.18
9940.00,1.18
9939.00,1.18
9938.00,1.19
9937.00,1.19
9936.00,1.19
9935.00,1.19
9934.00,1.19
9933.00,1.19
9932.00,1.19
9931.00,1.19
9930.00,1.19
9929.00,1.19
9928.00,1.19
9927.00,1.19
9926.00,1.19
9925.00,1.19
9924.00,1.19
9923.00,1.19
9922.00,1.19
9921.00,1.19
9920.00,1.18
9919.00,1.18
9918.00,1.18
9917.00,1.18
9916.00,1.18
9915.00,1.18
9914.00,1.18
9913.00,1.18
9912.00,1.18
9911.00,1.18
9910.00,1.18
9909.00,1.18
9908.00,1.18
9907.00,1.18
9906.00,1.18
9905.00,1.18
9904.00,1.18
9903.00,1.18
9902.00,1.18
9901.00,1.18
9900.00,1.18
9899.00,1.18
9898.00,1.18
9897.00,1.18
9896.00,1.18
9895.00,1.18
9894.00,1.18
9893.00,1.18
9892.00,1.18
9891.00,1.17
9890.00,1.17
9889.00,1.17
9888.00,1.17
9887.00,1.17
9886.00,1.17
9885.00,1.17
9884.00,1.17
9883.00,1.17
9882.00,1.17
9881.00,1.17
9880.00,1.17
9879.00,1.17
9878.00,1.17
9877.00,1.17
9876.00,1.17
9875.00,1.17
9874.00,1.17
9873.00,1.17
9872.00,1.17
9871.00,1.17
9870.00,1.17
9869.00,1.17
9868.00,1.17
9867.00,1.17
9866.00,1.17
9865.00,1.17
9864.00,1.17
9863.00,1.17
9862.00,1.17
9861.00,1.17
9860.00,1.18
9859.00,1.18
9858.00,1.18
9857.00,1.18
9856.00,1.19
9855.00,1.19
9854.00,1.19
9853.00,1.19
9852.00,1.20
9851.00,1.20
9850.00,1.20
9849.00,1.20
9848.00,1.20
9847.00,1.21
9846.00,1.21
9845.00,1.21
9844.00,1.20
9843.00,1.20
9842.00,1.20
9841.00,1.20
9840.00,1.20
9839.00,1.20
9838.00,1.19
9837.00,1.19
9836.00,1.19
9835.00,1.19
9834.00,1.18
9833.00,1.18
9832.00,1.18
9831.00,1.18
9830.00,1.18
9829.00,1.17
9828.00,1.17
9827.00,1.17
9826.00,1.17
9825.00,1.17
9824.00,1.17
9823.00,1.17
9822.00,1.17
9821.00,1.17
9820.00,1.17
9819.00,1.17
9818.00,1.17
9817.00,1.17
9816.00,1.17
9815.00,1.17
9814.00,1.17
9813.00,1.18
9812.00,1.18
9811.00,1.18
9810.00,1.18
9809.00,1.18
9808.00,1.18
9807.00,1.18
9806.00,1.18
9805.00,1.18
9804.00,1.18
9803.00,1.18
9802.00,1.18
9801.00,1.18
9800.00,1.19
9799.00,1.19
9798.00,1.19
9797.00,1.19
9796.00,1.19
9795.00,1.19
9794.00,1.19
9793.00,1.19
9792.00,1.18
9791.00,1.18
9790.00,1.18
9789.00,1.18
9788.00,1.18
9787.00,1.18
9786.00,1.18
9785.00,1.18
9784.00,1.18
9783.00,1.18
9782.00,1.18
9781.00,1.18
9780.00,1.18
9779.00,1.18
9778.00,1.18
9777.00,1.18
9776.00,1.18
9775.00,1.18
9774.00,1.18
9773.00,1.18
9772.00,1.18
9771.00,1.18
9770.00,1.18
9769.00,1.18
9768.00,1.18
9767.00,1.18
9766.00,1.18
9765.00,1.19
9764.00,1.19
9763.00,1.19
9762.00,1.19
9761.00,1.19
9760.00,1.19
9759.00,1.19
9758.00,1.19
9757.00,1.19
9756.00,1.19
9755.00,1.19
9754.00,1.20
9753.00,1.20
9752.00,1.20
9751.00,1.20
9750.00,1.20
9749.00,1.20
9748.00,1.20
9747.00,1.20
9746.00,1.20
9745.00,1.20
9744.00,1.20
9743.00,1.20
9742.00,1.20
9741.00,1.19
9740.00,1.19
9739.00,1.19
9738.00,1.19
9737.00,1.19
9736.00,1.19
9735.00,1.19
9734.00,1.19
9733.00,1.19
9732.00,1.19
9731.00,1.19
9730.00,1.19
9729.00,1.19
9728.00,1.19
9727.00,1.19
9726.00,1.18
9725.00,1.18
9724.00,1.18
9723.00,1.18
9722.00,1.18
9721.00,1.18
9720.00,1.18
9719.00,1.18
9718.00,1.18
9717.00,1.18
9716.00,1.18
9715.00,1.18
9714.00,1.18
9713.00,1.18
9712.00,1.18
9711.00,1.18
9710.00,1.18
9709.00,1.17
9708.00,1.17
9707.00,1.17
9706.00,1.17
9705.00,1.17
9704.00,1.17
9703.00,1.17
9702.00,1.18
9701.00,1.18
9700.00,1.18
9699.00,1.18
9698.00,1.18
9697.00,1.18
9696.00,1.18
9695.00,1.18
9694.00,1.18
9693.00,1.18
9692.00,1.18
9691.00,1.18
9690.00,1.18
9689.00,1.19
9688.00,1.19
9687.00,1.19
9686.00,1.19
9685.00,1.19
9684.00,1.19
9683.00,1.19
9682.00,1.19
9681.00,1.19
9680.00,1.19
9679.00,1.19
9678.00,1.19
9677.00,1.19
9676.00,1.18
9675.00,1.18
9674.00,1.18
9673.00,1.18
9672.00,1.18
9671.00,1.18
9670.00,1.18
9669.00,1.18
9668.00,1.18
9667.00,1.18
9666.00,1.18
9665.00,1.18
9664.00,1.18
9663.00,1.18
9662.00,1.19
9661.00,1.19
9660.00,1.19
9659.00,1.19
9658.00,1.19
9657.00,1.19
9656.00,1.19
9655.00,1.19
9654.00,1.19
9653.00,1.19
9652.00,1.19
9651.00,1.19
9650.00,1.19
9649.00,1.19
9648.00,1.18
9647.00,1.18
9646.00,1.18
9645.00,1.18
9644.00,1.18
9643.00,1.18
9642.00,1.18
9641.00,1.18
9640.00,1.18
9639.00,1.18
9638.00,1.18
9637.00,1.18
9636.00,1.18
9635.00,1.18
9634.00,1.18
9633.00,1.18
9632.00,1.18
9631.00,1.18
9630.00,1.18
9629.00,1.18
9628.00,1.18
9627.00,1.18
9626.00,1.18
9625.00,1.18
9624.00,1.18
9623.00,1.18
9622.00,1.18
9621.00,1.17
9620.00,1.17
9619.00,1.17
9618.00,1.18
9617.00,1.18
9616.00,1.18
9615.00,1.18
9614.00,1.18
9613.00,1.18
9612.00,1.18
9611.00,1.18
9610.00,1.19
9609.00,1.19
9608.00,1.19
9607.00,1.19
9606.00,1.20
9605.00,1.20
9604.00,1.20
9603.00,1.20
9602.00,1.20
9601.00,1.20
9600.00,1.20
9599.00,1.21
9598.00,1.21
9597.00,1.21
9596.00,1.21
9595.00,1.21
9594.00,1.21
9593.00,1.21
9592.00,1.21
9591.00,1.21
9590.00,1.21
9589.00,1.21
9588.00,1.20
9587.00,1.20
9586.00,1.20
9585.00,1.20
9584.00,1.20
9583.00,1.20
9582.00,1.20
9581.00,1.20
9580.00,1.20
9579.00,1.20
9578.00,1.20
9577.00,1.19
9576.00,1.19
9575.00,1.19
9574.00,1.19
9573.00,1.19
9572.00,1.19
9571.00,1.19
9570.00,1.19
9569.00,1.19
9568.00,1.19
9567.00,1.19
9566.00,1.19
9565.00,1.19
9564.00,1.19
9563.00,1.19
9562.00,1.19
9561.00,1.19
9560.00,1.19
9559.00,1.19
9558.00,1.19
9557.00,1.19
9556.00,1.19
9555.00,1.19
9554.00,1.19
9553.00,1.19
9552.00,1.19
9551.00,1.19
9550.00,1.19
9549.00,1.18
9548.00,1.18
9547.00,1.18
9546.00,1.18
9545.00,1.18
9544.00,1.18
9543.00,1.18
9542.00,1.18
9541.00,1.18
9540.00,1.18
9539.00,1.18
9538.00,1.18
9537.00,1.18
9536.00,1.18
9535.00,1.18
9534.00,1.18
9533.00,1.18
9532.00,1.18
9531.00,1.18
9530.00,1.18
9529.00,1.18
9528.00,1.18
9527.00,1.18
9526.00,1.18
9525.00,1.18
9524.00,1.18
9523.00,1.17
9522.00,1.17
9521.00,1.17
9520.00,1.17
9519.00,1.17
9518.00,1.17
9517.00,1.17
9516.00,1.17
9515.00,1.17
9514.00,1.17
9513.00,1.17
9512.00,1.17
9511.00,1.17
9510.00,1.17
9509.00,1.18
9508.00,1.18
9507.00,1.18
9506.00,1.18
9505.00,1.18
9504.00,1.18
9503.00,1.18
9502.00,1.18
9501.00,1.18
9500.00,1.18
9499.00,1.18
9498.00,1.18
9497.00,1.18
9496.00,1.18
9495.00,1.18
9494.00,1.18
9493.00,1.18
9492.00,1.18
9491.00,1.18
9490.00,1.18
9489.00,1.19
9488.00,1.19
9487.00,1.19
9486.00,1.19
9485.00,1.19
9484.00,1.19
9483.00,1.19
9482.00,1.19
9481.00,1.19
9480.00,1.19
9479.00,1.19
9478.00,1.19
9477.00,1.19
9476.00,1.19
9475.00,1.19
9474.00,1.19
9473.00,1.19
9472.00,1.19
9471.00,1.19
9470.00,1.19
9469.00,1.20
9468.00,1.20
9467.00,1.20
9466.00,1.20
9465.00,1.20
9464.00,1.20
9463.00,1.20
9462.00,1.20
9461.00,1.20
9460.00,1.20
9459.00,1.20
9458.00,1.20
9457.00,1.20
9456.00,1.20
9455.00,1.20
9454.00,1.20
9453.00,1.20
9452.00,1.20
9451.00,1.20
9450.00,1.20
9449.00,1.20
9448.00,1.20
9447.00,1.20
9446.00,1.20
9445.00,1.20
9444.00,1.20
9443.00,1.20
9442.00,1.20
9441.00,1.20
9440.00,1.20
9439.00,1.20
9438.00,1.21
9437.00,1.21
9436.00,1.21
9435.00,1.21
9434.00,1.21
9433.00,1.21
9432.00,1.21
9431.00,1.21
9430.00,1.21
9429.00,1.20
9428.00,1.20
9427.00,1.20
9426.00,1.20
9425.00,1.20
9424.00,1.20
9423.00,1.20
9422.00,1.20
9421.00,1.20
9420.00,1.20
9419.00,1.20
9418.00,1.20
9417.00,1.21
9416.00,1.21
9415.00,1.21
9414.00,1.21
9413.00,1.21
9412.00,1.21
9411.00,1.21
9410.00,1.20
9409.00,1.20
9408.00,1.20
9407.00,1.20
9406.00,1.20
9405.00,1.19
9404.00,1.19
9403.00,1.19
9402.00,1.18
9401.00,1.18
9400.00,1.18
9399.00,1.17
9398.00,1.17
9397.00,1.17
9396.00,1.17
9395.00,1.16
9394.00,1.16
9393.00,1.16
9392.00,1.16
9391.00,1.16
9390.00,1.16
9389.00,1.16
9388.00,1.16
9387.00,1.16
9386.00,1.16
9385.00,1.17
9384.00,1.17
9383.00,1.17
9382.00,1.17
9381.00,1.17
9380.00,1.17
9379.00,1.17
9378.00,1.17
9377.00,1.17
9376.00,1.17
9375.00,1.17
9374.00,1.17
9373.00,1.17
9372.00,1.18
9371.00,1.18
9370.00,1.18
9369.00,1.18
9368.00,1.18
9367.00,1.18
9366.00,1.18
9365.00,1.18
9364.00,1.19
9363.00,1.19
9362.00,1.19
9361.00,1.19
9360.00,1.19
9359.00,1.19
9358.00,1.19
9357.00,1.19
9356.00,1.19
9355.00,1.19
9354.00,1.19
9353.00,1.19
9352.00,1.19
9351.00,1.19
9350.00,1.19
9349.00,1.19
9348.00,1.19
9347.00,1.19
9346.00,1.19
9345.00,1.19
9344.00,1.19
9343.00,1.18
9342.00,1.18
9341.00,1.18
9340.00,1.18
9339.00,1.18
9338.00,1.18
9337.00,1.18
9336.00,1.18
9335.00,1.18
9334.00,1.18
9333.00,1.18
9332.00,1.18
9331.00,1.18
9330.00,1.18
9329.00,1.18
9328.00,1.18
9327.00,1.18
9326.00,1.18
9325.00,1.18
9324.00,1.18
9323.00,1.18
9322.00,1.18
9321.00,1.18
9320.00,1.18
9319.00,1.18
9318.00,1.18
9317.00,1.18
9316.00,1.18
9315.00,1.18
9314.00,1.18
9313.00,1.18
9312.00,1.18
9311.00,1.18
9310.00,1.18
9309.00,1.18
9308.00,1.18
9307.00,1.18
9306.00,1.18
9305.00,1.18
9304.00,1.18
9303.00,1.18
9302.00,1.18
9301.00,1.18
9300.00,1.18
9299.00,1.18
9298.00,1.18
9297.00,1.18
9296.00,1.18
9295.00,1.18
9294.00,1.18
9293.00,1.18
9292.00,1.18
9291.00,1.18
9290.00,1.18
9289.00,1.18
9288.00,1.18
9287.00,1.18
9286.00,1.18
9285.00,1.19
9284.00,1.19
9283.00,1.19
9282.00,1.19
9281.00,1.19
9280.00,1.19
9279.00,1.18
9278.00,1.18
9277.00,1.18
9276.00,1.18
9275.00,1.18
9274.00,1.18
9273.00,1.18
9272.00,1.18
9271.00,1.18
9270.00,1.18
9269.00,1.17
9268.00,1.17
9267.00,1.17
9266.00,1.17
9265.00,1.17
9264.00,1.17
9263.00,1.17
9262.00,1.17
9261.00,1.17
9260.00,1.17
9259.00,1.16
9258.00,1.16
9257.00,1.16
9256.00,1.16
9255.00,1.16
9254.00,1.16
9253.00,1.16
9252.00,1.16
9251.00,1.16
9250.00,1.16
9249.00,1.16
9248.00,1.16
9247.00,1.16
9246.00,1.16
9245.00,1.16
9244.00,1.17
9243.00,1.17
9242.00,1.17
9241.00,1.17
9240.00,1.17
9239.00,1.17
9238.00,1.17
9237.00,1.17
9236.00,1.18
9235.00,1.18
9234.00,1.18
9233.00,1.18
9232.00,1.18
9231.00,1.18
9230.00,1.18
9229.00,1.18
9228.00,1.18
9227.00,1.18
9226.00,1.18
9225.00,1.18
9224.00,1.18
9223.00,1.18
9222.00,1.18
9221.00,1.18
9220.00,1.18
9219.00,1.17
9218.00,1.17
9217.00,1.17
9216.00,1.17
9215.00,1.18
9214.00,1.18
9213.00,1.18
9212.00,1.18
9211.00,1.18
9210.00,1.18
9209.00,1.18
9208.00,1.18
9207.00,1.18
9206.00,1.18
9205.00,1.18
9204.00,1.19
9203.00,1.19
9202.00,1.19
9201.00,1.19
9200.00,1.19
9199.00,1.19
9198.00,1.19
9197.00,1.19
9196.00,1.19
9195.00,1.19
9194.00,1.19
9193.00,1.19
9192.00,1.19
9191.00,1.19
9190.00,1.19
9189.00,1.19
9188.00,1.19
9187.00,1.19
9186.00,1.19
9185.00,1.19
9184.00,1.19
9183.00,1.19
9182.00,1.19
9181.00,1.19
9180.00,1.19
9179.00,1.19
9178.00,1.19
9177.00,1.19
9176.00,1.20
9175.00,1.20
9174.00,1.20
9173.00,1.20
9172.00,1.20
9171.00,1.20
9170.00,1.20
9169.00,1.20
9168.00,1.20
9167.00,1.20
9166.00,1.20
9165.00,1.20
9164.00,1.19
9163.00,1.19
9162.00,1.19
9161.00,1.19
9160.00,1.19
9159.00,1.19
9158.00,1.19
9157.00,1.18
9156.00,1.18
9155.00,1.18
9154.00,1.18
9153.00,1.18
9152.00,1.17
9151.00,1.17
9150.00,1.17
9149.00,1.17
9148.00,1.17
9147.00,1.17
9146.00,1.17
9145.00,1.17
9144.00,1.17
9143.00,1.17
9142.00,1.17
9141.00,1.17
9140.00,1.17
9139.00,1.17
9138.00,1.17
9137.00,1.17
9136.00,1.17
9135.00,1.18
9134.00,1.18
9133.00,1.18
9132.00,1.18
9131.00,1.18
9130.00,1.18
9129.00,1.18
9128.00,1.18
9127.00,1.18
9126.00,1.18
9125.00,1.18
9124.00,1.18
9123.00,1.18
9122.00,1.18
9121.00,1.18
9120.00,1.18
9119.00,1.18
9118.00,1.18
9117.00,1.18
9116.00,1.18
9115.00,1.18
9114.00,1.18
9113.00,1.18
9112.00,1.19
9111.00,1.19
9110.00,1.19
9109.00,1.19
9108.00,1.19
9107.00,1.19
9106.00,1.19
9105.00,1.20
9104.00,1.20
9103.00,1.20
9102.00,1.20
9101.00,1.20
9100.00,1.20
9099.00,1.20
9098.00,1.21
9097.00,1.21
9096.00,1.21
9095.00,1.21
9094.00,1.21
9093.00,1.21
9092.00,1.21
9091.00,1.21
9090.00,1.21
9089.00,1.21
9088.00,1.21
9087.00,1.21
9086.00,1.21
9085.00,1.21
9084.00,1.21
9083.00,1.21
9082.00,1.21
9081.00,1.21
9080.00,1.21
9079.00,1.21
9078.00,1.21
9077.00,1.20
9076.00,1.20
9075.00,1.20
9074.00,1.20
9073.00,1.20
9072.00,1.20
9071.00,1.20
9070.00,1.20
9069.00,1.19
9068.00,1.19
9067.00,1.19
9066.00,1.19
9065.00,1.19
9064.00,1.19
9063.00,1.18
9062.00,1.18
9061.00,1.18
9060.00,1.18
9059.00,1.18
9058.00,1.18
9057.00,1.18
9056.00,1.18
9055.00,1.18
9054.00,1.17
9053.00,1.17
9052.00,1.17
9051.00,1.17
9050.00,1.17
9049.00,1.17
9048.00,1.17
9047.00,1.17
9046.00,1.16
9045.00,1.16
9044.00,1.16
9043.00,1.16
9042.00,1.16
9041.00,1.16
9040.00,1.16
9039.00,1.16
9038.00,1.16
9037.00,1.16
9036.00,1.17
9035.00,1.17
9034.00,1.17
9033.00,1.17
9032.00,1.17
9031.00,1.17
9030.00,1.18
9029.00,1.18
9028.00,1.18
9027.00,1.18
9026.00,1.18
9025.00,1.18
9024.00,1.18
9023.00,1.18
9022.00,1.19
9021.00,1.19
9020.00,1.19
9019.00,1.19
9018.00,1.19
9017.00,1.19
9016.00,1.19
9015.00,1.19
9014.00,1.19
9013.00,1.19
9012.00,1.19
9011.00,1.19
9010.00,1.19
9009.00,1.19
9008.00,1.19
9007.00,1.19
9006.00,1.19
9005.00,1.19
9004.00,1.19
9003.00,1.19
9002.00,1.19
9001.00,1.19
9000.00,1.19
8999.00,1.19
8998.00,1.19
8997.00,1.19
8996.00,1.19
8995.00,1.19
8994.00,1.19
8993.00,1.19
8992.00,1.19
8991.00,1.19
8990.00,1.19
8989.00,1.19
8988.00,1.19
8987.00,1.19
8986.00,1.19
8985.00,1.19
8984.00,1.19
8983.00,1.19
8982.00,1.19
8981.00,1.19
8980.00,1.19
8979.00,1.20
8978.00,1.20
8977.00,1.20
8976.00,1.20
8975.00,1.20
8974.00,1.20
8973.00,1.20
8972.00,1.20
8971.00,1.20
8970.00,1.20
8969.00,1.20
8968.00,1.20
8967.00,1.20
8966.00,1.20
8965.00,1.20
8964.00,1.20
8963.00,1.20
8962.00,1.20
8961.00,1.20
8960.00,1.20
8959.00,1.20
8958.00,1.20
8957.00,1.20
8956.00,1.20
8955.00,1.20
8954.00,1.20
8953.00,1.20
8952.00,1.20
8951.00,1.20
8950.00,1.20
8949.00,1.20
8948.00,1.20
8947.00,1.20
8946.00,1.20
8945.00,1.20
8944.00,1.20
8943.00,1.20
8942.00,1.20
8941.00,1.20
8940.00,1.20
8939.00,1.20
8938.00,1.20
8937.00,1.20
8936.00,1.20
8935.00,1.20
8934.00,1.20
8933.00,1.20
8932.00,1.20
8931.00,1.20
8930.00,1.20
8929.00,1.20
8928.00,1.20
8927.00,1.20
8926.00,1.20
8925.00,1.20
8924.00,1.20
8923.00,1.20
8922.00,1.20
8921.00,1.20
8920.00,1.20
8919.00,1.20
8918.00,1.20
8917.00,1.20
8916.00,1.20
8915.00,1.20
8914.00,1.20
8913.00,1.20
8912.00,1.20
8911.00,1.20
8910.00,1.20
8909.00,1.20
8908.00,1.20
8907.00,1.20
8906.00,1.20
8905.00,1.20
8904.00,1.20
8903.00,1.20
8902.00,1.20
8901.00,1.20
8900.00,1.20
8899.00,1.20
8898.00,1.19
8897.00,1.19
8896.00,1.19
8895.00,1.19
8894.00,1.19
8893.00,1.19
8892.00,1.19
8891.00,1.18
8890.00,1.18
8889.00,1.18
8888.00,1.18
8887.00,1.18
8886.00,1.18
8885.00,1.18
8884.00,1.18
8883.00,1.18
8882.00,1.18
8881.00,1.18
8880.00,1.18
8879.00,1.18
8878.00,1.18
8877.00,1.18
8876.00,1.18
8875.00,1.19
8874.00,1.19
8873.00,1.19
8872.00,1.19
8871.00,1.19
8870.00,1.19
8869.00,1.19
8868.00,1.19
8867.00,1.19
8866.00,1.19
8865.00,1.19
8864.00,1.19
8863.00,1.19
8862.00,1.19
8861.00,1.19
8860.00,1.19
8859.00,1.19
8858.00,1.19
8857.00,1.19
8856.00,1.19
8855.00,1.19
8854.00,1.19
8853.00,1.19
8852.00,1.19
8851.00,1.19
8850.00,1.19
8849.00,1.19
8848.00,1.19
8847.00,1.19
8846.00,1.19
8845.00,1.19
8844.00,1.19
8843.00,1.20
8842.00,1.20
8841.00,1.20
8840.00,1.20
8839.00,1.20
8838.00,1.20
8837.00,1.20
8836.00,1.20
8835.00,1.20
8834.00,1.20
8833.00,1.20
8832.00,1.20
8831.00,1.20
8830.00,1.20
8829.00,1.20
8828.00,1.19
8827.00,1.19
8826.00,1.19
8825.00,1.19
8824.00,1.19
8823.00,1.19
8822.00,1.19
8821.00,1.19
8820.00,1.19
8819.00,1.19
8818.00,1.19
8817.00,1.18
8816.00,1.18
8815.00,1.18
8814.00,1.18
8813.00,1.18
8812.00,1.18
8811.00,1.18
8810.00,1.18
8809.00,1.18
8808.00,1.18
8807.00,1.18
8806.00,1.18
8805.00,1.18
8804.00,1.18
8803.00,1.18
8802.00,1.17
8801.00,1.17
8800.00,1.17
8799.00,1.17
8798.00,1.17
8797.00,1.17
8796.00,1.17
8795.00,1.16
8794.00,1.16
8793.00,1.16
8792.00,1.16
8791.00,1.16
8790.00,1.17
8789.00,1.17
8788.00,1.17
8787.00,1.17
8786.00,1.17
8785.00,1.17
8784.00,1.17
8783.00,1.18
8782.00,1.18
8781.00,1.18
8780.00,1.18
8779.00,1.18
8778.00,1.18
8777.00,1.18
8776.00,1.18
8775.00,1.18
8774.00,1.18
8773.00,1.18
8772.00,1.18
8771.00,1.18
8770.00,1.17
8769.00,1.17
8768.00,1.17
8767.00,1.17
8766.00,1.17
8765.00,1.17
8764.00,1.17
8763.00,1.16
8762.00,1.16
8761.00,1.16
8760.00,1.16
8759.00,1.16
8758.00,1.16
8757.00,1.16
8756.00,1.16
8755.00,1.16
8754.00,1.16
8753.00,1.15
8752.00,1.15
8751.00,1.15
8750.00,1.15
8749.00,1.15
8748.00,1.15
8747.00,1.15
8746.00,1.15
8745.00,1.15
8744.00,1.15
8743.00,1.15
8742.00,1.15
8741.00,1.15
8740.00,1.15
8739.00,1.15
8738.00,1.15
8737.00,1.15
8736.00,1.15
8735.00,1.15
8734.00,1.15
8733.00,1.15
8732.00,1.15
8731.00,1.15
8730.00,1.15
8729.00,1.15
8728.00,1.15
8727.00,1.16
8726.00,1.16
8725.00,1.16
8724.00,1.16
8723.00,1.15
8722.00,1.15
8721.00,1.15
8720.00,1.15
8719.00,1.15
8718.00,1.15
8717.00,1.15
8716.00,1.15
8715.00,1.15
8714.00,1.15
8713.00,1.14
8712.00,1.14
8711.00,1.14
8710.00,1.14
8709.00,1.14
8708.00,1.14
8707.00,1.14
8706.00,1.14
8705.00,1.15
8704.00,1.15
8703.00,1.15
8702.00,1.15
8701.00,1.15
8700.00,1.15
8699.00,1.15
8698.00,1.15
8697.00,1.15
8696.00,1.15
8695.00,1.14
8694.00,1.14
8693.00,1.14
8692.00,1.14
8691.00,1.14
8690.00,1.14
8689.00,1.14
8688.00,1.14
8687.00,1.14
8686.00,1.14
8685.00,1.14
8684.00,1.14
8683.00,1.14
8682.00,1.14
8681.00,1.14
8680.00,1.14
8679.00,1.14
8678.00,1.14
8677.00,1.14
8676.00,1.14
8675.00,1.14
8674.00,1.14
8673.00,1.14
8672.00,1.14
8671.00,1.14
8670.00,1.14
8669.00,1.14
8668.00,1.14
8667.00,1.14
8666.00,1.14
8665.00,1.14
8664.00,1.14
8663.00,1.13
8662.00,1.13
8661.00,1.13
8660.00,1.13
8659.00,1.13
8658.00,1.13
8657.00,1.13
8656.00,1.13
8655.00,1.12
8654.00,1.12
8653.00,1.12
8652.00,1.12
8651.00,1.12
8650.00,1.12
8649.00,1.12
8648.00,1.12
8647.00,1.12
8646.00,1.12
8645.00,1.12
8644.00,1.12
8643.00,1.12
8642.00,1.12
8641.00,1.12
8640.00,1.12
8639.00,1.12
8638.00,1.12
8637.00,1.12
8636.00,1.12
8635.00,1.12
8634.00,1.12
8633.00,1.12
8632.00,1.12
8631.00,1.12
8630.00,1.12
8629.00,1.12
8628.00,1.13
8627.00,1.13
8626.00,1.13
8625.00,1.13
8624.00,1.13
8623.00,1.13
8622.00,1.13
8621.00,1.13
8620.00,1.13
8619.00,1.14
8618.00,1.14
8617.00,1.14
8616.00,1.14
8615.00,1.14
8614.00,1.14
8613.00,1.14
8612.00,1.14
8611.00,1.14
8610.00,1.14
8609.00,1.14
8608.00,1.13
8607.00,1.13
8606.00,1.13
8605.00,1.13
8604.00,1.13
8603.00,1.13
8602.00,1.13
8601.00,1.13
8600.00,1.13
8599.00,1.13
8598.00,1.13
8597.00,1.13
8596.00,1.13
8595.00,1.13
8594.00,1.13
8593.00,1.13
8592.00,1.13
8591.00,1.13
8590.00,1.13
8589.00,1.12
8588.00,1.12
8587.00,1.12
8586.00,1.12
8585.00,1.12
8584.00,1.12
8583.00,1.12
8582.00,1.12
8581.00,1.12
8580.00,1.12
8579.00,1.12
8578.00,1.12
8577.00,1.11
8576.00,1.11
8575.00,1.11
8574.00,1.11
8573.00,1.11
8572.00,1.10
8571.00,1.10
8570.00,1.10
8569.00,1.10
8568.00,1.10
8567.00,1.10
8566.00,1.10
8565.00,1.10
8564.00,1.09
8563.00,1.09
8562.00,1.09
8561.00,1.09
8560.00,1.09
8559.00,1.09
8558.00,1.09
8557.00,1.09
8556.00,1.09
8555.00,1.09
8554.00,1.09
8553.00,1.09
8552.00,1.09
8551.00,1.09
8550.00,1.09
8549.00,1.09
8548.00,1.08
8547.00,1.08
8546.00,1.08
8545.00,1.08
8544.00,1.08
8543.00,1.08
8542.00,1.08
8541.00,1.08
8540.00,1.08
8539.00,1.08
8538.00,1.08
8537.00,1.09
8536.00,1.09
8535.00,1.09
8534.00,1.09
8533.00,1.09
8532.00,1.09
8531.00,1.09
8530.00,1.09
8529.00,1.09
8528.00,1.09
8527.00,1.09
8526.00,1.09
8525.00,1.09
8524.00,1.09
8523.00,1.09
8522.00,1.09
8521.00,1.09
8520.00,1.09
8519.00,1.09
8518.00,1.09
8517.00,1.09
8516.00,1.09
8515.00,1.08
8514.00,1.08
8513.00,1.08
8512.00,1.08
8511.00,1.08
8510.00,1.08
8509.00,1.07
8508.00,1.07
8507.00,1.07
8506.00,1.07
8505.00,1.07
8504.00,1.07
8503.00,1.07
8502.00,1.07
8501.00,1.07
8500.00,1.07
8499.00,1.07
8498.00,1.07
8497.00,1.07
8496.00,1.07
8495.00,1.07
8494.00,1.07
8493.00,1.07
8492.00,1.07
8491.00,1.07
8490.00,1.07
8489.00,1.07
8488.00,1.07
8487.00,1.07
8486.00,1.07
8485.00,1.07
8484.00,1.07
8483.00,1.07
8482.00,1.07
8481.00,1.06
8480.00,1.06
8479.00,1.06
8478.00,1.06
8477.00,1.06
8476.00,1.06
8475.00,1.06
8474.00,1.05
8473.00,1.05
8472.00,1.05
8471.00,1.05
8470.00,1.05
8469.00,1.05
8468.00,1.05
8467.00,1.05
8466.00,1.05
8465.00,1.05
8464.00,1.05
8463.00,1.05
8462.00,1.05
8461.00,1.04
8460.00,1.04
8459.00,1.04
8458.00,1.04
8457.00,1.04
8456.00,1.04
8455.00,1.04
8454.00,1.04
8453.00,1.04
8452.00,1.04
8451.00,1.04
8450.00,1.04
8449.00,1.04
8448.00,1.04
8447.00,1.04
8446.00,1.04
8445.00,1.04
8444.00,1.04
8443.00,1.04
8442.00,1.04
8441.00,1.04
8440.00,1.04
8439.00,1.04
8438.00,1.04
8437.00,1.04
8436.00,1.04
8435.00,1.05
8434.00,1.05
8433.00,1.05
8432.00,1.05
8431.00,1.05
8430.00,1.05
8429.00,1.05
8428.00,1.05
8427.00,1.05
8426.00,1.05
8425.00,1.05
8424.00,1.05
8423.00,1.04
8422.00,1.04
8421.00,1.04
8420.00,1.05
8419.00,1.05
8418.00,1.05
8417.00,1.05
8416.00,1.05
8415.00,1.05
8414.00,1.05
8413.00,1.05
8412.00,1.05
8411.00,1.05
8410.00,1.06
8409.00,1.06
8408.00,1.06
8407.00,1.06
8406.00,1.06
8405.00,1.06
8404.00,1.07
8403.00,1.07
8402.00,1.07
8401.00,1.07
8400.00,1.07
8399.00,1.07
8398.00,1.08
8397.00,1.08
8396.00,1.08
8395.00,1.08
8394.00,1.08
8393.00,1.08
8392.00,1.08
8391.00,1.08
8390.00,1.08
8389.00,1.08
8388.00,1.08
8387.00,1.08
8386.00,1.08
8385.00,1.08
8384.00,1.08
8383.00,1.08
8382.00,1.08
8381.00,1.08
8380.00,1.08
8379.00,1.08
8378.00,1.08
8377.00,1.08
8376.00,1.08
8375.00,1.08
8374.00,1.08
8373.00,1.08
8372.00,1.08
8371.00,1.08
8370.00,1.08
8369.00,1.08
8368.00,1.08
8367.00,1.08
8366.00,1.08
8365.00,1.08
8364.00,1.08
8363.00,1.08
8362.00,1.08
8361.00,1.08
8360.00,1.08
8359.00,1.08
8358.00,1.08
8357.00,1.08
8356.00,1.08
8355.00,1.08
8354.00,1.08
8353.00,1.08
8352.00,1.08
8351.00,1.08
8350.00,1.08
8349.00,1.08
8348.00,1.09
8347.00,1.09
8346.00,1.09
8345.00,1.09
8344.00,1.09
8343.00,1.09
8342.00,1.09
8341.00,1.09
8340.00,1.09
8339.00,1.10
8338.00,1.10
8337.00,1.10
8336.00,1.10
8335.00,1.10
8334.00,1.10
8333.00,1.10
8332.00,1.10
8331.00,1.10
8330.00,1.10
8329.00,1.10
8328.00,1.10
8327.00,1.10
8326.00,1.10
8325.00,1.09
8324.00,1.09
8323.00,1.09
8322.00,1.09
8321.00,1.09
8320.00,1.09
8319.00,1.09
8318.00,1.09
8317.00,1.09
8316.00,1.08
8315.00,1.08
8314.00,1.08
8313.00,1.08
8312.00,1.08
8311.00,1.08
8310.00,1.08
8309.00,1.08
8308.00,1.08
8307.00,1.08
8306.00,1.08
8305.00,1.08
8304.00,1.08
8303.00,1.08
8302.00,1.08
8301.00,1.08
8300.00,1.08
8299.00,1.08
8298.00,1.08
8297.00,1.08
8296.00,1.08
8295.00,1.08
8294.00,1.08
8293.00,1.08
8292.00,1.09
8291.00,1.09
8290.00,1.09
8289.00,1.09
8288.00,1.09
8287.00,1.09
8286.00,1.09
8285.00,1.09
8284.00,1.09
8283.00,1.09
8282.00,1.09
8281.00,1.09
8280.00,1.09
8279.00,1.09
8278.00,1.09
8277.00,1.09
8276.00,1.09
8275.00,1.09
8274.00,1.09
8273.00,1.09
8272.00,1.09
8271.00,1.09
8270.00,1.09
8269.00,1.09
8268.00,1.09
8267.00,1.09
8266.00,1.10
8265.00,1.10
8264.00,1.10
8263.00,1.10
8262.00,1.10
8261.00,1.10
8260.00,1.10
8259.00,1.10
8258.00,1.11
8257.00,1.11
8256.00,1.11
8255.00,1.11
8254.00,1.11
8253.00,1.11
8252.00,1.11
8251.00,1.11
8250.00,1.12
8249.00,1.12
8248.00,1.12
8247.00,1.12
8246.00,1.12
8245.00,1.12
8244.00,1.11
8243.00,1.11
8242.00,1.11
8241.00,1.11
8240.00,1.11
8239.00,1.11
8238.00,1.11
8237.00,1.11
8236.00,1.11
8235.00,1.11
8234.00,1.11
8233.00,1.11
8232.00,1.11
8231.00,1.11
8230.00,1.11
8229.00,1.11
8228.00,1.11
8227.00,1.11
8226.00,1.11
8225.00,1.11
8224.00,1.11
8223.00,1.11
8222.00,1.11
8221.00,1.11
8220.00,1.11
8219.00,1.11
8218.00,1.11
8217.00,1.11
8216.00,1.11
8215.00,1.11
8214.00,1.11
8213.00,1.11
8212.00,1.11
8211.00,1.11
8210.00,1.11
8209.00,1.11
8208.00,1.11
8207.00,1.11
8206.00,1.12
8205.00,1.12
8204.00,1.12
8203.00,1.12
8202.00,1.12
8201.00,1.12
8200.00,1.12
8199.00,1.12
8198.00,1.12
8197.00,1.12
8196.00,1.12
8195.00,1.12
8194.00,1.12
8193.00,1.12
8192.00,1.12
8191.00,1.12
8190.00,1.12
8189.00,1.12
8188.00,1.12
8187.00,1.12
8186.00,1.12
8185.00,1.12
8184.00,1.12
8183.00,1.12
8182.00,1.12
8181.00,1.12
8180.00,1.12
8179.00,1.12
8178.00,1.12
8177.00,1.12
8176.00,1.12
8175.00,1.12
8174.00,1.12
8173.00,1.12
8172.00,1.13
8171.00,1.13
8170.00,1.13
8169.00,1.13
8168.00,1.13
8167.00,1.13
8166.00,1.13
8165.00,1.13
8164.00,1.13
8163.00,1.13
8162.00,1.13
8161.00,1.13
8160.00,1.13
8159.00,1.13
8158.00,1.13
8157.00,1.13
8156.00,1.13
8155.00,1.13
8154.00,1.13
8153.00,1.13
8152.00,1.13
8151.00,1.13
8150.00,1.14
8149.00,1.14
8148.00,1.14
8147.00,1.14
8146.00,1.14
8145.00,1.14
8144.00,1.14
8143.00,1.14
8142.00,1.14
8141.00,1.14
8140.00,1.14
8139.00,1.14
8138.00,1.14
8137.00,1.14
8136.00,1.14
8135.00,1.15
8134.00,1.15
8133.00,1.15
8132.00,1.15
8131.00,1.15
8130.00,1.15
8129.00,1.15
8128.00,1.15
8127.00,1.15
8126.00,1.15
8125.00,1.15
8124.00,1.15
8123.00,1.15
8122.00,1.15
8121.00,1.15
8120.00,1.15
8119.00,1.15
8118.00,1.15
8117.00,1.15
8116.00,1.15
8115.00,1.15
8114.00,1.15
8113.00,1.15
8112.00,1.15
8111.00,1.15
8110.00,1.15
8109.00,1.15
8108.00,1.15
8107.00,1.15
8106.00,1.15
8105.00,1.15
8104.00,1.15
8103.00,1.15
8102.00,1.15
8101.00,1.15
8100.00,1.14
8099.00,1.14
8098.00,1.14
8097.00,1.14
8096.00,1.14
8095.00,1.14
8094.00,1.14
8093.00,1.14
8092.00,1.14
8091.00,1.14
8090.00,1.14
8089.00,1.14
8088.00,1.14
8087.00,1.14
8086.00,1.14
8085.00,1.14
8084.00,1.14
8083.00,1.14
8082.00,1.14
8081.00,1.15
8080.00,1.15
8079.00,1.15
8078.00,1.15
8077.00,1.15
8076.00,1.15
8075.00,1.15
8074.00,1.15
8073.00,1.16
8072.00,1.16
8071.00,1.16
8070.00,1.16
8069.00,1.16
8068.00,1.16
8067.00,1.16
8066.00,1.16
8065.00,1.16
8064.00,1.16
8063.00,1.16
8062.00,1.16
8061.00,1.16
8060.00,1.16
8059.00,1.16
8058.00,1.16
8057.00,1.16
8056.00,1.16
8055.00,1.16
8054.00,1.16
8053.00,1.16
8052.00,1.16
8051.00,1.16
8050.00,1.16
8049.00,1.16
8048.00,1.16
8047.00,1.16
8046.00,1.16
8045.00,1.16
8044.00,1.16
8043.00,1.16
8042.00,1.16
8041.00,1.16
8040.00,1.16
8039.00,1.17
8038.00,1.17
8037.00,1.17
8036.00,1.17
8035.00,1.17
8034.00,1.17
8033.00,1.17
8032.00,1.17
8031.00,1.17
8030.00,1.17
8029.00,1.17
8028.00,1.17
8027.00,1.17
8026.00,1.17
8025.00,1.17
8024.00,1.17
8023.00,1.17
8022.00,1.17
8021.00,1.17
8020.00,1.17
8019.00,1.17
8018.00,1.17
8017.00,1.17
8016.00,1.17
8015.00,1.17
8014.00,1.17
8013.00,1.17
8012.00,1.17
8011.00,1.17
8010.00,1.17
8009.00,1.17
8008.00,1.17
8007.00,1.17
8006.00,1.17
8005.00,1.17
8004.00,1.17
8003.00,1.17
8002.00,1.17
8001.00,1.17
8000.00,1.17
7999.00,1.17
7998.00,1.17
7997.00,1.17
7996.00,1.17
7995.00,1.17
7994.00,1.17
7993.00,1.17
7992.00,1.17
7991.00,1.17
7990.00,1.17
7989.00,1.17
7988.00,1.17
7987.00,1.17
7986.00,1.17
7985.00,1.17
7984.00,1.17
7983.00,1.17
7982.00,1.17
7981.00,1.17
7980.00,1.17
7979.00,1.17
7978.00,1.17
7977.00,1.17
7976.00,1.17
7975.00,1.17
7974.00,1.17
7973.00,1.17
7972.00,1.17
7971.00,1.17
7970.00,1.17
7969.00,1.17
7968.00,1.18
7967.00,1.18
7966.00,1.18
7965.00,1.18
7964.00,1.18
7963.00,1.18
7962.00,1.18
7961.00,1.19
7960.00,1.19
7959.00,1.19
7958.00,1.19
7957.00,1.19
7956.00,1.19
7955.00,1.19
7954.00,1.19
7953.00,1.19
7952.00,1.19
7951.00,1.19
7950.00,1.19
7949.00,1.18
7948.00,1.18
7947.00,1.18
7946.00,1.18
7945.00,1.18
7944.00,1.18
7943.00,1.18
7942.00,1.18
7941.00,1.18
7940.00,1.18
7939.00,1.18
7938.00,1.18
7937.00,1.18
7936.00,1.18
7935.00,1.18
7934.00,1.18
7933.00,1.18
7932.00,1.18
7931.00,1.18
7930.00,1.18
7929.00,1.18
7928.00,1.18
7927.00,1.18
7926.00,1.18
7925.00,1.18
7924.00,1.18
7923.00,1.18
7922.00,1.18
7921.00,1.18
7920.00,1.18
7919.00,1.19
7918.00,1.19
7917.00,1.19
7916.00,1.19
7915.00,1.19
7914.00,1.19
7913.00,1.19
7912.00,1.19
7911.00,1.19
7910.00,1.19
7909.00,1.18
7908.00,1.18
7907.00,1.18
7906.00,1.18
7905.00,1.18
7904.00,1.18
7903.00,1.18
7902.00,1.18
7901.00,1.18
7900.00,1.18
7899.00,1.18
7898.00,1.18
7897.00,1.18
7896.00,1.18
7895.00,1.18
7894.00,1.18
7893.00,1.18
7892.00,1.18
7891.00,1.18
7890.00,1.18
7889.00,1.18
7888.00,1.18
7887.00,1.18
7886.00,1.18
7885.00,1.18
7884.00,1.18
7883.00,1.19
7882.00,1.19
7881.00,1.19
7880.00,1.19
7879.00,1.19
7878.00,1.19
7877.00,1.19
7876.00,1.19
7875.00,1.19
7874.00,1.19
7873.00,1.19
7872.00,1.19
7871.00,1.19
7870.00,1.19
7869.00,1.19
7868.00,1.19
7867.00,1.19
7866.00,1.19
7865.00,1.19
7864.00,1.19
7863.00,1.19
7862.00,1.19
7861.00,1.19
7860.00,1.19
7859.00,1.19
7858.00,1.19
7857.00,1.19
7856.00,1.19
7855.00,1.19
7854.00,1.19
7853.00,1.19
7852.00,1.19
7851.00,1.19
7850.00,1.19
7849.00,1.19
7848.00,1.19
7847.00,1.19
7846.00,1.19
7845.00,1.19
7844.00,1.19
7843.00,1.19
7842.00,1.19
7841.00,1.19
7840.00,1.19
7839.00,1.19
7838.00,1.19
7837.00,1.19
7836.00,1.19
7835.00,1.19
7834.00,1.19
7833.00,1.19
7832.00,1.19
7831.00,1.19
7830.00,1.19
7829.00,1.19
7828.00,1.19
7827.00,1.19
7826.00,1.20
7825.00,1.20
7824.00,1.20
7823.00,1.20
7822.00,1.20
7821.00,1.20
7820.00,1.20
7819.00,1.20
7818.00,1.20
7817.00,1.20
7816.00,1.20
7815.00,1.20
7814.00,1.20
7813.00,1.20
7812.00,1.20
7811.00,1.20
7810.00,1.20
7809.00,1.20
7808.00,1.20
7807.00,1.19
7806.00,1.19
7805.00,1.19
7804.00,1.19
7803.00,1.19
7802.00,1.19
7801.00,1.19
7800.00,1.19
7799.00,1.19
7798.00,1.19
7797.00,1.19
7796.00,1.19
7795.00,1.19
7794.00,1.19
7793.00,1.19
7792.00,1.19
7791.00,1.20
7790.00,1.20
7789.00,1.20
7788.00,1.20
7787.00,1.20
7786.00,1.20
7785.00,1.20
7784.00,1.20
7783.00,1.20
7782.00,1.20
7781.00,1.20
7780.00,1.20
7779.00,1.20
7778.00,1.20
7777.00,1.20
7776.00,1.20
7775.00,1.20
7774.00,1.20
7773.00,1.20
7772.00,1.20
7771.00,1.20
7770.00,1.20
7769.00,1.20
7768.00,1.20
7767.00,1.20
7766.00,1.20
7765.00,1.20
7764.00,1.20
7763.00,1.20
7762.00,1.20
7761.00,1.20
7760.00,1.20
7759.00,1.20
7758.00,1.20
7757.00,1.20
7756.00,1.20
7755.00,1.20
7754.00,1.20
7753.00,1.20
7752.00,1.20
7751.00,1.20
7750.00,1.20
7749.00,1.21
7748.00,1.21
7747.00,1.21
7746.00,1.21
7745.00,1.21
7744.00,1.21
7743.00,1.21
7742.00,1.21
7741.00,1.21
7740.00,1.21
7739.00,1.21
7738.00,1.21
7737.00,1.21
7736.00,1.21
7735.00,1.21
7734.00,1.21
7733.00,1.21
7732.00,1.21
7731.00,1.21
7730.00,1.21
7729.00,1.20
7728.00,1.20
7727.00,1.20
7726.00,1.20
7725.00,1.20
7724.00,1.20
7723.00,1.20
7722.00,1.20
7721.00,1.20
7720.00,1.20
7719.00,1.20
7718.00,1.20
7717.00,1.20
7716.00,1.21
7715.00,1.21
7714.00,1.21
7713.00,1.21
7712.00,1.21
7711.00,1.21
7710.00,1.21
7709.00,1.21
7708.00,1.21
7707.00,1.21
7706.00,1.21
7705.00,1.21
7704.00,1.21
7703.00,1.21
7702.00,1.20
7701.00,1.20
7700.00,1.20
7699.00,1.20
7698.00,1.20
7697.00,1.20
7696.00,1.20
7695.00,1.20
7694.00,1.20
7693.00,1.20
7692.00,1.20
7691.00,1.20
7690.00,1.20
7689.00,1.20
7688.00,1.20
7687.00,1.20
7686.00,1.20
7685.00,1.20
7684.00,1.20
7683.00,1.20
7682.00,1.20
7681.00,1.20
7680.00,1.20
7679.00,1.20
7678.00,1.20
7677.00,1.20
7676.00,1.20
7675.00,1.20
7674.00,1.20
7673.00,1.20
7672.00,1.20
7671.00,1.20
7670.00,1.20
7669.00,1.20
7668.00,1.20
7667.00,1.20
7666.00,1.20
7665.00,1.20
7664.00,1.20
7663.00,1.20
7662.00,1.20
7661.00,1.20
7660.00,1.20
7659.00,1.20
7658.00,1.20
7657.00,1.20
7656.00,1.20
7655.00,1.20
7654.00,1.20
7653.00,1.20
7652.00,1.20
7651.00,1.20
7650.00,1.20
7649.00,1.20
7648.00,1.20
7647.00,1.20
7646.00,1.20
7645.00,1.20
7644.00,1.20
7643.00,1.20
7642.00,1.20
7641.00,1.20
7640.00,1.20
7639.00,1.20
7638.00,1.20
7637.00,1.20
7636.00,1.20
7635.00,1.20
7634.00,1.20
7633.00,1.20
7632.00,1.20
7631.00,1.20
7630.00,1.20
7629.00,1.20
7628.00,1.20
7627.00,1.20
7626.00,1.21
7625.00,1.21
7624.00,1.21
7623.00,1.21
7622.00,1.21
7621.00,1.21
7620.00,1.21
7619.00,1.21
7618.00,1.21
7617.00,1.21
7616.00,1.21
7615.00,1.21
7614.00,1.21
7613.00,1.21
7612.00,1.21
7611.00,1.21
7610.00,1.21
7609.00,1.21
7608.00,1.21
7607.00,1.21
7606.00,1.21
7605.00,1.21
7604.00,1.21
7603.00,1.21
7602.00,1.21
7601.00,1.21
7600.00,1.21
7599.00,1.21
7598.00,1.21
7597.00,1.21
7596.00,1.21
7595.00,1.21
7594.00,1.21
7593.00,1.21
7592.00,1.21
7591.00,1.20
7590.00,1.20
7589.00,1.20
7588.00,1.20
7587.00,1.20
7586.00,1.20
7585.00,1.20
7584.00,1.20
7583.00,1.20
7582.00,1.20
7581.00,1.20
7580.00,1.19
7579.00,1.19
7578.00,1.19
7577.00,1.19
7576.00,1.19
7575.00,1.19
7574.00,1.19
7573.00,1.19
7572.00,1.19
7571.00,1.19
7570.00,1.19
7569.00,1.19
7568.00,1.19
7567.00,1.19
7566.00,1.19
7565.00,1.19
7564.00,1.19
7563.00,1.19
7562.00,1.19
7561.00,1.19
7560.00,1.19
7559.00,1.19
7558.00,1.19
7557.00,1.19
7556.00,1.19
7555.00,1.19
7554.00,1.19
7553.00,1.19
7552.00,1.19
7551.00,1.19
7550.00,1.19
7549.00,1.19
7548.00,1.19
7547.00,1.19
7546.00,1.19
7545.00,1.19
7544.00,1.19
7543.00,1.19
7542.00,1.19
7541.00,1.19
7540.00,1.19
7539.00,1.19
7538.00,1.19
7537.00,1.19
7536.00,1.18
7535.00,1.18
7534.00,1.18
7533.00,1.18
7532.00,1.18
7531.00,1.18
7530.00,1.18
7529.00,1.18
7528.00,1.18
7527.00,1.18
7526.00,1.18
7525.00,1.18
7524.00,1.18
7523.00,1.18
7522.00,1.18
7521.00,1.18
7520.00,1.18
7519.00,1.18
7518.00,1.18
7517.00,1.18
7516.00,1.18
7515.00,1.18
7514.00,1.18
7513.00,1.18
7512.00,1.18
7511.00,1.18
7510.00,1.18
7509.00,1.18
7508.00,1.18
7507.00,1.18
7506.00,1.18
7505.00,1.18
7504.00,1.18
7503.00,1.18
7502.00,1.18
7501.00,1.18
7500.00,1.18
7499.00,1.18
7498.00,1.18
7497.00,1.18
7496.00,1.18
7495.00,1.18
7494.00,1.18
7493.00,1.18
7492.00,1.18
7491.00,1.18
7490.00,1.18
7489.00,1.18
7488.00,1.17
7487.00,1.17
7486.00,1.17
7485.00,1.17
7484.00,1.17
7483.00,1.17
7482.00,1.17
7481.00,1.17
7480.00,1.17
7479.00,1.17
7478.00,1.17
7477.00,1.17
7476.00,1.17
7475.00,1.17
7474.00,1.17
7473.00,1.17
7472.00,1.17
7471.00,1.16
7470.00,1.16
7469.00,1.16
7468.00,1.16
7467.00,1.16
7466.00,1.16
7465.00,1.16
7464.00,1.16
7463.00,1.16
7462.00,1.16
7461.00,1.16
7460.00,1.16
7459.00,1.16
7458.00,1.16
7457.00,1.16
7456.00,1.16
7455.00,1.16
7454.00,1.16
7453.00,1.16
7452.00,1.16
7451.00,1.16
7450.00,1.16
7449.00,1.15
7448.00,1.15
7447.00,1.15
7446.00,1.15
7445.00,1.15
7444.00,1.15
7443.00,1.15
7442.00,1.15
7441.00,1.15
7440.00,1.14
7439.00,1.14
7438.00,1.14
7437.00,1.14
7436.00,1.14
7435.00,1.14
7434.00,1.14
7433.00,1.14
7432.00,1.14
7431.00,1.14
7430.00,1.14
7429.00,1.14
7428.00,1.14
7427.00,1.14
7426.00,1.13
7425.00,1.13
7424.00,1.13
7423.00,1.13
7422.00,1.13
7421.00,1.13
7420.00,1.13
7419.00,1.13
7418.00,1.13
7417.00,1.13
7416.00,1.12
7415.00,1.12
7414.00,1.12
7413.00,1.12
7412.00,1.12
7411.00,1.12
7410.00,1.12
7409.00,1.12
7408.00,1.12
7407.00,1.12
7406.00,1.12
7405.00,1.12
7404.00,1.11
7403.00,1.11
7402.00,1.11
7401.00,1.11
7400.00,1.11
7399.00,1.11
7398.00,1.11
7397.00,1.11
7396.00,1.11
7395.00,1.11
7394.00,1.11
7393.00,1.11
7392.00,1.11
7391.00,1.11
7390.00,1.11
7389.00,1.11
7388.00,1.11
7387.00,1.11
7386.00,1.11
7385.00,1.11
7384.00,1.11
7383.00,1.11
7382.00,1.10
7381.00,1.10
7380.00,1.10
7379.00,1.10
7378.00,1.10
7377.00,1.10
7376.00,1.10
7375.00,1.10
7374.00,1.10
7373.00,1.10
7372.00,1.10
7371.00,1.10
7370.00,1.10
7369.00,1.10
7368.00,1.10
7367.00,1.10
7366.00,1.10
7365.00,1.10
7364.00,1.10
7363.00,1.10
7362.00,1.10
7361.00,1.10
7360.00,1.10
7359.00,1.10
7358.00,1.10
7357.00,1.10
7356.00,1.10
7355.00,1.10
7354.00,1.10
7353.00,1.10
7352.00,1.10
7351.00,1.10
7350.00,1.10
7349.00,1.10
7348.00,1.10
7347.00,1.10
7346.00,1.09
7345.00,1.09
7344.00,1.09
7343.00,1.09
7342.00,1.09
7341.00,1.09
7340.00,1.09
7339.00,1.09
7338.00,1.09
7337.00,1.09
7336.00,1.09
7335.00,1.09
7334.00,1.09
7333.00,1.09
7332.00,1.09
7331.00,1.08
7330.00,1.08
7329.00,1.08
7328.00,1.08
7327.00,1.08
7326.00,1.08
7325.00,1.08
7324.00,1.08
7323.00,1.08
7322.00,1.08
7321.00,1.08
7320.00,1.08
7319.00,1.08
7318.00,1.08
7317.00,1.08
7316.00,1.08
7315.00,1.08
7314.00,1.08
7313.00,1.08
7312.00,1.08
7311.00,1.08
7310.00,1.08
7309.00,1.08
7308.00,1.08
7307.00,1.08
7306.00,1.08
7305.00,1.08
7304.00,1.08
7303.00,1.08
7302.00,1.08
7301.00,1.07
7300.00,1.07
7299.00,1.07
7298.00,1.07
7297.00,1.07
7296.00,1.07
7295.00,1.07
7294.00,1.06
7293.00,1.06
7292.00,1.06
7291.00,1.06
7290.00,1.06
7289.00,1.06
7288.00,1.05
7287.00,1.05
7286.00,1.05
7285.00,1.05
7284.00,1.05
7283.00,1.05
7282.00,1.05
7281.00,1.04
7280.00,1.04
7279.00,1.04
7278.00,1.04
7277.00,1.04
7276.00,1.04
7275.00,1.04
7274.00,1.04
7273.00,1.04
7272.00,1.04
7271.00,1.04
7270.00,1.03
7269.00,1.03
7268.00,1.03
7267.00,1.03
7266.00,1.03
7265.00,1.03
7264.00,1.03
7263.00,1.03
7262.00,1.03
7261.00,1.03
7260.00,1.03
7259.00,1.03
7258.00,1.03
7257.00,1.03
7256.00,1.02
7255.00,1.02
7254.00,1.02
7253.00,1.02
7252.00,1.02
7251.00,1.02
7250.00,1.02
7249.00,1.02
7248.00,1.01
7247.00,1.01
7246.00,1.01
7245.00,1.01
7244.00,1.01
7243.00,1.00
7242.00,1.00
7241.00,1.00
7240.00,0.99
7239.00,0.99
7238.00,0.99
7237.00,0.98
7236.00,0.98
7235.00,0.98
7234.00,0.97
7233.00,0.97
7232.00,0.97
7231.00,0.96
7230.00,0.96
7229.00,0.96
7228.00,0.96
7227.00,0.95
7226.00,0.95
7225.00,0.95
7224.00,0.94
7223.00,0.94
7222.00,0.94
7221.00,0.93
7220.00,0.93
7219.00,0.93
7218.00,0.93
7217.00,0.92
7216.00,0.92
7215.00,0.92
7214.00,0.91
7213.00,0.91
7212.00,0.91
7211.00,0.90
7210.00,0.90
7209.00,0.90
7208.00,0.90
7207.00,0.89
7206.00,0.89
7205.00,0.89
7204.00,0.89
7203.00,0.88
7202.00,0.88
7201.00,0.88
7200.00,0.88
7199.00,0.87
7198.00,0.87
7197.00,0.87
7196.00,0.87
7195.00,0.86
7194.00,0.86
7193.00,0.86
7192.00,0.86
7191.00,0.86
7190.00,0.85
7189.00,0.85
7188.00,0.85
7187.00,0.85
7186.00,0.84
7185.00,0.84
7184.00,0.84
7183.00,0.83
7182.00,0.83
7181.00,0.83
7180.00,0.83
7179.00,0.82
7178.00,0.82
7177.00,0.82
7176.00,0.81
7175.00,0.81
7174.00,0.81
7173.00,0.81
7172.00,0.80
7171.00,0.80
7170.00,0.80
7169.00,0.80
7168.00,0.80
7167.00,0.79
7166.00,0.79
7165.00,0.79
7164.00,0.79
7163.00,0.79
7162.00,0.79
7161.00,0.78
7160.00,0.78
7159.00,0.78
7158.00,0.78
7157.00,0.78
7156.00,0.78
7155.00,0.77
7154.00,0.77
7153.00,0.77
7152.00,0.77
7151.00,0.77
7150.00,0.76
7149.00,0.76
7148.00,0.76
7147.00,0.76
7146.00,0.76
7145.00,0.75
7144.00,0.75
7143.00,0.75
7142.00,0.75
7141.00,0.74
7140.00,0.74
7139.00,0.74
7138.00,0.74
7137.00,0.73
7136.00,0.73
7135.00,0.73
7134.00,0.73
7133.00,0.73
7132.00,0.72
7131.00,0.72
7130.00,0.72
7129.00,0.72
7128.00,0.71
7127.00,0.71
7126.00,0.71
7125.00,0.71
7124.00,0.70
7123.00,0.70
7122.00,0.70
7121.00,0.69
7120.00,0.69
7119.00,0.69
7118.00,0.69
7117.00,0.68
7116.00,0.68
7115.00,0.68
7114.00,0.67
7113.00,0.67
7112.00,0.67
7111.00,0.67
7110.00,0.66
7109.00,0.66
7108.00,0.66
7107.00,0.65
7106.00,0.65
7105.00,0.65
7104.00,0.65
7103.00,0.65
7102.00,0.64
7101.00,0.64
7100.00,0.64
7099.00,0.64
7098.00,0.64
7097.00,0.64
7096.00,0.64
7095.00,0.64
7094.00,0.63
7093.00,0.63
7092.00,0.63
7091.00,0.63
7090.00,0.63
7089.00,0.63
7088.00,0.63
7087.00,0.63
7086.00,0.63
7085.00,0.63
7084.00,0.63
7083.00,0.63
7082.00,0.62
7081.00,0.62
7080.00,0.62
7079.00,0.62
7078.00,0.62
7077.00,0.62
7076.00,0.62
7075.00,0.61
7074.00,0.61
7073.00,0.61
7072.00,0.61
7071.00,0.61
7070.00,0.61
7069.00,0.61
7068.00,0.60
7067.00,0.60
7066.00,0.60
7065.00,0.60
7064.00,0.60
7063.00,0.60
7062.00,0.60
7061.00,0.60
7060.00,0.60
7059.00,0.60
7058.00,0.60
7057.00,0.60
7056.00,0.60
7055.00,0.60
7054.00,0.60
7053.00,0.59
7052.00,0.59
7051.00,0.59
7050.00,0.59
7049.00,0.59
7048.00,0.59
7047.00,0.59
7046.00,0.59
7045.00,0.59
7044.00,0.58
7043.00,0.58
7042.00,0.58
7041.00,0.58
7040.00,0.58
7039.00,0.58
7038.00,0.58
7037.00,0.57
7036.00,0.57
7035.00,0.57
7034.00,0.57
7033.00,0.57
7032.00,0.57
7031.00,0.57
7030.00,0.57
7029.00,0.56
7028.00,0.56
7027.00,0.56
7026.00,0.56
7025.00,0.56
7024.00,0.56
7023.00,0.56
7022.00,0.56
7021.00,0.56
7020.00,0.56
7019.00,0.56
7018.00,0.56
7017.00,0.56
7016.00,0.56
7015.00,0.56
7014.00,0.56
7013.00,0.56
7012.00,0.56
7011.00,0.56
7010.00,0.56
7009.00,0.56
7008.00,0.56
7007.00,0.56
7006.00,0.56
7005.00,0.56
7004.00,0.55
7003.00,0.55
7002.00,0.55
7001.00,0.55
7000.00,0.55
6999.00,0.55
6998.00,0.55
6997.00,0.55
6996.00,0.55
6995.00,0.55
6994.00,0.55
6993.00,0.55
6992.00,0.55
6991.00,0.55
6990.00,0.55
6989.00,0.55
6988.00,0.55
6987.00,0.54
6986.00,0.54
6985.00,0.54
6984.00,0.54
6983.00,0.54
6982.00,0.54
6981.00,0.54
6980.00,0.54
6979.00,0.54
6978.00,0.54
6977.00,0.54
6976.00,0.54
6975.00,0.54
6974.00,0.54
6973.00,0.54
6972.00,0.54
6971.00,0.54
6970.00,0.54
6969.00,0.54
6968.00,0.54
6967.00,0.54
6966.00,0.54
6965.00,0.54
6964.00,0.54
6963.00,0.54
6962.00,0.53
6961.00,0.53
6960.00,0.53
6959.00,0.53
6958.00,0.53
6957.00,0.53
6956.00,0.53
6955.00,0.53
6954.00,0.53
6953.00,0.53
6952.00,0.53
6951.00,0.53
6950.00,0.53
6949.00,0.53
6948.00,0.53
6947.00,0.53
6946.00,0.53
6945.00,0.53
6944.00,0.52
6943.00,0.52
6942.00,0.52
6941.00,0.52
6940.00,0.52
6939.00,0.52
6938.00,0.52
6937.00,0.52
6936.00,0.52
6935.00,0.52
6934.00,0.52
6933.00,0.52
6932.00,0.52
6931.00,0.52
6930.00,0.52
6929.00,0.52
6928.00,0.52
6927.00,0.52
6926.00,0.52
6925.00,0.52
6924.00,0.52
6923.00,0.52
6922.00,0.52
6921.00,0.52
6920.00,0.52
6919.00,0.52
6918.00,0.52
6917.00,0.52
6916.00,0.52
6915.00,0.52
6914.00,0.51
6913.00,0.51
6912.00,0.51
6911.00,0.51
6910.00,0.51
6909.00,0.51
6908.00,0.51
6907.00,0.51
6906.00,0.51
6905.00,0.51
6904.00,0.51
6903.00,0.51
6902.00,0.51
6901.00,0.51
6900.00,0.51
6899.00,0.51
6898.00,0.51
6897.00,0.51
6896.00,0.51
6895.00,0.51
6894.00,0.51
6893.00,0.51
6892.00,0.51
6891.00,0.51
6890.00,0.51
6889.00,0.51
6888.00,0.51
6887.00,0.51
6886.00,0.51
6885.00,0.51
6884.00,0.51
6883.00,0.51
6882.00,0.51
6881.00,0.51
6880.00,0.51
6879.00,0.51
6878.00,0.51
6877.00,0.51
6876.00,0.51
6875.00,0.51
6874.00,0.51
6873.00,0.51
6872.00,0.51
6871.00,0.51
6870.00,0.52
6869.00,0.52
6868.00,0.52
6867.00,0.52
6866.00,0.52
6865.00,0.52
6864.00,0.52
6863.00,0.52
6862.00,0.52
6861.00,0.52
6860.00,0.52
6859.00,0.52
6858.00,0.52
6857.00,0.52
6856.00,0.52
6855.00,0.52
6854.00,0.52
6853.00,0.52
6852.00,0.52
6851.00,0.52
6850.00,0.52
6849.00,0.52
6848.00,0.52
6847.00,0.52
6846.00,0.52
6845.00,0.52
6844.00,0.52
6843.00,0.52
6842.00,0.52
6841.00,0.52
6840.00,0.52
6839.00,0.52
6838.00,0.52
6837.00,0.52
6836.00,0.52
6835.00,0.52
6834.00,0.52
6833.00,0.53
6832.00,0.53
6831.00,0.53
6830.00,0.53
6829.00,0.52
6828.00,0.52
6827.00,0.52
6826.00,0.52
6825.00,0.52
6824.00,0.52
6823.00,0.52
6822.00,0.52
6821.00,0.52
6820.00,0.52
6819.00,0.52
6818.00,0.52
6817.00,0.52
6816.00,0.52
6815.00,0.52
6814.00,0.52
6813.00,0.52
6812.00,0.52
6811.00,0.52
6810.00,0.52
6809.00,0.52
6808.00,0.52
6807.00,0.53
6806.00,0.53
6805.00,0.53
6804.00,0.53
6803.00,0.53
6802.00,0.53
6801.00,0.53
6800.00,0.53
6799.00,0.53
6798.00,0.53
6797.00,0.53
6796.00,0.53
6795.00,0.53
6794.00,0.53
6793.00,0.53
6792.00,0.53
6791.00,0.53
6790.00,0.53
6789.00,0.53
6788.00,0.53
6787.00,0.53
6786.00,0.53
6785.00,0.53
6784.00,0.53
6783.00,0.53
6782.00,0.53
6781.00,0.53
6780.00,0.53
6779.00,0.53
6778.00,0.53
6777.00,0.53
6776.00,0.53
6775.00,0.53
6774.00,0.54
6773.00,0.54
6772.00,0.54
6771.00,0.54
6770.00,0.54
6769.00,0.54
6768.00,0.54
6767.00,0.54
6766.00,0.54
6765.00,0.54
6764.00,0.54
6763.00,0.54
6762.00,0.54
6761.00,0.54
6760.00,0.55
6759.00,0.55
6758.00,0.55
6757.00,0.55
6756.00,0.55
6755.00,0.55
6754.00,0.55
6753.00,0.55
6752.00,0.55
6751.00,0.55
6750.00,0.55
6749.00,0.55
6748.00,0.55
6747.00,0.55
6746.00,0.55
6745.00,0.55
6744.00,0.55
6743.00,0.55
6742.00,0.56
6741.00,0.56
6740.00,0.56
6739.00,0.56
6738.00,0.56
6737.00,0.56
6736.00,0.56
6735.00,0.56
6734.00,0.56
6733.00,0.56
6732.00,0.56
6731.00,0.56
6730.00,0.56
6729.00,0.56
6728.00,0.56
6727.00,0.56
6726.00,0.56
6725.00,0.56
6724.00,0.56
6723.00,0.56
6722.00,0.56
6721.00,0.56
6720.00,0.56
6719.00,0.56
6718.00,0.56
6717.00,0.56
6716.00,0.56
6715.00,0.56
6714.00,0.56
6713.00,0.56
6712.00,0.56
6711.00,0.56
6710.00,0.56
6709.00,0.56
6708.00,0.56
6707.00,0.56
6706.00,0.57
6705.00,0.57
6704.00,0.57
6703.00,0.57
6702.00,0.57
6701.00,0.57
6700.00,0.57
6699.00,0.57
6698.00,0.57
6697.00,0.57
6696.00,0.57
6695.00,0.58
6694.00,0.58
6693.00,0.58
6692.00,0.58
6691.00,0.58
6690.00,0.58
6689.00,0.58
6688.00,0.59
6687.00,0.59
6686.00,0.59
6685.00,0.59
6684.00,0.59
6683.00,0.59
6682.00,0.59
6681.00,0.59
6680.00,0.59
6679.00,0.59
6678.00,0.59
6677.00,0.59
6676.00,0.60
6675.00,0.60
6674.00,0.60
6673.00,0.60
6672.00,0.60
6671.00,0.60
6670.00,0.60
6669.00,0.60
6668.00,0.60
6667.00,0.60
6666.00,0.60
6665.00,0.60
6664.00,0.60
6663.00,0.60
6662.00,0.60
6661.00,0.60
6660.00,0.60
6659.00,0.60
6658.00,0.60
6657.00,0.60
6656.00,0.60
6655.00,0.61
6654.00,0.61
6653.00,0.61
6652.00,0.61
6651.00,0.61
6650.00,0.61
6649.00,0.61
6648.00,0.61
6647.00,0.61
6646.00,0.61
6645.00,0.61
6644.00,0.61
6643.00,0.61
6642.00,0.62
6641.00,0.62
6640.00,0.62
6639.00,0.62
6638.00,0.62
6637.00,0.62
6636.00,0.62
6635.00,0.62
6634.00,0.62
6633.00,0.62
6632.00,0.62
6631.00,0.62
6630.00,0.62
6629.00,0.62
6628.00,0.62
6627.00,0.62
6626.00,0.62
6625.00,0.62
6624.00,0.62
6623.00,0.63
6622.00,0.63
6621.00,0.63
6620.00,0.63
6619.00,0.63
6618.00,0.63
6617.00,0.63
6616.00,0.63
6615.00,0.63
6614.00,0.64
6613.00,0.64
6612.00,0.64
6611.00,0.64
6610.00,0.64
6609.00,0.64
6608.00,0.64
6607.00,0.64
6606.00,0.64
6605.00,0.64
6604.00,0.64
6603.00,0.64
6602.00,0.64
6601.00,0.64
6600.00,0.64
6599.00,0.64
6598.00,0.64
6597.00,0.65
6596.00,0.65
6595.00,0.65
6594.00,0.65
6593.00,0.65
6592.00,0.65
6591.00,0.65
6590.00,0.65
6589.00,0.65
6588.00,0.65
6587.00,0.65
6586.00,0.65
6585.00,0.66
6584.00,0.66
6583.00,0.66
6582.00,0.66
6581.00,0.66
6580.00,0.66
6579.00,0.66
6578.00,0.66
6577.00,0.66
6576.00,0.67
6575.00,0.67
6574.00,0.67
6573.00,0.67
6572.00,0.67
6571.00,0.67
6570.00,0.67
6569.00,0.67
6568.00,0.67
6567.00,0.67
6566.00,0.67
6565.00,0.68
6564.00,0.68
6563.00,0.68
6562.00,0.68
6561.00,0.68
6560.00,0.68
6559.00,0.68
6558.00,0.68
6557.00,0.68
6556.00,0.68
6555.00,0.68
6554.00,0.68
6553.00,0.68
6552.00,0.69
6551.00,0.69
6550.00,0.69
6549.00,0.69
6548.00,0.69
6547.00,0.69
6546.00,0.69
6545.00,0.69
6544.00,0.69
6543.00,0.69
6542.00,0.69
6541.00,0.69
6540.00,0.69
6539.00,0.69
6538.00,0.69
6537.00,0.69
6536.00,0.69
6535.00,0.70
6534.00,0.70
6533.00,0.70
6532.00,0.70
6531.00,0.70
6530.00,0.70
6529.00,0.70
6528.00,0.70
6527.00,0.70
6526.00,0.70
6525.00,0.70
6524.00,0.70
6523.00,0.70
6522.00,0.70
6521.00,0.70
6520.00,0.71
6519.00,0.71
6518.00,0.71
6517.00,0.71
6516.00,0.71
6515.00,0.71
6514.00,0.71
6513.00,0.71
6512.00,0.71
6511.00,0.71
6510.00,0.71
6509.00,0.71
6508.00,0.71
6507.00,0.71
6506.00,0.71
6505.00,0.71
6504.00,0.71
6503.00,0.72
6502.00,0.72
6501.00,0.72
6500.00,0.72
6499.00,0.72
6498.00,0.72
6497.00,0.72
6496.00,0.72
6495.00,0.72
6494.00,0.72
6493.00,0.72
6492.00,0.72
6491.00,0.72
6490.00,0.73
6489.00,0.73
6488.00,0.73
6487.00,0.73
6486.00,0.73
6485.00,0.73
6484.00,0.73
6483.00,0.73
6482.00,0.73
6481.00,0.73
6480.00,0.73
6479.00,0.73
6478.00,0.74
6477.00,0.74
6476.00,0.74
6475.00,0.74
6474.00,0.74
6473.00,0.74
6472.00,0.74
6471.00,0.73
6470.00,0.73
6469.00,0.73
6468.00,0.73
6467.00,0.73
6466.00,0.73
6465.00,0.73
6464.00,0.73
6463.00,0.73
6462.00,0.73
6461.00,0.74
6460.00,0.74
6459.00,0.74
6458.00,0.74
6457.00,0.74
6456.00,0.74
6455.00,0.74
6454.00,0.74
6453.00,0.74
6452.00,0.74
6451.00,0.74
6450.00,0.74
6449.00,0.74
6448.00,0.74
6447.00,0.74
6446.00,0.74
6445.00,0.74
6444.00,0.74
6443.00,0.75
6442.00,0.75
6441.00,0.75
6440.00,0.75
6439.00,0.75
6438.00,0.75
6437.00,0.75
6436.00,0.75
6435.00,0.75
6434.00,0.75
6433.00,0.75
6432.00,0.75
6431.00,0.75
6430.00,0.75
6429.00,0.75
6428.00,0.75
6427.00,0.75
6426.00,0.75
6425.00,0.75
6424.00,0.75
6423.00,0.75
6422.00,0.75
6421.00,0.75
6420.00,0.75
6419.00,0.75
6418.00,0.75
6417.00,0.75
6416.00,0.76
6415.00,0.76
6414.00,0.76
6413.00,0.76
6412.00,0.76
6411.00,0.76
6410.00,0.76
6409.00,0.76
6408.00,0.76
6407.00,0.76
6406.00,0.76
6405.00,0.76
6404.00,0.76
6403.00,0.76
6402.00,0.77
6401.00,0.77
6400.00,0.77
6399.00,0.77
6398.00,0.77
6397.00,0.77
6396.00,0.77
6395.00,0.77
6394.00,0.77
6393.00,0.77
6392.00,0.77
6391.00,0.77
6390.00,0.77
6389.00,0.77
6388.00,0.77
6387.00,0.77
6386.00,0.77
6385.00,0.77
6384.00,0.77
6383.00,0.77
6382.00,0.77
6381.00,0.77
6380.00,0.78
6379.00,0.78
6378.00,0.78
6377.00,0.78
6376.00,0.78
6375.00,0.78
6374.00,0.78
6373.00,0.78
6372.00,0.78
6371.00,0.78
6370.00,0.78
6369.00,0.78
6368.00,0.78
6367.00,0.78
6366.00,0.78
6365.00,0.79
6364.00,0.79
6363.00,0.79
6362.00,0.79
6361.00,0.79
6360.00,0.79
6359.00,0.79
6358.00,0.79
6357.00,0.79
6356.00,0.79
6355.00,0.79
6354.00,0.79
6353.00,0.79
6352.00,0.79
6351.00,0.79
6350.00,0.79
6349.00,0.79
6348.00,0.79
6347.00,0.79
6346.00,0.79
6345.00,0.79
6344.00,0.80
6343.00,0.80
6342.00,0.80
6341.00,0.80
6340.00,0.80
6339.00,0.80
6338.00,0.80
6337.00,0.80
6336.00,0.80
6335.00,0.80
6334.00,0.80
6333.00,0.80
6332.00,0.80
6331.00,0.80
6330.00,0.81
6329.00,0.81
6328.00,0.81
6327.00,0.81
6326.00,0.81
6325.00,0.81
6324.00,0.81
6323.00,0.81
6322.00,0.81
6321.00,0.81
6320.00,0.81
6319.00,0.81
6318.00,0.82
6317.00,0.82
6316.00,0.82
6315.00,0.82
6314.00,0.82
6313.00,0.82
6312.00,0.82
6311.00,0.82
6310.00,0.82
6309.00,0.82
6308.00,0.83
6307.00,0.83
6306.00,0.83
6305.00,0.83
6304.00,0.83
6303.00,0.83
6302.00,0.83
6301.00,0.83
6300.00,0.83
6299.00,0.83
6298.00,0.84
6297.00,0.84
6296.00,0.84
6295.00,0.84
6294.00,0.84
6293.00,0.84
6292.00,0.84
6291.00,0.84
6290.00,0.84
6289.00,0.84
6288.00,0.84
6287.00,0.84
6286.00,0.85
6285.00,0.85
6284.00,0.85
6283.00,0.85
6282.00,0.85
6281.00,0.85
6280.00,0.85
6279.00,0.85
6278.00,0.85
6277.00,0.85
6276.00,0.85
6275.00,0.85
6274.00,0.85
6273.00,0.86
6272.00,0.86
6271.00,0.86
6270.00,0.86
6269.00,0.86
6268.00,0.86
6267.00,0.86
6266.00,0.86
6265.00,0.86
6264.00,0.86
6263.00,0.86
6262.00,0.86
6261.00,0.87
6260.00,0.87
6259.00,0.87
6258.00,0.87
6257.00,0.87
6256.00,0.87
6255.00,0.87
6254.00,0.87
6253.00,0.87
6252.00,0.87
6251.00,0.87
6250.00,0.88
6249.00,0.88
6248.00,0.88
6247.00,0.88
6246.00,0.88
6245.00,0.88
6244.00,0.88
6243.00,0.88
6242.00,0.88
6241.00,0.88
6240.00,0.89
6239.00,0.89
6238.00,0.89
6237.00,0.89
6236.00,0.89
6235.00,0.89
6234.00,0.89
6233.00,0.89
6232.00,0.89
6231.00,0.89
6230.00,0.89
6229.00,0.89
6228.00,0.89
6227.00,0.90
6226.00,0.90
6225.00,0.90
6224.00,0.90
6223.00,0.90
6222.00,0.90
6221.00,0.90
6220.00,0.90
6219.00,0.91
6218.00,0.91
6217.00,0.91
6216.00,0.91
6215.00,0.91
6214.00,0.91
6213.00,0.91
6212.00,0.92
6211.00,0.92
6210.00,0.92
6209.00,0.92
6208.00,0.92
6207.00,0.92
6206.00,0.92
6205.00,0.93
6204.00,0.93
6203.00,0.93
6202.00,0.93
6201.00,0.93
6200.00,0.93
6199.00,0.93
6198.00,0.93
6197.00,0.93
6196.00,0.94
6195.00,0.94
6194.00,0.94
6193.00,0.94
6192.00,0.94
6191.00,0.94
6190.00,0.94
6189.00,0.94
6188.00,0.95
6187.00,0.95
6186.00,0.95
6185.00,0.95
6184.00,0.95
6183.00,0.95
6182.00,0.95
6181.00,0.95
6180.00,0.96
6179.00,0.96
6178.00,0.96
6177.00,0.96
6176.00,0.96
6175.00,0.96
6174.00,0.96
6173.00,0.96
6172.00,0.96
6171.00,0.97
6170.00,0.97
6169.00,0.97
6168.00,0.97
6167.00,0.97
6166.00,0.97
6165.00,0.97
6164.00,0.97
6163.00,0.98
6162.00,0.98
6161.00,0.98
6160.00,0.98
6159.00,0.98
6158.00,0.98
6157.00,0.98
6156.00,0.98
6155.00,0.98
6154.00,0.98
6153.00,0.99
6152.00,0.99
6151.00,0.99
6150.00,0.99
6149.00,0.99
6148.00,0.99
6147.00,0.99
6146.00,0.99
6145.00,1.00
6144.00,1.00
6143.00,1.00
6142.00,1.00
6141.00,1.00
6140.00,1.00
6139.00,1.00
6138.00,1.01
6137.00,1.01
6136.00,1.01
6135.00,1.01
6134.00,1.01
6133.00,1.01
6132.00,1.01
6131.00,1.01
6130.00,1.02
6129.00,1.02
6128.00,1.02
6127.00,1.02
6126.00,1.02
6125.00,1.02
6124.00,1.02
6123.00,1.02
6122.00,1.02
6121.00,1.02
6120.00,1.03
6119.00,1.03
6118.00,1.03
6117.00,1.03
6116.00,1.03
6115.00,1.03
6114.00,1.03
6113.00,1.03
6112.00,1.03
6111.00,1.04
6110.00,1.04
6109.00,1.04
6108.00,1.04
6107.00,1.04
6106.00,1.04
6105.00,1.04
6104.00,1.04
6103.00,1.05
6102.00,1.05
6101.00,1.05
6100.00,1.05
6099.00,1.05
6098.00,1.05
6097.00,1.05
6096.00,1.05
6095.00,1.06
6094.00,1.06
6093.00,1.06
6092.00,1.06
6091.00,1.06
6090.00,1.06
6089.00,1.06
6088.00,1.07
6087.00,1.07
6086.00,1.07
6085.00,1.07
6084.00,1.07
6083.00,1.07
6082.00,1.07
6081.00,1.07
6080.00,1.07
6079.00,1.07
6078.00,1.07
6077.00,1.07
6076.00,1.08
6075.00,1.08
6074.00,1.08
6073.00,1.08
6072.00,1.08
6071.00,1.08
6070.00,1.08
6069.00,1.08
6068.00,1.08
6067.00,1.08
6066.00,1.08
6065.00,1.08
6064.00,1.08
6063.00,1.08
6062.00,1.08
6061.00,1.08
6060.00,1.08
6059.00,1.09
6058.00,1.09
6057.00,1.09
6056.00,1.09
6055.00,1.09
6054.00,1.09
6053.00,1.09
6052.00,1.09
6051.00,1.10
6050.00,1.10
6049.00,1.10
6048.00,1.10
6047.00,1.10
6046.00,1.10
6045.00,1.10
6044.00,1.10
6043.00,1.10
6042.00,1.10
6041.00,1.10
6040.00,1.10
6039.00,1.10
6038.00,1.10
6037.00,1.10
6036.00,1.10
6035.00,1.10
6034.00,1.10
6033.00,1.10
6032.00,1.10
6031.00,1.10
6030.00,1.10
6029.00,1.10
6028.00,1.11
6027.00,1.11
6026.00,1.11
6025.00,1.11
6024.00,1.11
6023.00,1.11
6022.00,1.11
6021.00,1.11
6020.00,1.11
6019.00,1.11
6018.00,1.11
6017.00,1.11
6016.00,1.11
6015.00,1.11
6014.00,1.11
6013.00,1.11
6012.00,1.11
6011.00,1.11
6010.00,1.11
6009.00,1.11
6008.00,1.11
6007.00,1.11
6006.00,1.11
6005.00,1.11
6004.00,1.11
6003.00,1.11
6002.00,1.11
6001.00,1.11
6000.00,1.11
5999.00,1.11
5998.00,1.10
5997.00,1.10
5996.00,1.10
5995.00,1.10
5994.00,1.10
5993.00,1.10
5992.00,1.10
5991.00,1.10
5990.00,1.09
5989.00,1.09
5988.00,1.09
5987.00,1.09
5986.00,1.09
5985.00,1.09
5984.00,1.08
5983.00,1.08
5982.00,1.08
5981.00,1.08
5980.00,1.07
5979.00,1.07
5978.00,1.07
5977.00,1.06
5976.00,1.06
5975.00,1.06
5974.00,1.05
5973.00,1.05
5972.00,1.04
5971.00,1.04
5970.00,1.04
5969.00,1.03
5968.00,1.03
5967.00,1.02
5966.00,1.02
5965.00,1.01
5964.00,1.01
5963.00,1.00
5962.00,0.99
5961.00,0.99
5960.00,0.98
5959.00,0.98
5958.00,0.97
5957.00,0.97
5956.00,0.96
5955.00,0.95
5954.00,0.95
5953.00,0.94
5952.00,0.94
5951.00,0.93
5950.00,0.92
5949.00,0.92
5948.00,0.91
5947.00,0.91
5946.00,0.91
5945.00,0.90
5944.00,0.90
5943.00,0.90
5942.00,0.90
5941.00,0.89
5940.00,0.89
5939.00,0.89
5938.00,0.89
5937.00,0.89
5936.00,0.89
5935.00,0.89
5934.00,0.89
5933.00,0.89
5932.00,0.89
5931.00,0.89
5930.00,0.89
5929.00,0.89
5928.00,0.89
5927.00,0.89
5926.00,0.88
5925.00,0.88
5924.00,0.88
5923.00,0.88
5922.00,0.88
5921.00,0.88
5920.00,0.88
5919.00,0.87
5918.00,0.87
5917.00,0.87
5916.00,0.87
5915.00,0.87
5914.00,0.86
5913.00,0.86
5912.00,0.86
5911.00,0.86
5910.00,0.85
5909.00,0.85
5908.00,0.85
5907.00,0.85
5906.00,0.85
5905.00,0.85
5904.00,0.85
5903.00,0.85
5902.00,0.85
5901.00,0.85
5900.00,0.85
5899.00,0.85
5898.00,0.85
5897.00,0.85
5896.00,0.85
5895.00,0.85
5894.00,0.85
5893.00,0.86
5892.00,0.86
5891.00,0.86
5890.00,0.86
5889.00,0.86
5888.00,0.86
5887.00,0.87
5886.00,0.87
5885.00,0.87
5884.00,0.87
5883.00,0.88
5882.00,0.88
5881.00,0.88
5880.00,0.88
5879.00,0.88
5878.00,0.89
5877.00,0.89
5876.00,0.89
5875.00,0.89
5874.00,0.90
5873.00,0.90
5872.00,0.90
5871.00,0.90
5870.00,0.90
5869.00,0.91
5868.00,0.91
5867.00,0.91
5866.00,0.91
5865.00,0.91
5864.00,0.92
5863.00,0.92
5862.00,0.92
5861.00,0.92
5860.00,0.92
5859.00,0.92
5858.00,0.92
5857.00,0.92
5856.00,0.93
5855.00,0.93
5854.00,0.93
5853.00,0.93
5852.00,0.93
5851.00,0.93
5850.00,0.93
5849.00,0.93
5848.00,0.93
5847.00,0.93
5846.00,0.93
5845.00,0.93
5844.00,0.93
5843.00,0.93
5842.00,0.93
5841.00,0.93
5840.00,0.93
5839.00,0.94
5838.00,0.94
5837.00,0.94
5836.00,0.94
5835.00,0.94
5834.00,0.94
5833.00,0.94
5832.00,0.94
5831.00,0.94
5830.00,0.94
5829.00,0.94
5828.00,0.94
5827.00,0.94
5826.00,0.94
5825.00,0.94
5824.00,0.94
5823.00,0.94
5822.00,0.94
5821.00,0.94
5820.00,0.94
5819.00,0.94
5818.00,0.94
5817.00,0.94
5816.00,0.94
5815.00,0.94
5814.00,0.94
5813.00,0.94
5812.00,0.94
5811.00,0.94
5810.00,0.93
5809.00,0.93
5808.00,0.93
5807.00,0.93
5806.00,0.93
5805.00,0.93
5804.00,0.93
5803.00,0.93
5802.00,0.93
5801.00,0.93
5800.00,0.93
5799.00,0.93
5798.00,0.93
5797.00,0.92
5796.00,0.92
5795.00,0.92
5794.00,0.92
5793.00,0.92
5792.00,0.92
5791.00,0.91
5790.00,0.91
5789.00,0.91
5788.00,0.91
5787.00,0.91
5786.00,0.90
5785.00,0.90
5784.00,0.90
5783.00,0.90
5782.00,0.90
5781.00,0.90
5780.00,0.89
5779.00,0.89
5778.00,0.89
5777.00,0.89
5776.00,0.89
5775.00,0.89
5774.00,0.89
5773.00,0.89
5772.00,0.89
5771.00,0.89
5770.00,0.89
5769.00,0.89
5768.00,0.89
5767.00,0.89
5766.00,0.89
5765.00,0.90
5764.00,0.90
5763.00,0.90
5762.00,0.90
5761.00,0.90
5760.00,0.91
5759.00,0.91
5758.00,0.91
5757.00,0.91
5756.00,0.92
5755.00,0.92
5754.00,0.92
5753.00,0.92
5752.00,0.93
5751.00,0.93
5750.00,0.93
5749.00,0.94
5748.00,0.94
5747.00,0.94
5746.00,0.95
5745.00,0.95
5744.00,0.95
5743.00,0.95
5742.00,0.96
5741.00,0.96
5740.00,0.96
5739.00,0.96
5738.00,0.96
5737.00,0.97
5736.00,0.97
5735.00,0.97
5734.00,0.97
5733.00,0.97
5732.00,0.97
5731.00,0.98
5730.00,0.98
5729.00,0.98
5728.00,0.98
5727.00,0.98
5726.00,0.98
5725.00,0.98
5724.00,0.98
5723.00,0.98
5722.00,0.98
5721.00,0.98
5720.00,0.98
5719.00,0.98
5718.00,0.98
5717.00,0.98
5716.00,0.98
5715.00,0.98
5714.00,0.98
5713.00,0.98
5712.00,0.98
5711.00,0.98
5710.00,0.98
5709.00,0.98
5708.00,0.98
5707.00,0.98
5706.00,0.98
5705.00,0.98
5704.00,0.98
5703.00,0.98
5702.00,0.98
5701.00,0.98
5700.00,0.98
5699.00,0.98
5698.00,0.98
5697.00,0.98
5696.00,0.98
5695.00,0.97
5694.00,0.97
5693.00,0.97
5692.00,0.97
5691.00,0.97
5690.00,0.97
5689.00,0.97
5688.00,0.96
5687.00,0.96
5686.00,0.96
5685.00,0.96
5684.00,0.96
5683.00,0.96
5682.00,0.96
5681.00,0.95
5680.00,0.95
5679.00,0.95
5678.00,0.95
5677.00,0.95
5676.00,0.95
5675.00,0.95
5674.00,0.95
5673.00,0.95
5672.00,0.95
5671.00,0.95
5670.00,0.95
5669.00,0.96
5668.00,0.96
5667.00,0.96
5666.00,0.96
5665.00,0.96
5664.00,0.96
5663.00,0.96
5662.00,0.96
5661.00,0.96
5660.00,0.96
5659.00,0.97
5658.00,0.97
5657.00,0.97
5656.00,0.97
5655.00,0.97
5654.00,0.97
5653.00,0.98
5652.00,0.98
5651.00,0.98
5650.00,0.98
5649.00,0.98
5648.00,0.98
5647.00,0.98
5646.00,0.99
5645.00,0.99
5644.00,0.99
5643.00,0.99
5642.00,0.99
5641.00,0.99
5640.00,1.00
5639.00,1.00
5638.00,1.00
5637.00,1.00
5636.00,1.00
5635.00,1.00
5634.00,1.01
5633.00,1.01
5632.00,1.01
5631.00,1.01
5630.00,1.01
5629.00,1.01
5628.00,1.02
5627.00,1.02
5626.00,1.02
5625.00,1.02
5624.00,1.02
5623.00,1.02
5622.00,1.02
5621.00,1.02
5620.00,1.02
5619.00,1.02
5618.00,1.02
5617.00,1.03
5616.00,1.03
5615.00,1.03
5614.00,1.03
5613.00,1.03
5612.00,1.03
5611.00,1.03
5610.00,1.03
5609.00,1.03
5608.00,1.04
5607.00,1.04
5606.00,1.04
5605.00,1.04
5604.00,1.04
5603.00,1.04
5602.00,1.05
5601.00,1.05
5600.00,1.05
5599.00,1.05
5598.00,1.05
5597.00,1.06
5596.00,1.06
5595.00,1.06
5594.00,1.06
5593.00,1.06
5592.00,1.07
5591.00,1.07
5590.00,1.07
5589.00,1.07
5588.00,1.07
5587.00,1.07
5586.00,1.07
5585.00,1.07
5584.00,1.08
5583.00,1.08
5582.00,1.08
5581.00,1.08
5580.00,1.08
5579.00,1.08
5578.00,1.08
5577.00,1.08
5576.00,1.08
5575.00,1.09
5574.00,1.09
5573.00,1.09
5572.00,1.09
5571.00,1.09
5570.00,1.09
5569.00,1.09
5568.00,1.10
5567.00,1.10
5566.00,1.10
5565.00,1.10
5564.00,1.10
5563.00,1.10
5562.00,1.10
5561.00,1.10
5560.00,1.10
5559.00,1.10
5558.00,1.11
5557.00,1.11
5556.00,1.11
5555.00,1.11
5554.00,1.11
5553.00,1.11
5552.00,1.11
5551.00,1.11
5550.00,1.11
5549.00,1.11
5548.00,1.11
5547.00,1.12
5546.00,1.12
5545.00,1.12
5544.00,1.12
5543.00,1.12
5542.00,1.12
5541.00,1.12
5540.00,1.12
5539.00,1.12
5538.00,1.12
5537.00,1.13
5536.00,1.13
5535.00,1.13
5534.00,1.13
5533.00,1.13
5532.00,1.13
5531.00,1.13
5530.00,1.13
5529.00,1.13
5528.00,1.13
5527.00,1.14
5526.00,1.14
5525.00,1.14
5524.00,1.14
5523.00,1.14
5522.00,1.14
5521.00,1.14
5520.00,1.14
5519.00,1.14
5518.00,1.14
5517.00,1.14
5516.00,1.14
5515.00,1.14
5514.00,1.14
5513.00,1.14
5512.00,1.14
5511.00,1.15
5510.00,1.15
5509.00,1.15
5508.00,1.15
5507.00,1.15
5506.00,1.15
5505.00,1.15
5504.00,1.15
5503.00,1.15
5502.00,1.15
5501.00,1.15
5500.00,1.15
5499.00,1.15
5498.00,1.15
5497.00,1.16
5496.00,1.16
5495.00,1.16
5494.00,1.16
5493.00,1.16
5492.00,1.16
5491.00,1.16
5490.00,1.16
5489.00,1.16
5488.00,1.16
5487.00,1.16
5486.00,1.17
5485.00,1.17
5484.00,1.17
5483.00,1.17
5482.00,1.17
5481.00,1.17
5480.00,1.17
5479.00,1.17
5478.00,1.18
5477.00,1.18
5476.00,1.18
5475.00,1.18
5474.00,1.18
5473.00,1.18
5472.00,1.18
5471.00,1.18
5470.00,1.18
5469.00,1.18
5468.00,1.19
5467.00,1.19
5466.00,1.19
5465.00,1.19
5464.00,1.19
5463.00,1.19
5462.00,1.19
5461.00,1.19
5460.00,1.19
5459.00,1.19
5458.00,1.19
5457.00,1.19
5456.00,1.19
5455.00,1.19
5454.00,1.19
5453.00,1.19
5452.00,1.19
5451.00,1.19
5450.00,1.19
5449.00,1.19
5448.00,1.19
5447.00,1.19
5446.00,1.19
5445.00,1.20
5444.00,1.20
5443.00,1.20
5442.00,1.20
5441.00,1.20
5440.00,1.20
5439.00,1.20
5438.00,1.20
5437.00,1.20
5436.00,1.20
5435.00,1.20
5434.00,1.20
5433.00,1.21
5432.00,1.21
5431.00,1.21
5430.00,1.21
5429.00,1.21
5428.00,1.21
5427.00,1.21
5426.00,1.21
5425.00,1.21
5424.00,1.21
5423.00,1.21
5422.00,1.21
5421.00,1.21
5420.00,1.21
5419.00,1.21
5418.00,1.21
5417.00,1.21
5416.00,1.21
5415.00,1.21
5414.00,1.21
5413.00,1.21
5412.00,1.21
5411.00,1.21
5410.00,1.21
5409.00,1.21
5408.00,1.21
5407.00,1.21
5406.00,1.21
5405.00,1.21
5404.00,1.21
5403.00,1.21
5402.00,1.21
5401.00,1.21
5400.00,1.21
5399.00,1.20
5398.00,1.20
5397.00,1.20
5396.00,1.20
5395.00,1.20
5394.00,1.20
5393.00,1.20
5392.00,1.19
5391.00,1.19
5390.00,1.19
5389.00,1.19
5388.00,1.19
5387.00,1.19
5386.00,1.18
5385.00,1.18
5384.00,1.18
5383.00,1.18
5382.00,1.17
5381.00,1.17
5380.00,1.17
5379.00,1.17
5378.00,1.16
5377.00,1.16
5376.00,1.16
5375.00,1.15
5374.00,1.15
5373.00,1.15
5372.00,1.14
5371.00,1.14
5370.00,1.14
5369.00,1.13
5368.00,1.13
5367.00,1.12
5366.00,1.12
5365.00,1.11
5364.00,1.11
5363.00,1.10
5362.00,1.10
5361.00,1.09
5360.00,1.09
5359.00,1.08
5358.00,1.07
5357.00,1.07
5356.00,1.06
5355.00,1.06
5354.00,1.05
5353.00,1.04
5352.00,1.04
5351.00,1.03
5350.00,1.02
5349.00,1.01
5348.00,1.01
5347.00,1.00
5346.00,0.99
5345.00,0.98
5344.00,0.98
5343.00,0.97
5342.00,0.96
5341.00,0.95
5340.00,0.94
5339.00,0.94
5338.00,0.93
5337.00,0.92
5336.00,0.91
5335.00,0.90
5334.00,0.89
5333.00,0.89
5332.00,0.88
5331.00,0.87
5330.00,0.86
5329.00,0.85
5328.00,0.85
5327.00,0.84
5326.00,0.83
5325.00,0.82
5324.00,0.82
5323.00,0.81
5322.00,0.80
5321.00,0.79
5320.00,0.78
5319.00,0.78
5318.00,0.77
5317.00,0.76
5316.00,0.76
5315.00,0.75
5314.00,0.74
5313.00,0.74
5312.00,0.73
5311.00,0.72
5310.00,0.72
5309.00,0.71
5308.00,0.71
5307.00,0.70
5306.00,0.69
5305.00,0.69
5304.00,0.69
5303.00,0.68
5302.00,0.68
5301.00,0.67
5300.00,0.67
5299.00,0.67
5298.00,0.66
5297.00,0.66
5296.00,0.66
5295.00,0.65
5294.00,0.65
5293.00,0.65
5292.00,0.65
5291.00,0.65
5290.00,0.64
5289.00,0.64
5288.00,0.64
5287.00,0.64
5286.00,0.64
5285.00,0.64
5284.00,0.64
5283.00,0.64
5282.00,0.64
5281.00,0.63
5280.00,0.63
5279.00,0.63
5278.00,0.63
5277.00,0.63
5276.00,0.63
5275.00,0.63
5274.00,0.63
5273.00,0.63
5272.00,0.63
5271.00,0.63
5270.00,0.63
5269.00,0.63
5268.00,0.63
5267.00,0.63
5266.00,0.63
5265.00,0.63
5264.00,0.63
5263.00,0.63
5262.00,0.63
5261.00,0.63
5260.00,0.63
5259.00,0.63
5258.00,0.63
5257.00,0.63
5256.00,0.63
5255.00,0.63
5254.00,0.63
5253.00,0.63
5252.00,0.63
5251.00,0.63
5250.00,0.63
5249.00,0.63
5248.00,0.63
5247.00,0.63
5246.00,0.63
5245.00,0.63
5244.00,0.63
5243.00,0.63
5242.00,0.63
5241.00,0.63
5240.00,0.63
5239.00,0.63
5238.00,0.63
5237.00,0.63
5236.00,0.63
5235.00,0.63
5234.00,0.63
5233.00,0.63
5232.00,0.63
5231.00,0.63
5230.00,0.63
5229.00,0.63
5228.00,0.63
5227.00,0.63
5226.00,0.63
5225.00,0.63
5224.00,0.63
5223.00,0.63
5222.00,0.63
5221.00,0.63
5220.00,0.63
5219.00,0.63
5218.00,0.63
5217.00,0.63
5216.00,0.63
5215.00,0.63
5214.00,0.64
5213.00,0.64
5212.00,0.64
5211.00,0.64
5210.00,0.64
5209.00,0.64
5208.00,0.64
5207.00,0.64
5206.00,0.64
5205.00,0.64
5204.00,0.64
5203.00,0.64
5202.00,0.64
5201.00,0.64
5200.00,0.64
5199.00,0.64
5198.00,0.64
5197.00,0.64
5196.00,0.64
5195.00,0.64
5194.00,0.64
5193.00,0.65
5192.00,0.65
5191.00,0.65
5190.00,0.65
5189.00,0.65
5188.00,0.65
5187.00,0.65
5186.00,0.65
5185.00,0.65
5184.00,0.65
5183.00,0.65
5182.00,0.65
5181.00,0.65
5180.00,0.65
5179.00,0.65
5178.00,0.65
5177.00,0.65
5176.00,0.65
5175.00,0.65
5174.00,0.65
5173.00,0.65
5172.00,0.65
5171.00,0.65
5170.00,0.65
5169.00,0.65
5168.00,0.65
5167.00,0.65
5166.00,0.65
5165.00,0.65
5164.00,0.65
5163.00,0.65
5162.00,0.65
5161.00,0.65
5160.00,0.65
5159.00,0.65
5158.00,0.65
5157.00,0.65
5156.00,0.65
5155.00,0.65
5154.00,0.65
5153.00,0.65
5152.00,0.65
5151.00,0.65
5150.00,0.65
5149.00,0.66
5148.00,0.66
5147.00,0.66
5146.00,0.66
5145.00,0.66
5144.00,0.66
5143.00,0.66
5142.00,0.66
5141.00,0.66
5140.00,0.66
5139.00,0.66
5138.00,0.66
5137.00,0.66
5136.00,0.66
5135.00,0.66
5134.00,0.66
5133.00,0.66
5132.00,0.67
5131.00,0.67
5130.00,0.67
5129.00,0.67
5128.00,0.67
5127.00,0.67
5126.00,0.67
5125.00,0.67
5124.00,0.67
5123.00,0.67
5122.00,0.67
5121.00,0.67
5120.00,0.67
5119.00,0.67
5118.00,0.67
5117.00,0.67
5116.00,0.67
5115.00,0.67
5114.00,0.67
5113.00,0.67
5112.00,0.67
5111.00,0.67
5110.00,0.67
5109.00,0.67
5108.00,0.67
5107.00,0.67
5106.00,0.67
5105.00,0.68
5104.00,0.68
5103.00,0.68
5102.00,0.68
5101.00,0.68
5100.00,0.68
5099.00,0.68
5098.00,0.68
5097.00,0.68
5096.00,0.68
5095.00,0.68
5094.00,0.68
5093.00,0.68
5092.00,0.68
5091.00,0.68
5090.00,0.68
5089.00,0.68
5088.00,0.68
5087.00,0.68
5086.00,0.68
5085.00,0.68
5084.00,0.68
5083.00,0.68
5082.00,0.68
5081.00,0.68
5080.00,0.68
5079.00,0.68
5078.00,0.68
5077.00,0.68
5076.00,0.68
5075.00,0.69
5074.00,0.69
5073.00,0.69
5072.00,0.69
5071.00,0.69
5070.00,0.69
5069.00,0.69
5068.00,0.69
5067.00,0.69
5066.00,0.69
5065.00,0.69
5064.00,0.69
5063.00,0.70
5062.00,0.70
5061.00,0.70
5060.00,0.70
5059.00,0.70
5058.00,0.70
5057.00,0.70
5056.00,0.70
5055.00,0.70
5054.00,0.70
5053.00,0.70
5052.00,0.70
5051.00,0.70
5050.00,0.70
5049.00,0.70
5048.00,0.70
5047.00,0.70
5046.00,0.70
5045.00,0.70
5044.00,0.70
5043.00,0.70
5042.00,0.70
5041.00,0.70
5040.00,0.70
5039.00,0.70
5038.00,0.70
5037.00,0.70
5036.00,0.70
5035.00,0.70
5034.00,0.70
5033.00,0.71
5032.00,0.71
5031.00,0.71
5030.00,0.71
5029.00,0.71
5028.00,0.71
5027.00,0.71
5026.00,0.71
5025.00,0.71
5024.00,0.71
5023.00,0.71
5022.00,0.71
5021.00,0.71
5020.00,0.71
5019.00,0.71
5018.00,0.71
5017.00,0.71
5016.00,0.72
5015.00,0.72
5014.00,0.72
5013.00,0.72
5012.00,0.72
5011.00,0.72
5010.00,0.72
5009.00,0.72
5008.00,0.72
5007.00,0.72
5006.00,0.72
5005.00,0.72
5004.00,0.73
5003.00,0.73
5002.00,0.73
5001.00,0.73
5000.00,0.73
4999.00,0.73
4998.00,0.73
4997.00,0.73
4996.00,0.73
4995.00,0.73
4994.00,0.73
4993.00,0.73
4992.00,0.73
4991.00,0.73
4990.00,0.73
4989.00,0.73
4988.00,0.73
4987.00,0.73
4986.00,0.73
4985.00,0.73
4984.00,0.73
4983.00,0.73
4982.00,0.74
4981.00,0.74
4980.00,0.74
4979.00,0.74
4978.00,0.74
4977.00,0.74
4976.00,0.74
4975.00,0.74
4974.00,0.74
4973.00,0.74
4972.00,0.74
4971.00,0.74
4970.00,0.74
4969.00,0.75
4968.00,0.75
4967.00,0.75
4966.00,0.75
4965.00,0.75
4964.00,0.75
4963.00,0.75
4962.00,0.75
4961.00,0.75
4960.00,0.75
4959.00,0.75
4958.00,0.75
4957.00,0.75
4956.00,0.75
4955.00,0.75
4954.00,0.76
4953.00,0.76
4952.00,0.76
4951.00,0.76
4950.00,0.76
4949.00,0.76
4948.00,0.76
4947.00,0.76
4946.00,0.76
4945.00,0.76
4944.00,0.76
4943.00,0.76
4942.00,0.76
4941.00,0.76
4940.00,0.76
4939.00,0.76
4938.00,0.77
4937.00,0.77
4936.00,0.77
4935.00,0.77
4934.00,0.77
4933.00,0.77
4932.00,0.77
4931.00,0.77
4930.00,0.77
4929.00,0.77
4928.00,0.77
4927.00,0.77
4926.00,0.77
4925.00,0.77
4924.00,0.77
4923.00,0.77
4922.00,0.77
4921.00,0.77
4920.00,0.78
4919.00,0.78
4918.00,0.78
4917.00,0.78
4916.00,0.78
4915.00,0.78
4914.00,0.78
4913.00,0.78
4912.00,0.78
4911.00,0.78
4910.00,0.78
4909.00,0.78
4908.00,0.78
4907.00,0.78
4906.00,0.78
4905.00,0.78
4904.00,0.78
4903.00,0.78
4902.00,0.78
4901.00,0.78
4900.00,0.79
4899.00,0.79
4898.00,0.79
4897.00,0.79
4896.00,0.79
4895.00,0.79
4894.00,0.79
4893.00,0.79
4892.00,0.79
4891.00,0.79
4890.00,0.80
4889.00,0.80
4888.00,0.80
4887.00,0.80
4886.00,0.80
4885.00,0.80
4884.00,0.80
4883.00,0.80
4882.00,0.80
4881.00,0.79
4880.00,0.79
4879.00,0.79
4878.00,0.79
4877.00,0.79
4876.00,0.79
4875.00,0.79
4874.00,0.79
4873.00,0.79
4872.00,0.79
4871.00,0.80
4870.00,0.80
4869.00,0.80
4868.00,0.80
4867.00,0.80
4866.00,0.80
4865.00,0.80
4864.00,0.80
4863.00,0.80
4862.00,0.80
4861.00,0.80
4860.00,0.80
4859.00,0.80
4858.00,0.81
4857.00,0.81
4856.00,0.81
4855.00,0.81
4854.00,0.81
4853.00,0.81
4852.00,0.81
4851.00,0.81
4850.00,0.81
4849.00,0.81
4848.00,0.81
4847.00,0.82
4846.00,0.82
4845.00,0.82
4844.00,0.82
4843.00,0.82
4842.00,0.82
4841.00,0.82
4840.00,0.82
4839.00,0.82
4838.00,0.82
4837.00,0.82
4836.00,0.82
4835.00,0.82
4834.00,0.82
4833.00,0.82
4832.00,0.82
4831.00,0.82
4830.00,0.82
4829.00,0.82
4828.00,0.82
4827.00,0.82
4826.00,0.82
4825.00,0.82
4824.00,0.82
4823.00,0.82
4822.00,0.82
4821.00,0.82
4820.00,0.82
4819.00,0.83
4818.00,0.83
4817.00,0.83
4816.00,0.83
4815.00,0.83
4814.00,0.83
4813.00,0.83
4812.00,0.83
4811.00,0.83
4810.00,0.83
4809.00,0.83
4808.00,0.84
4807.00,0.84
4806.00,0.84
4805.00,0.84
4804.00,0.84
4803.00,0.84
4802.00,0.84
4801.00,0.84
4800.00,0.84
4799.00,0.84
4798.00,0.84
4797.00,0.84
4796.00,0.84
4795.00,0.84
4794.00,0.84
4793.00,0.85
4792.00,0.85
4791.00,0.85
4790.00,0.85
4789.00,0.85
4788.00,0.85
4787.00,0.85
4786.00,0.85
4785.00,0.85
4784.00,0.85
4783.00,0.85
4782.00,0.85
4781.00,0.85
4780.00,0.85
4779.00,0.85
4778.00,0.85
4777.00,0.85
4776.00,0.85
4775.00,0.85
4774.00,0.86
4773.00,0.86
4772.00,0.86
4771.00,0.86
4770.00,0.86
4769.00,0.86
4768.00,0.86
4767.00,0.87
4766.00,0.87
4765.00,0.87
4764.00,0.87
4763.00,0.87
4762.00,0.87
4761.00,0.87
4760.00,0.88
4759.00,0.88
4758.00,0.88
4757.00,0.88
4756.00,0.88
4755.00,0.88
4754.00,0.88
4753.00,0.89
4752.00,0.89
4751.00,0.89
4750.00,0.89
4749.00,0.89
4748.00,0.89
4747.00,0.89
4746.00,0.89
4745.00,0.89
4744.00,0.89
4743.00,0.89
4742.00,0.90
4741.00,0.90
4740.00,0.90
4739.00,0.90
4738.00,0.90
4737.00,0.90
4736.00,0.90
4735.00,0.90
4734.00,0.90
4733.00,0.90
4732.00,0.90
4731.00,0.90
4730.00,0.91
4729.00,0.91
4728.00,0.91
4727.00,0.91
4726.00,0.91
4725.00,0.91
4724.00,0.91
4723.00,0.91
4722.00,0.91
4721.00,0.91
4720.00,0.92
4719.00,0.92
4718.00,0.92
4717.00,0.92
4716.00,0.92
4715.00,0.92
4714.00,0.92
4713.00,0.92
4712.00,0.92
4711.00,0.92
4710.00,0.92
4709.00,0.92
4708.00,0.93
4707.00,0.93
4706.00,0.93
4705.00,0.93
4704.00,0.93
4703.00,0.93
4702.00,0.93
4701.00,0.94
4700.00,0.94
4699.00,0.94
4698.00,0.94
4697.00,0.94
4696.00,0.94
4695.00,0.94
4694.00,0.95
4693.00,0.95
4692.00,0.95
4691.00,0.95
4690.00,0.95
4689.00,0.95
4688.00,0.95
4687.00,0.95
4686.00,0.96
4685.00,0.96
4684.00,0.96
4683.00,0.96
4682.00,0.96
4681.00,0.96
4680.00,0.96
4679.00,0.96
4678.00,0.97
4677.00,0.97
4676.00,0.97
4675.00,0.97
4674.00,0.97
4673.00,0.97
4672.00,0.97
4671.00,0.97
4670.00,0.98
4669.00,0.98
4668.00,0.98
4667.00,0.98
4666.00,0.98
4665.00,0.98
4664.00,0.98
4663.00,0.98
4662.00,0.98
4661.00,0.99
4660.00,0.99
4659.00,0.99
4658.00,0.99
4657.00,0.99
4656.00,0.99
4655.00,0.99
4654.00,0.99
4653.00,1.00
4652.00,1.00
4651.00,1.00
4650.00,1.00
4649.00,1.00
4648.00,1.00
4647.00,1.00
4646.00,1.01
4645.00,1.01
4644.00,1.01
4643.00,1.01
4642.00,1.01
4641.00,1.01
4640.00,1.01
4639.00,1.01
4638.00,1.01
4637.00,1.01
4636.00,1.01
4635.00,1.01
4634.00,1.01
4633.00,1.01
4632.00,1.01
4631.00,1.01
4630.00,1.01
4629.00,1.01
4628.00,1.02
4627.00,1.02
4626.00,1.02
4625.00,1.02
4624.00,1.02
4623.00,1.02
4622.00,1.02
4621.00,1.02
4620.00,1.02
4619.00,1.02
4618.00,1.02
4617.00,1.03
4616.00,1.03
4615.00,1.03
4614.00,1.03
4613.00,1.03
4612.00,1.03
4611.00,1.03
4610.00,1.03
4609.00,1.03
4608.00,1.03
4607.00,1.03
4606.00,1.03
4605.00,1.03
4604.00,1.03
4603.00,1.03
4602.00,1.03
4601.00,1.04
4600.00,1.04
4599.00,1.04
4598.00,1.04
4597.00,1.04
4596.00,1.04
4595.00,1.04
4594.00,1.04
4593.00,1.04
4592.00,1.04
4591.00,1.04
4590.00,1.05
4589.00,1.05
4588.00,1.05
4587.00,1.05
4586.00,1.05
4585.00,1.05
4584.00,1.05
4583.00,1.05
4582.00,1.05
4581.00,1.05
4580.00,1.05
4579.00,1.05
4578.00,1.05
4577.00,1.06
4576.00,1.06
4575.00,1.06
4574.00,1.06
4573.00,1.06
4572.00,1.06
4571.00,1.06
4570.00,1.06
4569.00,1.07
4568.00,1.07
4567.00,1.07
4566.00,1.07
4565.00,1.07
4564.00,1.07
4563.00,1.07
4562.00,1.07
4561.00,1.07
4560.00,1.07
4559.00,1.07
4558.00,1.07
4557.00,1.07
4556.00,1.07
4555.00,1.07
4554.00,1.07
4553.00,1.07
4552.00,1.07
4551.00,1.07
4550.00,1.07
4549.00,1.07
4548.00,1.07
4547.00,1.07
4546.00,1.07
4545.00,1.07
4544.00,1.07
4543.00,1.07
4542.00,1.07
4541.00,1.08
4540.00,1.08
4539.00,1.08
4538.00,1.08
4537.00,1.08
4536.00,1.08
4535.00,1.08
4534.00,1.08
4533.00,1.08
4532.00,1.08
4531.00,1.08
4530.00,1.08
4529.00,1.08
4528.00,1.08
4527.00,1.08
4526.00,1.08
4525.00,1.08
4524.00,1.08
4523.00,1.08
4522.00,1.09
4521.00,1.09
4520.00,1.09
4519.00,1.09
4518.00,1.09
4517.00,1.09
4516.00,1.09
4515.00,1.09
4514.00,1.09
4513.00,1.09
4512.00,1.09
4511.00,1.09
4510.00,1.09
4509.00,1.09
4508.00,1.09
4507.00,1.09
4506.00,1.08
4505.00,1.08
4504.00,1.08
4503.00,1.08
4502.00,1.08
4501.00,1.08
4500.00,1.08
4499.00,1.08
4498.00,1.08
4497.00,1.08
4496.00,1.08
4495.00,1.08
4494.00,1.08
4493.00,1.08
4492.00,1.08
4491.00,1.08
4490.00,1.08
4489.00,1.08
4488.00,1.08
4487.00,1.08
4486.00,1.08
4485.00,1.08
4484.00,1.08
4483.00,1.08
4482.00,1.08
4481.00,1.08
4480.00,1.08
4479.00,1.08
4478.00,1.07
4477.00,1.07
4476.00,1.07
4475.00,1.07
4474.00,1.07
4473.00,1.07
4472.00,1.07
4471.00,1.07
4470.00,1.06
4469.00,1.06
4468.00,1.06
4467.00,1.06
4466.00,1.06
4465.00,1.05
4464.00,1.05
4463.00,1.05
4462.00,1.05
4461.00,1.05
4460.00,1.04
4459.00,1.04
4458.00,1.04
4457.00,1.03
4456.00,1.03
4455.00,1.03
4454.00,1.03
4453.00,1.02
4452.00,1.02
4451.00,1.02
4450.00,1.02
4449.00,1.02
4448.00,1.01
4447.00,1.01
4446.00,1.01
4445.00,1.01
4444.00,1.01
4443.00,1.00
4442.00,1.00
4441.00,1.00
4440.00,1.00
4439.00,1.00
4438.00,0.99
4437.00,0.99
4436.00,0.99
4435.00,0.99
4434.00,0.99
4433.00,0.98
4432.00,0.98
4431.00,0.98
4430.00,0.98
4429.00,0.98
4428.00,0.98
4427.00,0.97
4426.00,0.97
4425.00,0.97
4424.00,0.97
4423.00,0.97
4422.00,0.97
4421.00,0.97
4420.00,0.97
4419.00,0.97
4418.00,0.97
4417.00,0.97
4416.00,0.97
4415.00,0.97
4414.00,0.97
4413.00,0.97
4412.00,0.97
4411.00,0.97
4410.00,0.97
4409.00,0.97
4408.00,0.97
4407.00,0.97
4406.00,0.97
4405.00,0.97
4404.00,0.97
4403.00,0.97
4402.00,0.97
4401.00,0.97
4400.00,0.97
4399.00,0.97
4398.00,0.97
4397.00,0.97
4396.00,0.97
4395.00,0.97
4394.00,0.97
4393.00,0.98
4392.00,0.98
4391.00,0.98
4390.00,0.98
4389.00,0.98
4388.00,0.98
4387.00,0.98
4386.00,0.99
4385.00,0.99
4384.00,0.99
4383.00,0.99
4382.00,0.99
4381.00,0.99
4380.00,0.99
4379.00,1.00
4378.00,1.00
4377.00,1.00
4376.00,1.00
4375.00,1.00
4374.00,1.00
4373.00,1.00
4372.00,1.00
4371.00,1.00
4370.00,1.00
4369.00,1.00
4368.00,1.00
4367.00,1.00
4366.00,1.00
4365.00,1.00
4364.00,1.00
4363.00,1.00
4362.00,1.00
4361.00,1.00
4360.00,1.00
4359.00,1.00
4358.00,1.00
4357.00,1.00
4356.00,1.00
4355.00,1.00
4354.00,1.00
4353.00,1.00
4352.00,1.00
4351.00,1.00
4350.00,1.00
4349.00,1.00
4348.00,1.00
4347.00,1.00
4346.00,1.00
4345.00,1.00
4344.00,1.00
4343.00,1.00
4342.00,1.00
4341.00,1.00
4340.00,1.00
4339.00,1.00
4338.00,1.00
4337.00,1.00
4336.00,1.00
4335.00,1.00
4334.00,1.01
4333.00,1.01
4332.00,1.01
4331.00,1.01
4330.00,1.01
4329.00,1.01
4328.00,1.01
4327.00,1.01
4326.00,1.01
4325.00,1.01
4324.00,1.01
4323.00,1.01
4322.00,1.02
4321.00,1.02
4320.00,1.02
4319.00,1.02
4318.00,1.02
4317.00,1.02
4316.00,1.03
4315.00,1.03
4314.00,1.03
4313.00,1.03
4312.00,1.03
4311.00,1.04
4310.00,1.04
4309.00,1.04
4308.00,1.04
4307.00,1.04
4306.00,1.05
4305.00,1.05
4304.00,1.05
4303.00,1.05
4302.00,1.05
4301.00,1.05
4300.00,1.05
4299.00,1.06
4298.00,1.06
4297.00,1.06
4296.00,1.06
4295.00,1.06
4294.00,1.06
4293.00,1.06
4292.00,1.06
4291.00,1.06
4290.00,1.06
4289.00,1.06
4288.00,1.06
4287.00,1.06
4286.00,1.06
4285.00,1.06
4284.00,1.06
4283.00,1.06
4282.00,1.06
4281.00,1.06
4280.00,1.06
4279.00,1.06
4278.00,1.06
4277.00,1.07
4276.00,1.07
4275.00,1.07
4274.00,1.07
4273.00,1.07
4272.00,1.07
4271.00,1.07
4270.00,1.07
4269.00,1.07
4268.00,1.07
4267.00,1.07
4266.00,1.07
4265.00,1.07
4264.00,1.07
4263.00,1.07
4262.00,1.07
4261.00,1.07
4260.00,1.07
4259.00,1.07
4258.00,1.07
4257.00,1.07
4256.00,1.07
4255.00,1.07
4254.00,1.07
4253.00,1.07
4252.00,1.07
4251.00,1.07
4250.00,1.07
4249.00,1.07
4248.00,1.07
4247.00,1.07
4246.00,1.07
4245.00,1.07
4244.00,1.07
4243.00,1.07
4242.00,1.07
4241.00,1.07
4240.00,1.07
4239.00,1.07
4238.00,1.08
4237.00,1.08
4236.00,1.08
4235.00,1.08
4234.00,1.08
4233.00,1.09
4232.00,1.09
4231.00,1.09
4230.00,1.09
4229.00,1.09
4228.00,1.09
4227.00,1.09
4226.00,1.09
4225.00,1.09
4224.00,1.09
4223.00,1.09
4222.00,1.09
4221.00,1.09
4220.00,1.09
4219.00,1.09
4218.00,1.09
4217.00,1.09
4216.00,1.09
4215.00,1.10
4214.00,1.10
4213.00,1.10
4212.00,1.10
4211.00,1.10
4210.00,1.10
4209.00,1.10
4208.00,1.10
4207.00,1.10
4206.00,1.10
4205.00,1.10
4204.00,1.10
4203.00,1.10
4202.00,1.10
4201.00,1.10
4200.00,1.10
4199.00,1.10
4198.00,1.10
4197.00,1.10
4196.00,1.11
4195.00,1.11
4194.00,1.11
4193.00,1.11
4192.00,1.11
4191.00,1.11
4190.00,1.11
4189.00,1.12
4188.00,1.12
4187.00,1.12
4186.00,1.12
4185.00,1.12
4184.00,1.12
4183.00,1.12
4182.00,1.12
4181.00,1.12
4180.00,1.12
4179.00,1.12
4178.00,1.12
4177.00,1.12
4176.00,1.12
4175.00,1.12
4174.00,1.12
4173.00,1.12
4172.00,1.12
4171.00,1.12
4170.00,1.12
4169.00,1.12
4168.00,1.12
4167.00,1.12
4166.00,1.12
4165.00,1.12
4164.00,1.12
4163.00,1.12
4162.00,1.12
4161.00,1.12
4160.00,1.12
4159.00,1.12
4158.00,1.12
4157.00,1.12
4156.00,1.12
4155.00,1.12
4154.00,1.12
4153.00,1.12
4152.00,1.12
4151.00,1.12
4150.00,1.12
4149.00,1.12
4148.00,1.12
4147.00,1.13
4146.00,1.13
4145.00,1.13
4144.00,1.13
4143.00,1.13
4142.00,1.13
4141.00,1.13
4140.00,1.13
4139.00,1.14
4138.00,1.14
4137.00,1.14
4136.00,1.14
4135.00,1.14
4134.00,1.14
4133.00,1.14
4132.00,1.14
4131.00,1.14
4130.00,1.14
4129.00,1.14
4128.00,1.14
4127.00,1.14
4126.00,1.14
4125.00,1.14
4124.00,1.14
4123.00,1.14
4122.00,1.14
4121.00,1.14
4120.00,1.14
4119.00,1.14
4118.00,1.14
4117.00,1.14
4116.00,1.14
4115.00,1.14
4114.00,1.14
4113.00,1.14
4112.00,1.14
4111.00,1.14
4110.00,1.14
4109.00,1.14
4108.00,1.15
4107.00,1.15
4106.00,1.15
4105.00,1.15
4104.00,1.15
4103.00,1.15
4102.00,1.15
4101.00,1.16
4100.00,1.16
4099.00,1.16
4098.00,1.16
4097.00,1.16
4096.00,1.16
4095.00,1.16
4094.00,1.16
4093.00,1.16
4092.00,1.16
4091.00,1.16
4090.00,1.16
4089.00,1.16
4088.00,1.16
4087.00,1.16
4086.00,1.16
4085.00,1.16
4084.00,1.16
4083.00,1.16
4082.00,1.16
4081.00,1.16
4080.00,1.16
4079.00,1.16
4078.00,1.16
4077.00,1.16
4076.00,1.16
4075.00,1.16
4074.00,1.16
4073.00,1.16
4072.00,1.16
4071.00,1.16
4070.00,1.16
4069.00,1.16
4068.00,1.16
4067.00,1.16
4066.00,1.16
4065.00,1.16
4064.00,1.16
4063.00,1.16
4062.00,1.16
4061.00,1.16
4060.00,1.17
4059.00,1.17
4058.00,1.17
4057.00,1.17
4056.00,1.17
4055.00,1.17
4054.00,1.17
4053.00,1.17
4052.00,1.17
4051.00,1.17
4050.00,1.17
4049.00,1.18
4048.00,1.18
4047.00,1.18
4046.00,1.18
4045.00,1.18
4044.00,1.18
4043.00,1.18
4042.00,1.18
4041.00,1.18
4040.00,1.18
4039.00,1.19
4038.00,1.19
4037.00,1.19
4036.00,1.19
4035.00,1.19
4034.00,1.19
4033.00,1.19
4032.00,1.19
4031.00,1.19
4030.00,1.19
4029.00,1.19
4028.00,1.20
4027.00,1.20
4026.00,1.20
4025.00,1.20
4024.00,1.20
4023.00,1.19
4022.00,1.19
4021.00,1.19
4020.00,1.19
4019.00,1.19
4018.00,1.19
4017.00,1.19
4016.00,1.19
4015.00,1.19
4014.00,1.19
4013.00,1.19
4012.00,1.19
4011.00,1.19
4010.00,1.19
4009.00,1.20
4008.00,1.20
4007.00,1.20
4006.00,1.20
4005.00,1.20
4004.00,1.20
4003.00,1.20
4002.00,1.21
4001.00,1.21
4000.00,1.21
