创建为新数据集,样品 014 用户 Administrator 日期 星期二, 十月 31 2017
cm-1,%T
10000.00,1.62
9999.00,1.62
9998.00,1.62
9997.00,1.62
9996.00,1.62
9995.00,1.62
9994.00,1.61
9993.00,1.61
9992.00,1.61
9991.00,1.61
9990.00,1.61
9989.00,1.61
9988.00,1.60
9987.00,1.60
9986.00,1.60
9985.00,1.60
9984.00,1.60
9983.00,1.60
9982.00,1.60
9981.00,1.60
9980.00,1.60
9979.00,1.60
9978.00,1.60
9977.00,1.60
9976.00,1.60
9975.00,1.60
9974.00,1.60
9973.00,1.60
9972.00,1.61
9971.00,1.61
9970.00,1.61
9969.00,1.61
9968.00,1.61
9967.00,1.61
9966.00,1.61
9965.00,1.61
9964.00,1.61
9963.00,1.61
9962.00,1.61
9961.00,1.61
9960.00,1.61
9959.00,1.61
9958.00,1.61
9957.00,1.61
9956.00,1.61
9955.00,1.61
9954.00,1.61
9953.00,1.61
9952.00,1.61
9951.00,1.61
9950.00,1.62
9949.00,1.62
9948.00,1.62
9947.00,1.62
9946.00,1.62
9945.00,1.62
9944.00,1.62
9943.00,1.62
9942.00,1.62
9941.00,1.62
9940.00,1.62
9939.00,1.62
9938.00,1.62
9937.00,1.61
9936.00,1.61
9935.00,1.61
9934.00,1.61
9933.00,1.60
9932.00,1.60
9931.00,1.60
9930.00,1.60
9929.00,1.60
9928.00,1.60
9927.00,1.59
9926.00,1.59
9925.00,1.59
9924.00,1.59
9923.00,1.59
9922.00,1.59
9921.00,1.59
9920.00,1.59
9919.00,1.59
9918.00,1.60
9917.00,1.60
9916.00,1.60
9915.00,1.60
9914.00,1.60
9913.00,1.59
9912.00,1.59
9911.00,1.59
9910.00,1.59
9909.00,1.59
9908.00,1.59
9907.00,1.59
9906.00,1.58
9905.00,1.58
9904.00,1.58
9903.00,1.58
9902.00,1.58
9901.00,1.57
9900.00,1.57
9899.00,1.57
9898.00,1.57
9897.00,1.57
9896.00,1.57
9895.00,1.57
9894.00,1.57
9893.00,1.56
9892.00,1.56
9891.00,1.56
9890.00,1.56
9889.00,1.56
9888.00,1.57
9887.00,1.57
9886.00,1.57
9885.00,1.57
9884.00,1.57
9883.00,1.57
9882.00,1.57
9881.00,1.57
9880.00,1.57
9879.00,1.57
9878.00,1.57
9877.00,1.57
9876.00,1.57
9875.00,1.57
9874.00,1.57
9873.00,1.57
9872.00,1.57
9871.00,1.57
9870.00,1.57
9869.00,1.57
9868.00,1.56
9867.00,1.56
9866.00,1.56
9865.00,1.56
9864.00,1.55
9863.00,1.55
9862.00,1.55
9861.00,1.55
9860.00,1.55
9859.00,1.55
9858.00,1.55
9857.00,1.55
9856.00,1.55
9855.00,1.55
9854.00,1.55
9853.00,1.55
9852.00,1.56
9851.00,1.56
9850.00,1.56
9849.00,1.56
9848.00,1.56
9847.00,1.57
9846.00,1.57
9845.00,1.57
9844.00,1.57
9843.00,1.57
9842.00,1.57
9841.00,1.57
9840.00,1.57
9839.00,1.57
9838.00,1.57
9837.00,1.57
9836.00,1.56
9835.00,1.56
9834.00,1.56
9833.00,1.56
9832.00,1.56
9831.00,1.56
9830.00,1.56
9829.00,1.56
9828.00,1.56
9827.00,1.56
9826.00,1.56
9825.00,1.56
9824.00,1.56
9823.00,1.56
9822.00,1.56
9821.00,1.56
9820.00,1.56
9819.00,1.56
9818.00,1.56
9817.00,1.56
9816.00,1.56
9815.00,1.57
9814.00,1.57
9813.00,1.57
9812.00,1.57
9811.00,1.57
9810.00,1.57
9809.00,1.57
9808.00,1.57
9807.00,1.57
9806.00,1.57
9805.00,1.57
9804.00,1.57
9803.00,1.57
9802.00,1.57
9801.00,1.57
9800.00,1.57
9799.00,1.57
9798.00,1.57
9797.00,1.57
9796.00,1.57
9795.00,1.57
9794.00,1.58
9793.00,1.58
9792.00,1.58
9791.00,1.58
9790.00,1.58
9789.00,1.58
9788.00,1.57
9787.00,1.57
9786.00,1.57
9785.00,1.57
9784.00,1.57
9783.00,1.57
9782.00,1.57
9781.00,1.57
9780.00,1.57
9779.00,1.57
9778.00,1.57
9777.00,1.57
9776.00,1.57
9775.00,1.57
9774.00,1.57
9773.00,1.57
9772.00,1.57
9771.00,1.57
9770.00,1.57
9769.00,1.57
9768.00,1.57
9767.00,1.57
9766.00,1.57
9765.00,1.57
9764.00,1.57
9763.00,1.57
9762.00,1.58
9761.00,1.58
9760.00,1.58
9759.00,1.58
9758.00,1.58
9757.00,1.59
9756.00,1.59
9755.00,1.59
9754.00,1.59
9753.00,1.59
9752.00,1.59
9751.00,1.59
9750.00,1.59
9749.00,1.59
9748.00,1.60
9747.00,1.60
9746.00,1.60
9745.00,1.60
9744.00,1.60
9743.00,1.60
9742.00,1.60
9741.00,1.59
9740.00,1.59
9739.00,1.59
9738.00,1.59
9737.00,1.59
9736.00,1.59
9735.00,1.59
9734.00,1.59
9733.00,1.59
9732.00,1.59
9731.00,1.59
9730.00,1.59
9729.00,1.59
9728.00,1.59
9727.00,1.59
9726.00,1.59
9725.00,1.59
9724.00,1.59
9723.00,1.59
9722.00,1.59
9721.00,1.58
9720.00,1.58
9719.00,1.58
9718.00,1.58
9717.00,1.58
9716.00,1.58
9715.00,1.58
9714.00,1.58
9713.00,1.58
9712.00,1.58
9711.00,1.58
9710.00,1.59
9709.00,1.59
9708.00,1.59
9707.00,1.59
9706.00,1.59
9705.00,1.59
9704.00,1.59
9703.00,1.60
9702.00,1.60
9701.00,1.60
9700.00,1.60
9699.00,1.60
9698.00,1.61
9697.00,1.61
9696.00,1.61
9695.00,1.61
9694.00,1.61
9693.00,1.61
9692.00,1.61
9691.00,1.61
9690.00,1.61
9689.00,1.60
9688.00,1.60
9687.00,1.60
9686.00,1.60
9685.00,1.60
9684.00,1.59
9683.00,1.59
9682.00,1.59
9681.00,1.59
9680.00,1.59
9679.00,1.59
9678.00,1.59
9677.00,1.58
9676.00,1.58
9675.00,1.58
9674.00,1.59
9673.00,1.59
9672.00,1.59
9671.00,1.59
9670.00,1.59
9669.00,1.59
9668.00,1.59
9667.00,1.59
9666.00,1.60
9665.00,1.60
9664.00,1.60
9663.00,1.60
9662.00,1.60
9661.00,1.60
9660.00,1.60
9659.00,1.60
9658.00,1.59
9657.00,1.59
9656.00,1.59
9655.00,1.59
9654.00,1.58
9653.00,1.58
9652.00,1.58
9651.00,1.58
9650.00,1.57
9649.00,1.57
9648.00,1.57
9647.00,1.57
9646.00,1.57
9645.00,1.57
9644.00,1.57
9643.00,1.57
9642.00,1.57
9641.00,1.57
9640.00,1.58
9639.00,1.58
9638.00,1.58
9637.00,1.58
9636.00,1.59
9635.00,1.59
9634.00,1.59
9633.00,1.60
9632.00,1.60
9631.00,1.60
9630.00,1.60
9629.00,1.60
9628.00,1.60
9627.00,1.60
9626.00,1.61
9625.00,1.61
9624.00,1.61
9623.00,1.61
9622.00,1.61
9621.00,1.61
9620.00,1.61
9619.00,1.61
9618.00,1.61
9617.00,1.61
9616.00,1.61
9615.00,1.61
9614.00,1.61
9613.00,1.61
9612.00,1.61
9611.00,1.61
9610.00,1.61
9609.00,1.61
9608.00,1.61
9607.00,1.61
9606.00,1.61
9605.00,1.61
9604.00,1.61
9603.00,1.61
9602.00,1.61
9601.00,1.60
9600.00,1.60
9599.00,1.60
9598.00,1.60
9597.00,1.59
9596.00,1.59
9595.00,1.59
9594.00,1.58
9593.00,1.58
9592.00,1.58
9591.00,1.57
9590.00,1.57
9589.00,1.57
9588.00,1.57
9587.00,1.57
9586.00,1.57
9585.00,1.57
9584.00,1.58
9583.00,1.58
9582.00,1.58
9581.00,1.59
9580.00,1.59
9579.00,1.59
9578.00,1.60
9577.00,1.60
9576.00,1.60
9575.00,1.60
9574.00,1.60
9573.00,1.61
9572.00,1.61
9571.00,1.61
9570.00,1.61
9569.00,1.60
9568.00,1.60
9567.00,1.60
9566.00,1.60
9565.00,1.60
9564.00,1.60
9563.00,1.60
9562.00,1.60
9561.00,1.60
9560.00,1.59
9559.00,1.59
9558.00,1.59
9557.00,1.59
9556.00,1.59
9555.00,1.59
9554.00,1.60
9553.00,1.60
9552.00,1.60
9551.00,1.60
9550.00,1.60
9549.00,1.60
9548.00,1.60
9547.00,1.60
9546.00,1.60
9545.00,1.60
9544.00,1.59
9543.00,1.59
9542.00,1.59
9541.00,1.59
9540.00,1.59
9539.00,1.59
9538.00,1.59
9537.00,1.58
9536.00,1.58
9535.00,1.58
9534.00,1.58
9533.00,1.58
9532.00,1.58
9531.00,1.58
9530.00,1.58
9529.00,1.58
9528.00,1.58
9527.00,1.58
9526.00,1.58
9525.00,1.58
9524.00,1.58
9523.00,1.58
9522.00,1.58
9521.00,1.58
9520.00,1.58
9519.00,1.58
9518.00,1.58
9517.00,1.58
9516.00,1.58
9515.00,1.58
9514.00,1.58
9513.00,1.58
9512.00,1.58
9511.00,1.58
9510.00,1.58
9509.00,1.58
9508.00,1.58
9507.00,1.58
9506.00,1.58
9505.00,1.58
9504.00,1.59
9503.00,1.59
9502.00,1.59
9501.00,1.60
9500.00,1.60
9499.00,1.60
9498.00,1.61
9497.00,1.61
9496.00,1.61
9495.00,1.61
9494.00,1.62
9493.00,1.62
9492.00,1.62
9491.00,1.62
9490.00,1.62
9489.00,1.61
9488.00,1.61
9487.00,1.61
9486.00,1.61
9485.00,1.61
9484.00,1.60
9483.00,1.60
9482.00,1.60
9481.00,1.60
9480.00,1.60
9479.00,1.59
9478.00,1.59
9477.00,1.59
9476.00,1.60
9475.00,1.60
9474.00,1.60
9473.00,1.60
9472.00,1.60
9471.00,1.60
9470.00,1.61
9469.00,1.61
9468.00,1.61
9467.00,1.61
9466.00,1.62
9465.00,1.62
9464.00,1.62
9463.00,1.62
9462.00,1.62
9461.00,1.62
9460.00,1.62
9459.00,1.62
9458.00,1.62
9457.00,1.61
9456.00,1.61
9455.00,1.61
9454.00,1.61
9453.00,1.61
9452.00,1.61
9451.00,1.61
9450.00,1.61
9449.00,1.60
9448.00,1.60
9447.00,1.60
9446.00,1.60
9445.00,1.60
9444.00,1.60
9443.00,1.60
9442.00,1.60
9441.00,1.60
9440.00,1.60
9439.00,1.60
9438.00,1.60
9437.00,1.60
9436.00,1.60
9435.00,1.60
9434.00,1.60
9433.00,1.60
9432.00,1.60
9431.00,1.60
9430.00,1.60
9429.00,1.61
9428.00,1.61
9427.00,1.61
9426.00,1.61
9425.00,1.61
9424.00,1.61
9423.00,1.61
9422.00,1.61
9421.00,1.61
9420.00,1.61
9419.00,1.61
9418.00,1.61
9417.00,1.61
9416.00,1.61
9415.00,1.61
9414.00,1.61
9413.00,1.61
9412.00,1.60
9411.00,1.60
9410.00,1.60
9409.00,1.60
9408.00,1.60
9407.00,1.60
9406.00,1.59
9405.00,1.59
9404.00,1.59
9403.00,1.59
9402.00,1.59
9401.00,1.59
9400.00,1.59
9399.00,1.59
9398.00,1.59
9397.00,1.59
9396.00,1.59
9395.00,1.59
9394.00,1.59
9393.00,1.59
9392.00,1.59
9391.00,1.59
9390.00,1.59
9389.00,1.59
9388.00,1.59
9387.00,1.58
9386.00,1.58
9385.00,1.58
9384.00,1.58
9383.00,1.58
9382.00,1.58
9381.00,1.57
9380.00,1.57
9379.00,1.57
9378.00,1.58
9377.00,1.58
9376.00,1.58
9375.00,1.58
9374.00,1.58
9373.00,1.59
9372.00,1.59
9371.00,1.59
9370.00,1.59
9369.00,1.60
9368.00,1.60
9367.00,1.60
9366.00,1.60
9365.00,1.60
9364.00,1.60
9363.00,1.61
9362.00,1.61
9361.00,1.61
9360.00,1.60
9359.00,1.60
9358.00,1.60
9357.00,1.60
9356.00,1.60
9355.00,1.60
9354.00,1.60
9353.00,1.59
9352.00,1.59
9351.00,1.59
9350.00,1.59
9349.00,1.59
9348.00,1.58
9347.00,1.58
9346.00,1.58
9345.00,1.58
9344.00,1.58
9343.00,1.58
9342.00,1.58
9341.00,1.58
9340.00,1.58
9339.00,1.58
9338.00,1.58
9337.00,1.58
9336.00,1.59
9335.00,1.59
9334.00,1.59
9333.00,1.59
9332.00,1.59
9331.00,1.59
9330.00,1.59
9329.00,1.59
9328.00,1.59
9327.00,1.59
9326.00,1.59
9325.00,1.59
9324.00,1.59
9323.00,1.59
9322.00,1.59
9321.00,1.59
9320.00,1.59
9319.00,1.59
9318.00,1.59
9317.00,1.59
9316.00,1.59
9315.00,1.59
9314.00,1.59
9313.00,1.59
9312.00,1.59
9311.00,1.60
9310.00,1.60
9309.00,1.60
9308.00,1.60
9307.00,1.60
9306.00,1.60
9305.00,1.60
9304.00,1.60
9303.00,1.60
9302.00,1.60
9301.00,1.59
9300.00,1.59
9299.00,1.59
9298.00,1.59
9297.00,1.59
9296.00,1.59
9295.00,1.59
9294.00,1.60
9293.00,1.60
9292.00,1.60
9291.00,1.60
9290.00,1.60
9289.00,1.60
9288.00,1.60
9287.00,1.60
9286.00,1.61
9285.00,1.61
9284.00,1.61
9283.00,1.61
9282.00,1.61
9281.00,1.61
9280.00,1.62
9279.00,1.62
9278.00,1.62
9277.00,1.62
9276.00,1.62
9275.00,1.62
9274.00,1.62
9273.00,1.62
9272.00,1.62
9271.00,1.62
9270.00,1.61
9269.00,1.61
9268.00,1.61
9267.00,1.61
9266.00,1.61
9265.00,1.61
9264.00,1.60
9263.00,1.60
9262.00,1.60
9261.00,1.60
9260.00,1.60
9259.00,1.60
9258.00,1.60
9257.00,1.60
9256.00,1.60
9255.00,1.60
9254.00,1.60
9253.00,1.60
9252.00,1.60
9251.00,1.60
9250.00,1.60
9249.00,1.60
9248.00,1.60
9247.00,1.61
9246.00,1.61
9245.00,1.61
9244.00,1.61
9243.00,1.61
9242.00,1.61
9241.00,1.61
9240.00,1.61
9239.00,1.61
9238.00,1.61
9237.00,1.61
9236.00,1.61
9235.00,1.61
9234.00,1.61
9233.00,1.61
9232.00,1.61
9231.00,1.61
9230.00,1.61
9229.00,1.60
9228.00,1.60
9227.00,1.60
9226.00,1.60
9225.00,1.60
9224.00,1.60
9223.00,1.60
9222.00,1.60
9221.00,1.60
9220.00,1.60
9219.00,1.60
9218.00,1.60
9217.00,1.59
9216.00,1.59
9215.00,1.59
9214.00,1.59
9213.00,1.59
9212.00,1.59
9211.00,1.59
9210.00,1.59
9209.00,1.59
9208.00,1.59
9207.00,1.59
9206.00,1.59
9205.00,1.59
9204.00,1.60
9203.00,1.60
9202.00,1.60
9201.00,1.60
9200.00,1.60
9199.00,1.60
9198.00,1.60
9197.00,1.61
9196.00,1.61
9195.00,1.61
9194.00,1.61
9193.00,1.61
9192.00,1.61
9191.00,1.61
9190.00,1.62
9189.00,1.62
9188.00,1.62
9187.00,1.62
9186.00,1.62
9185.00,1.62
9184.00,1.62
9183.00,1.62
9182.00,1.62
9181.00,1.62
9180.00,1.62
9179.00,1.62
9178.00,1.62
9177.00,1.62
9176.00,1.62
9175.00,1.62
9174.00,1.62
9173.00,1.62
9172.00,1.62
9171.00,1.62
9170.00,1.62
9169.00,1.62
9168.00,1.62
9167.00,1.62
9166.00,1.62
9165.00,1.62
9164.00,1.62
9163.00,1.62
9162.00,1.62
9161.00,1.62
9160.00,1.62
9159.00,1.62
9158.00,1.62
9157.00,1.62
9156.00,1.61
9155.00,1.61
9154.00,1.61
9153.00,1.61
9152.00,1.61
9151.00,1.61
9150.00,1.61
9149.00,1.61
9148.00,1.61
9147.00,1.60
9146.00,1.60
9145.00,1.60
9144.00,1.60
9143.00,1.60
9142.00,1.60
9141.00,1.60
9140.00,1.60
9139.00,1.59
9138.00,1.59
9137.00,1.59
9136.00,1.59
9135.00,1.59
9134.00,1.59
9133.00,1.59
9132.00,1.59
9131.00,1.59
9130.00,1.59
9129.00,1.59
9128.00,1.59
9127.00,1.59
9126.00,1.59
9125.00,1.59
9124.00,1.59
9123.00,1.59
9122.00,1.59
9121.00,1.59
9120.00,1.59
9119.00,1.59
9118.00,1.59
9117.00,1.59
9116.00,1.60
9115.00,1.60
9114.00,1.60
9113.00,1.60
9112.00,1.60
9111.00,1.60
9110.00,1.60
9109.00,1.60
9108.00,1.61
9107.00,1.61
9106.00,1.61
9105.00,1.61
9104.00,1.61
9103.00,1.61
9102.00,1.61
9101.00,1.61
9100.00,1.61
9099.00,1.61
9098.00,1.61
9097.00,1.61
9096.00,1.61
9095.00,1.60
9094.00,1.60
9093.00,1.60
9092.00,1.60
9091.00,1.60
9090.00,1.59
9089.00,1.59
9088.00,1.59
9087.00,1.59
9086.00,1.59
9085.00,1.59
9084.00,1.59
9083.00,1.59
9082.00,1.59
9081.00,1.59
9080.00,1.59
9079.00,1.59
9078.00,1.59
9077.00,1.59
9076.00,1.59
9075.00,1.58
9074.00,1.58
9073.00,1.58
9072.00,1.58
9071.00,1.58
9070.00,1.58
9069.00,1.58
9068.00,1.58
9067.00,1.58
9066.00,1.58
9065.00,1.58
9064.00,1.58
9063.00,1.58
9062.00,1.58
9061.00,1.58
9060.00,1.58
9059.00,1.59
9058.00,1.59
9057.00,1.59
9056.00,1.60
9055.00,1.60
9054.00,1.60
9053.00,1.60
9052.00,1.61
9051.00,1.61
9050.00,1.61
9049.00,1.61
9048.00,1.61
9047.00,1.62
9046.00,1.62
9045.00,1.62
9044.00,1.61
9043.00,1.61
9042.00,1.61
9041.00,1.61
9040.00,1.61
9039.00,1.61
9038.00,1.61
9037.00,1.60
9036.00,1.60
9035.00,1.60
9034.00,1.60
9033.00,1.60
9032.00,1.60
9031.00,1.60
9030.00,1.61
9029.00,1.61
9028.00,1.61
9027.00,1.61
9026.00,1.61
9025.00,1.61
9024.00,1.62
9023.00,1.62
9022.00,1.62
9021.00,1.62
9020.00,1.62
9019.00,1.62
9018.00,1.62
9017.00,1.62
9016.00,1.61
9015.00,1.61
9014.00,1.61
9013.00,1.61
9012.00,1.60
9011.00,1.60
9010.00,1.60
9009.00,1.60
9008.00,1.59
9007.00,1.59
9006.00,1.59
9005.00,1.59
9004.00,1.59
9003.00,1.59
9002.00,1.59
9001.00,1.58
9000.00,1.58
8999.00,1.58
8998.00,1.58
8997.00,1.58
8996.00,1.58
8995.00,1.59
8994.00,1.59
8993.00,1.59
8992.00,1.59
8991.00,1.59
8990.00,1.59
8989.00,1.60
8988.00,1.60
8987.00,1.60
8986.00,1.60
8985.00,1.60
8984.00,1.60
8983.00,1.61
8982.00,1.61
8981.00,1.61
8980.00,1.61
8979.00,1.61
8978.00,1.61
8977.00,1.61
8976.00,1.61
8975.00,1.61
8974.00,1.61
8973.00,1.60
8972.00,1.60
8971.00,1.60
8970.00,1.60
8969.00,1.60
8968.00,1.60
8967.00,1.60
8966.00,1.60
8965.00,1.60
8964.00,1.60
8963.00,1.60
8962.00,1.60
8961.00,1.60
8960.00,1.60
8959.00,1.60
8958.00,1.60
8957.00,1.60
8956.00,1.60
8955.00,1.60
8954.00,1.60
8953.00,1.60
8952.00,1.60
8951.00,1.60
8950.00,1.60
8949.00,1.60
8948.00,1.60
8947.00,1.60
8946.00,1.60
8945.00,1.60
8944.00,1.60
8943.00,1.60
8942.00,1.60
8941.00,1.60
8940.00,1.60
8939.00,1.60
8938.00,1.60
8937.00,1.60
8936.00,1.60
8935.00,1.60
8934.00,1.60
8933.00,1.60
8932.00,1.60
8931.00,1.60
8930.00,1.60
8929.00,1.60
8928.00,1.60
8927.00,1.60
8926.00,1.60
8925.00,1.60
8924.00,1.60
8923.00,1.60
8922.00,1.60
8921.00,1.60
8920.00,1.60
8919.00,1.60
8918.00,1.60
8917.00,1.60
8916.00,1.60
8915.00,1.60
8914.00,1.60
8913.00,1.60
8912.00,1.60
8911.00,1.60
8910.00,1.61
8909.00,1.61
8908.00,1.61
8907.00,1.61
8906.00,1.61
8905.00,1.61
8904.00,1.62
8903.00,1.62
8902.00,1.62
8901.00,1.62
8900.00,1.62
8899.00,1.62
8898.00,1.62
8897.00,1.61
8896.00,1.61
8895.00,1.61
8894.00,1.61
8893.00,1.60
8892.00,1.60
8891.00,1.60
8890.00,1.59
8889.00,1.59
8888.00,1.59
8887.00,1.59
8886.00,1.59
8885.00,1.58
8884.00,1.58
8883.00,1.58
8882.00,1.58
8881.00,1.58
8880.00,1.58
8879.00,1.58
8878.00,1.58
8877.00,1.59
8876.00,1.59
8875.00,1.59
8874.00,1.59
8873.00,1.59
8872.00,1.59
8871.00,1.59
8870.00,1.60
8869.00,1.60
8868.00,1.60
8867.00,1.60
8866.00,1.60
8865.00,1.60
8864.00,1.60
8863.00,1.60
8862.00,1.60
8861.00,1.60
8860.00,1.60
8859.00,1.60
8858.00,1.60
8857.00,1.60
8856.00,1.60
8855.00,1.60
8854.00,1.60
8853.00,1.61
8852.00,1.61
8851.00,1.61
8850.00,1.60
8849.00,1.60
8848.00,1.60
8847.00,1.60
8846.00,1.60
8845.00,1.60
8844.00,1.60
8843.00,1.60
8842.00,1.60
8841.00,1.60
8840.00,1.60
8839.00,1.59
8838.00,1.59
8837.00,1.59
8836.00,1.59
8835.00,1.59
8834.00,1.59
8833.00,1.59
8832.00,1.58
8831.00,1.58
8830.00,1.58
8829.00,1.58
8828.00,1.58
8827.00,1.58
8826.00,1.58
8825.00,1.58
8824.00,1.58
8823.00,1.57
8822.00,1.57
8821.00,1.57
8820.00,1.57
8819.00,1.57
8818.00,1.57
8817.00,1.57
8816.00,1.57
8815.00,1.57
8814.00,1.57
8813.00,1.57
8812.00,1.57
8811.00,1.57
8810.00,1.57
8809.00,1.57
8808.00,1.57
8807.00,1.57
8806.00,1.57
8805.00,1.57
8804.00,1.57
8803.00,1.57
8802.00,1.57
8801.00,1.57
8800.00,1.57
8799.00,1.56
8798.00,1.56
8797.00,1.56
8796.00,1.56
8795.00,1.56
8794.00,1.56
8793.00,1.56
8792.00,1.56
8791.00,1.56
8790.00,1.56
8789.00,1.56
8788.00,1.56
8787.00,1.56
8786.00,1.56
8785.00,1.56
8784.00,1.56
8783.00,1.56
8782.00,1.56
8781.00,1.56
8780.00,1.56
8779.00,1.56
8778.00,1.56
8777.00,1.56
8776.00,1.56
8775.00,1.56
8774.00,1.56
8773.00,1.56
8772.00,1.56
8771.00,1.56
8770.00,1.56
8769.00,1.56
8768.00,1.56
8767.00,1.56
8766.00,1.56
8765.00,1.55
8764.00,1.55
8763.00,1.55
8762.00,1.55
8761.00,1.55
8760.00,1.55
8759.00,1.55
8758.00,1.55
8757.00,1.55
8756.00,1.54
8755.00,1.54
8754.00,1.54
8753.00,1.54
8752.00,1.54
8751.00,1.54
8750.00,1.54
8749.00,1.54
8748.00,1.54
8747.00,1.54
8746.00,1.54
8745.00,1.54
8744.00,1.54
8743.00,1.54
8742.00,1.53
8741.00,1.53
8740.00,1.53
8739.00,1.53
8738.00,1.53
8737.00,1.53
8736.00,1.53
8735.00,1.52
8734.00,1.52
8733.00,1.52
8732.00,1.52
8731.00,1.52
8730.00,1.52
8729.00,1.52
8728.00,1.52
8727.00,1.52
8726.00,1.52
8725.00,1.52
8724.00,1.52
8723.00,1.52
8722.00,1.52
8721.00,1.52
8720.00,1.52
8719.00,1.52
8718.00,1.52
8717.00,1.52
8716.00,1.52
8715.00,1.52
8714.00,1.52
8713.00,1.52
8712.00,1.52
8711.00,1.52
8710.00,1.52
8709.00,1.52
8708.00,1.52
8707.00,1.53
8706.00,1.53
8705.00,1.53
8704.00,1.53
8703.00,1.53
8702.00,1.53
8701.00,1.53
8700.00,1.53
8699.00,1.53
8698.00,1.53
8697.00,1.53
8696.00,1.53
8695.00,1.53
8694.00,1.53
8693.00,1.53
8692.00,1.53
8691.00,1.53
8690.00,1.53
8689.00,1.53
8688.00,1.53
8687.00,1.53
8686.00,1.53
8685.00,1.53
8684.00,1.53
8683.00,1.53
8682.00,1.53
8681.00,1.53
8680.00,1.53
8679.00,1.53
8678.00,1.52
8677.00,1.52
8676.00,1.52
8675.00,1.52
8674.00,1.52
8673.00,1.52
8672.00,1.52
8671.00,1.51
8670.00,1.51
8669.00,1.51
8668.00,1.51
8667.00,1.51
8666.00,1.51
8665.00,1.51
8664.00,1.51
8663.00,1.51
8662.00,1.51
8661.00,1.51
8660.00,1.51
8659.00,1.51
8658.00,1.51
8657.00,1.51
8656.00,1.51
8655.00,1.51
8654.00,1.51
8653.00,1.51
8652.00,1.51
8651.00,1.51
8650.00,1.51
8649.00,1.52
8648.00,1.52
8647.00,1.52
8646.00,1.52
8645.00,1.52
8644.00,1.52
8643.00,1.52
8642.00,1.52
8641.00,1.52
8640.00,1.52
8639.00,1.52
8638.00,1.52
8637.00,1.52
8636.00,1.52
8635.00,1.52
8634.00,1.52
8633.00,1.52
8632.00,1.52
8631.00,1.52
8630.00,1.52
8629.00,1.52
8628.00,1.52
8627.00,1.52
8626.00,1.52
8625.00,1.52
8624.00,1.52
8623.00,1.52
8622.00,1.51
8621.00,1.51
8620.00,1.51
8619.00,1.51
8618.00,1.51
8617.00,1.51
8616.00,1.51
8615.00,1.51
8614.00,1.51
8613.00,1.50
8612.00,1.50
8611.00,1.50
8610.00,1.50
8609.00,1.50
8608.00,1.49
8607.00,1.49
8606.00,1.49
8605.00,1.49
8604.00,1.48
8603.00,1.48
8602.00,1.48
8601.00,1.48
8600.00,1.48
8599.00,1.48
8598.00,1.48
8597.00,1.47
8596.00,1.47
8595.00,1.47
8594.00,1.47
8593.00,1.47
8592.00,1.47
8591.00,1.47
8590.00,1.47
8589.00,1.47
8588.00,1.47
8587.00,1.47
8586.00,1.47
8585.00,1.47
8584.00,1.47
8583.00,1.47
8582.00,1.47
8581.00,1.47
8580.00,1.47
8579.00,1.47
8578.00,1.47
8577.00,1.47
8576.00,1.47
8575.00,1.47
8574.00,1.47
8573.00,1.47
8572.00,1.47
8571.00,1.47
8570.00,1.47
8569.00,1.47
8568.00,1.47
8567.00,1.47
8566.00,1.47
8565.00,1.47
8564.00,1.47
8563.00,1.47
8562.00,1.47
8561.00,1.47
8560.00,1.46
8559.00,1.46
8558.00,1.46
8557.00,1.46
8556.00,1.46
8555.00,1.46
8554.00,1.46
8553.00,1.46
8552.00,1.46
8551.00,1.46
8550.00,1.46
8549.00,1.46
8548.00,1.46
8547.00,1.46
8546.00,1.46
8545.00,1.46
8544.00,1.45
8543.00,1.45
8542.00,1.45
8541.00,1.45
8540.00,1.45
8539.00,1.45
8538.00,1.45
8537.00,1.45
8536.00,1.45
8535.00,1.44
8534.00,1.44
8533.00,1.44
8532.00,1.44
8531.00,1.44
8530.00,1.44
8529.00,1.43
8528.00,1.43
8527.00,1.43
8526.00,1.43
8525.00,1.43
8524.00,1.43
8523.00,1.43
8522.00,1.43
8521.00,1.43
8520.00,1.43
8519.00,1.43
8518.00,1.43
8517.00,1.43
8516.00,1.43
8515.00,1.43
8514.00,1.43
8513.00,1.43
8512.00,1.43
8511.00,1.43
8510.00,1.43
8509.00,1.43
8508.00,1.43
8507.00,1.43
8506.00,1.43
8505.00,1.43
8504.00,1.43
8503.00,1.43
8502.00,1.43
8501.00,1.43
8500.00,1.43
8499.00,1.43
8498.00,1.43
8497.00,1.43
8496.00,1.43
8495.00,1.43
8494.00,1.43
8493.00,1.43
8492.00,1.43
8491.00,1.43
8490.00,1.43
8489.00,1.43
8488.00,1.43
8487.00,1.43
8486.00,1.43
8485.00,1.43
8484.00,1.43
8483.00,1.42
8482.00,1.42
8481.00,1.42
8480.00,1.42
8479.00,1.42
8478.00,1.41
8477.00,1.41
8476.00,1.41
8475.00,1.41
8474.00,1.40
8473.00,1.40
8472.00,1.40
8471.00,1.40
8470.00,1.40
8469.00,1.39
8468.00,1.39
8467.00,1.39
8466.00,1.39
8465.00,1.39
8464.00,1.39
8463.00,1.39
8462.00,1.39
8461.00,1.39
8460.00,1.39
8459.00,1.39
8458.00,1.39
8457.00,1.39
8456.00,1.39
8455.00,1.39
8454.00,1.39
8453.00,1.39
8452.00,1.39
8451.00,1.39
8450.00,1.39
8449.00,1.39
8448.00,1.39
8447.00,1.38
8446.00,1.38
8445.00,1.38
8444.00,1.38
8443.00,1.38
8442.00,1.38
8441.00,1.38
8440.00,1.38
8439.00,1.38
8438.00,1.38
8437.00,1.38
8436.00,1.38
8435.00,1.38
8434.00,1.38
8433.00,1.38
8432.00,1.38
8431.00,1.38
8430.00,1.38
8429.00,1.38
8428.00,1.38
8427.00,1.38
8426.00,1.38
8425.00,1.39
8424.00,1.39
8423.00,1.39
8422.00,1.39
8421.00,1.39
8420.00,1.39
8419.00,1.40
8418.00,1.40
8417.00,1.40
8416.00,1.40
8415.00,1.40
8414.00,1.40
8413.00,1.41
8412.00,1.41
8411.00,1.41
8410.00,1.41
8409.00,1.41
8408.00,1.41
8407.00,1.41
8406.00,1.41
8405.00,1.41
8404.00,1.41
8403.00,1.41
8402.00,1.41
8401.00,1.41
8400.00,1.41
8399.00,1.41
8398.00,1.41
8397.00,1.41
8396.00,1.41
8395.00,1.41
8394.00,1.41
8393.00,1.41
8392.00,1.41
8391.00,1.41
8390.00,1.41
8389.00,1.41
8388.00,1.41
8387.00,1.41
8386.00,1.41
8385.00,1.41
8384.00,1.41
8383.00,1.41
8382.00,1.41
8381.00,1.41
8380.00,1.41
8379.00,1.42
8378.00,1.42
8377.00,1.42
8376.00,1.42
8375.00,1.42
8374.00,1.42
8373.00,1.42
8372.00,1.42
8371.00,1.42
8370.00,1.42
8369.00,1.42
8368.00,1.42
8367.00,1.42
8366.00,1.42
8365.00,1.42
8364.00,1.42
8363.00,1.42
8362.00,1.42
8361.00,1.42
8360.00,1.42
8359.00,1.42
8358.00,1.42
8357.00,1.42
8356.00,1.42
8355.00,1.42
8354.00,1.42
8353.00,1.42
8352.00,1.42
8351.00,1.42
8350.00,1.42
8349.00,1.42
8348.00,1.42
8347.00,1.42
8346.00,1.42
8345.00,1.42
8344.00,1.43
8343.00,1.43
8342.00,1.43
8341.00,1.43
8340.00,1.43
8339.00,1.43
8338.00,1.43
8337.00,1.43
8336.00,1.44
8335.00,1.44
8334.00,1.44
8333.00,1.44
8332.00,1.44
8331.00,1.45
8330.00,1.45
8329.00,1.45
8328.00,1.45
8327.00,1.45
8326.00,1.45
8325.00,1.45
8324.00,1.45
8323.00,1.45
8322.00,1.45
8321.00,1.45
8320.00,1.45
8319.00,1.45
8318.00,1.45
8317.00,1.45
8316.00,1.45
8315.00,1.45
8314.00,1.45
8313.00,1.45
8312.00,1.45
8311.00,1.45
8310.00,1.45
8309.00,1.45
8308.00,1.45
8307.00,1.45
8306.00,1.45
8305.00,1.45
8304.00,1.45
8303.00,1.45
8302.00,1.45
8301.00,1.45
8300.00,1.45
8299.00,1.45
8298.00,1.45
8297.00,1.45
8296.00,1.45
8295.00,1.45
8294.00,1.45
8293.00,1.45
8292.00,1.45
8291.00,1.45
8290.00,1.45
8289.00,1.45
8288.00,1.46
8287.00,1.46
8286.00,1.46
8285.00,1.46
8284.00,1.46
8283.00,1.46
8282.00,1.46
8281.00,1.46
8280.00,1.46
8279.00,1.46
8278.00,1.46
8277.00,1.46
8276.00,1.46
8275.00,1.46
8274.00,1.46
8273.00,1.46
8272.00,1.46
8271.00,1.46
8270.00,1.46
8269.00,1.46
8268.00,1.46
8267.00,1.46
8266.00,1.46
8265.00,1.46
8264.00,1.46
8263.00,1.46
8262.00,1.46
8261.00,1.46
8260.00,1.46
8259.00,1.46
8258.00,1.46
8257.00,1.46
8256.00,1.46
8255.00,1.46
8254.00,1.46
8253.00,1.46
8252.00,1.46
8251.00,1.46
8250.00,1.46
8249.00,1.46
8248.00,1.46
8247.00,1.46
8246.00,1.46
8245.00,1.46
8244.00,1.46
8243.00,1.46
8242.00,1.46
8241.00,1.46
8240.00,1.46
8239.00,1.46
8238.00,1.46
8237.00,1.46
8236.00,1.46
8235.00,1.46
8234.00,1.46
8233.00,1.46
8232.00,1.46
8231.00,1.46
8230.00,1.46
8229.00,1.46
8228.00,1.46
8227.00,1.46
8226.00,1.46
8225.00,1.46
8224.00,1.47
8223.00,1.47
8222.00,1.47
8221.00,1.47
8220.00,1.47
8219.00,1.47
8218.00,1.47
8217.00,1.47
8216.00,1.47
8215.00,1.47
8214.00,1.47
8213.00,1.47
8212.00,1.47
8211.00,1.47
8210.00,1.47
8209.00,1.47
8208.00,1.48
8207.00,1.48
8206.00,1.48
8205.00,1.48
8204.00,1.48
8203.00,1.49
8202.00,1.49
8201.00,1.49
8200.00,1.49
8199.00,1.49
8198.00,1.50
8197.00,1.50
8196.00,1.50
8195.00,1.50
8194.00,1.50
8193.00,1.50
8192.00,1.50
8191.00,1.50
8190.00,1.50
8189.00,1.50
8188.00,1.50
8187.00,1.50
8186.00,1.50
8185.00,1.50
8184.00,1.50
8183.00,1.50
8182.00,1.50
8181.00,1.50
8180.00,1.49
8179.00,1.49
8178.00,1.49
8177.00,1.49
8176.00,1.49
8175.00,1.49
8174.00,1.49
8173.00,1.49
8172.00,1.49
8171.00,1.49
8170.00,1.50
8169.00,1.50
8168.00,1.50
8167.00,1.50
8166.00,1.50
8165.00,1.50
8164.00,1.50
8163.00,1.50
8162.00,1.50
8161.00,1.51
8160.00,1.51
8159.00,1.51
8158.00,1.51
8157.00,1.51
8156.00,1.51
8155.00,1.51
8154.00,1.50
8153.00,1.50
8152.00,1.50
8151.00,1.50
8150.00,1.50
8149.00,1.50
8148.00,1.50
8147.00,1.50
8146.00,1.50
8145.00,1.50
8144.00,1.50
8143.00,1.50
8142.00,1.51
8141.00,1.51
8140.00,1.51
8139.00,1.51
8138.00,1.51
8137.00,1.51
8136.00,1.51
8135.00,1.51
8134.00,1.51
8133.00,1.51
8132.00,1.51
8131.00,1.51
8130.00,1.51
8129.00,1.52
8128.00,1.52
8127.00,1.52
8126.00,1.52
8125.00,1.52
8124.00,1.52
8123.00,1.52
8122.00,1.53
8121.00,1.53
8120.00,1.53
8119.00,1.53
8118.00,1.53
8117.00,1.53
8116.00,1.53
8115.00,1.53
8114.00,1.53
8113.00,1.53
8112.00,1.53
8111.00,1.53
8110.00,1.53
8109.00,1.53
8108.00,1.53
8107.00,1.54
8106.00,1.54
8105.00,1.54
8104.00,1.54
8103.00,1.54
8102.00,1.54
8101.00,1.54
8100.00,1.54
8099.00,1.54
8098.00,1.54
8097.00,1.54
8096.00,1.54
8095.00,1.54
8094.00,1.54
8093.00,1.55
8092.00,1.55
8091.00,1.55
8090.00,1.55
8089.00,1.55
8088.00,1.55
8087.00,1.55
8086.00,1.55
8085.00,1.55
8084.00,1.55
8083.00,1.55
8082.00,1.55
8081.00,1.55
8080.00,1.55
8079.00,1.55
8078.00,1.55
8077.00,1.55
8076.00,1.55
8075.00,1.55
8074.00,1.55
8073.00,1.55
8072.00,1.55
8071.00,1.55
8070.00,1.55
8069.00,1.55
8068.00,1.55
8067.00,1.55
8066.00,1.55
8065.00,1.55
8064.00,1.55
8063.00,1.55
8062.00,1.55
8061.00,1.55
8060.00,1.55
8059.00,1.55
8058.00,1.55
8057.00,1.55
8056.00,1.55
8055.00,1.55
8054.00,1.55
8053.00,1.55
8052.00,1.56
8051.00,1.56
8050.00,1.56
8049.00,1.56
8048.00,1.56
8047.00,1.56
8046.00,1.56
8045.00,1.56
8044.00,1.56
8043.00,1.56
8042.00,1.56
8041.00,1.56
8040.00,1.56
8039.00,1.56
8038.00,1.56
8037.00,1.56
8036.00,1.56
8035.00,1.56
8034.00,1.56
8033.00,1.56
8032.00,1.56
8031.00,1.56
8030.00,1.56
8029.00,1.56
8028.00,1.56
8027.00,1.56
8026.00,1.56
8025.00,1.56
8024.00,1.56
8023.00,1.56
8022.00,1.56
8021.00,1.56
8020.00,1.56
8019.00,1.56
8018.00,1.56
8017.00,1.56
8016.00,1.56
8015.00,1.56
8014.00,1.56
8013.00,1.56
8012.00,1.56
8011.00,1.56
8010.00,1.56
8009.00,1.56
8008.00,1.56
8007.00,1.56
8006.00,1.56
8005.00,1.56
8004.00,1.56
8003.00,1.56
8002.00,1.56
8001.00,1.56
8000.00,1.56
7999.00,1.56
7998.00,1.56
7997.00,1.57
7996.00,1.57
7995.00,1.57
7994.00,1.57
7993.00,1.57
7992.00,1.57
7991.00,1.57
7990.00,1.58
7989.00,1.58
7988.00,1.58
7987.00,1.58
7986.00,1.58
7985.00,1.58
7984.00,1.58
7983.00,1.58
7982.00,1.58
7981.00,1.58
7980.00,1.58
7979.00,1.58
7978.00,1.58
7977.00,1.58
7976.00,1.57
7975.00,1.57
7974.00,1.57
7973.00,1.57
7972.00,1.57
7971.00,1.57
7970.00,1.57
7969.00,1.57
7968.00,1.57
7967.00,1.57
7966.00,1.57
7965.00,1.57
7964.00,1.57
7963.00,1.57
7962.00,1.57
7961.00,1.57
7960.00,1.57
7959.00,1.57
7958.00,1.57
7957.00,1.57
7956.00,1.57
7955.00,1.57
7954.00,1.57
7953.00,1.57
7952.00,1.57
7951.00,1.57
7950.00,1.57
7949.00,1.57
7948.00,1.57
7947.00,1.57
7946.00,1.57
7945.00,1.57
7944.00,1.58
7943.00,1.58
7942.00,1.58
7941.00,1.58
7940.00,1.58
7939.00,1.58
7938.00,1.58
7937.00,1.58
7936.00,1.58
7935.00,1.58
7934.00,1.58
7933.00,1.58
7932.00,1.58
7931.00,1.58
7930.00,1.58
7929.00,1.58
7928.00,1.59
7927.00,1.59
7926.00,1.59
7925.00,1.59
7924.00,1.59
7923.00,1.59
7922.00,1.59
7921.00,1.59
7920.00,1.59
7919.00,1.59
7918.00,1.59
7917.00,1.59
7916.00,1.59
7915.00,1.59
7914.00,1.59
7913.00,1.59
7912.00,1.59
7911.00,1.59
7910.00,1.59
7909.00,1.59
7908.00,1.59
7907.00,1.59
7906.00,1.59
7905.00,1.59
7904.00,1.59
7903.00,1.59
7902.00,1.59
7901.00,1.59
7900.00,1.58
7899.00,1.58
7898.00,1.58
7897.00,1.58
7896.00,1.58
7895.00,1.58
7894.00,1.58
7893.00,1.58
7892.00,1.58
7891.00,1.58
7890.00,1.58
7889.00,1.58
7888.00,1.58
7887.00,1.58
7886.00,1.59
7885.00,1.59
7884.00,1.59
7883.00,1.59
7882.00,1.59
7881.00,1.59
7880.00,1.59
7879.00,1.59
7878.00,1.59
7877.00,1.59
7876.00,1.60
7875.00,1.60
7874.00,1.60
7873.00,1.60
7872.00,1.60
7871.00,1.60
7870.00,1.60
7869.00,1.60
7868.00,1.60
7867.00,1.60
7866.00,1.60
7865.00,1.61
7864.00,1.61
7863.00,1.61
7862.00,1.61
7861.00,1.61
7860.00,1.61
7859.00,1.61
7858.00,1.61
7857.00,1.61
7856.00,1.61
7855.00,1.61
7854.00,1.61
7853.00,1.61
7852.00,1.61
7851.00,1.61
7850.00,1.61
7849.00,1.61
7848.00,1.61
7847.00,1.61
7846.00,1.61
7845.00,1.61
7844.00,1.60
7843.00,1.60
7842.00,1.60
7841.00,1.60
7840.00,1.60
7839.00,1.60
7838.00,1.60
7837.00,1.60
7836.00,1.60
7835.00,1.60
7834.00,1.60
7833.00,1.60
7832.00,1.60
7831.00,1.60
7830.00,1.60
7829.00,1.60
7828.00,1.60
7827.00,1.60
7826.00,1.60
7825.00,1.60
7824.00,1.60
7823.00,1.60
7822.00,1.60
7821.00,1.60
7820.00,1.60
7819.00,1.60
7818.00,1.60
7817.00,1.60
7816.00,1.61
7815.00,1.61
7814.00,1.61
7813.00,1.61
7812.00,1.61
7811.00,1.61
7810.00,1.61
7809.00,1.61
7808.00,1.61
7807.00,1.62
7806.00,1.62
7805.00,1.62
7804.00,1.62
7803.00,1.62
7802.00,1.62
7801.00,1.62
7800.00,1.62
7799.00,1.62
7798.00,1.62
7797.00,1.62
7796.00,1.61
7795.00,1.61
7794.00,1.61
7793.00,1.61
7792.00,1.61
7791.00,1.61
7790.00,1.61
7789.00,1.61
7788.00,1.60
7787.00,1.60
7786.00,1.60
7785.00,1.60
7784.00,1.60
7783.00,1.60
7782.00,1.60
7781.00,1.60
7780.00,1.60
7779.00,1.60
7778.00,1.60
7777.00,1.60
7776.00,1.60
7775.00,1.60
7774.00,1.60
7773.00,1.60
7772.00,1.60
7771.00,1.60
7770.00,1.60
7769.00,1.60
7768.00,1.60
7767.00,1.60
7766.00,1.60
7765.00,1.60
7764.00,1.60
7763.00,1.60
7762.00,1.60
7761.00,1.60
7760.00,1.60
7759.00,1.60
7758.00,1.60
7757.00,1.60
7756.00,1.61
7755.00,1.61
7754.00,1.61
7753.00,1.61
7752.00,1.61
7751.00,1.61
7750.00,1.61
7749.00,1.61
7748.00,1.61
7747.00,1.61
7746.00,1.61
7745.00,1.61
7744.00,1.61
7743.00,1.61
7742.00,1.61
7741.00,1.61
7740.00,1.61
7739.00,1.61
7738.00,1.61
7737.00,1.61
7736.00,1.61
7735.00,1.61
7734.00,1.62
7733.00,1.62
7732.00,1.62
7731.00,1.62
7730.00,1.62
7729.00,1.61
7728.00,1.61
7727.00,1.61
7726.00,1.61
7725.00,1.61
7724.00,1.61
7723.00,1.61
7722.00,1.61
7721.00,1.61
7720.00,1.61
7719.00,1.61
7718.00,1.61
7717.00,1.61
7716.00,1.61
7715.00,1.61
7714.00,1.61
7713.00,1.61
7712.00,1.61
7711.00,1.61
7710.00,1.60
7709.00,1.60
7708.00,1.60
7707.00,1.60
7706.00,1.60
7705.00,1.60
7704.00,1.60
7703.00,1.60
7702.00,1.60
7701.00,1.60
7700.00,1.60
7699.00,1.60
7698.00,1.60
7697.00,1.60
7696.00,1.61
7695.00,1.61
7694.00,1.61
7693.00,1.61
7692.00,1.61
7691.00,1.61
7690.00,1.61
7689.00,1.61
7688.00,1.61
7687.00,1.61
7686.00,1.62
7685.00,1.62
7684.00,1.62
7683.00,1.62
7682.00,1.62
7681.00,1.62
7680.00,1.62
7679.00,1.62
7678.00,1.62
7677.00,1.62
7676.00,1.62
7675.00,1.62
7674.00,1.62
7673.00,1.62
7672.00,1.62
7671.00,1.62
7670.00,1.62
7669.00,1.62
7668.00,1.62
7667.00,1.62
7666.00,1.62
7665.00,1.62
7664.00,1.62
7663.00,1.62
7662.00,1.62
7661.00,1.62
7660.00,1.62
7659.00,1.62
7658.00,1.62
7657.00,1.62
7656.00,1.62
7655.00,1.61
7654.00,1.61
7653.00,1.61
7652.00,1.61
7651.00,1.61
7650.00,1.61
7649.00,1.61
7648.00,1.61
7647.00,1.61
7646.00,1.61
7645.00,1.61
7644.00,1.61
7643.00,1.61
7642.00,1.61
7641.00,1.61
7640.00,1.61
7639.00,1.61
7638.00,1.61
7637.00,1.62
7636.00,1.62
7635.00,1.62
7634.00,1.62
7633.00,1.62
7632.00,1.62
7631.00,1.62
7630.00,1.62
7629.00,1.62
7628.00,1.62
7627.00,1.62
7626.00,1.62
7625.00,1.62
7624.00,1.62
7623.00,1.62
7622.00,1.62
7621.00,1.62
7620.00,1.62
7619.00,1.62
7618.00,1.62
7617.00,1.62
7616.00,1.62
7615.00,1.62
7614.00,1.62
7613.00,1.62
7612.00,1.62
7611.00,1.62
7610.00,1.61
7609.00,1.61
7608.00,1.61
7607.00,1.61
7606.00,1.61
7605.00,1.61
7604.00,1.61
7603.00,1.61
7602.00,1.61
7601.00,1.61
7600.00,1.61
7599.00,1.61
7598.00,1.61
7597.00,1.61
7596.00,1.61
7595.00,1.61
7594.00,1.61
7593.00,1.61
7592.00,1.61
7591.00,1.61
7590.00,1.61
7589.00,1.61
7588.00,1.61
7587.00,1.61
7586.00,1.61
7585.00,1.61
7584.00,1.61
7583.00,1.61
7582.00,1.61
7581.00,1.61
7580.00,1.61
7579.00,1.61
7578.00,1.61
7577.00,1.61
7576.00,1.62
7575.00,1.62
7574.00,1.62
7573.00,1.62
7572.00,1.62
7571.00,1.62
7570.00,1.62
7569.00,1.62
7568.00,1.62
7567.00,1.62
7566.00,1.62
7565.00,1.62
7564.00,1.62
7563.00,1.62
7562.00,1.62
7561.00,1.62
7560.00,1.62
7559.00,1.62
7558.00,1.62
7557.00,1.62
7556.00,1.62
7555.00,1.62
7554.00,1.62
7553.00,1.62
7552.00,1.62
7551.00,1.62
7550.00,1.62
7549.00,1.62
7548.00,1.62
7547.00,1.62
7546.00,1.62
7545.00,1.62
7544.00,1.62
7543.00,1.62
7542.00,1.62
7541.00,1.62
7540.00,1.61
7539.00,1.61
7538.00,1.61
7537.00,1.61
7536.00,1.61
7535.00,1.61
7534.00,1.61
7533.00,1.61
7532.00,1.61
7531.00,1.61
7530.00,1.61
7529.00,1.61
7528.00,1.61
7527.00,1.61
7526.00,1.61
7525.00,1.61
7524.00,1.61
7523.00,1.61
7522.00,1.61
7521.00,1.61
7520.00,1.61
7519.00,1.61
7518.00,1.60
7517.00,1.60
7516.00,1.60
7515.00,1.60
7514.00,1.60
7513.00,1.60
7512.00,1.60
7511.00,1.60
7510.00,1.60
7509.00,1.60
7508.00,1.60
7507.00,1.60
7506.00,1.60
7505.00,1.60
7504.00,1.60
7503.00,1.59
7502.00,1.59
7501.00,1.59
7500.00,1.59
7499.00,1.59
7498.00,1.59
7497.00,1.59
7496.00,1.59
7495.00,1.59
7494.00,1.59
7493.00,1.59
7492.00,1.59
7491.00,1.59
7490.00,1.59
7489.00,1.59
7488.00,1.59
7487.00,1.59
7486.00,1.59
7485.00,1.59
7484.00,1.59
7483.00,1.59
7482.00,1.59
7481.00,1.59
7480.00,1.59
7479.00,1.59
7478.00,1.59
7477.00,1.58
7476.00,1.58
7475.00,1.58
7474.00,1.58
7473.00,1.58
7472.00,1.58
7471.00,1.58
7470.00,1.58
7469.00,1.58
7468.00,1.58
7467.00,1.58
7466.00,1.58
7465.00,1.58
7464.00,1.57
7463.00,1.57
7462.00,1.57
7461.00,1.57
7460.00,1.57
7459.00,1.57
7458.00,1.57
7457.00,1.57
7456.00,1.57
7455.00,1.56
7454.00,1.56
7453.00,1.56
7452.00,1.56
7451.00,1.56
7450.00,1.56
7449.00,1.56
7448.00,1.56
7447.00,1.56
7446.00,1.56
7445.00,1.56
7444.00,1.55
7443.00,1.55
7442.00,1.55
7441.00,1.55
7440.00,1.55
7439.00,1.55
7438.00,1.55
7437.00,1.55
7436.00,1.55
7435.00,1.55
7434.00,1.55
7433.00,1.55
7432.00,1.55
7431.00,1.55
7430.00,1.55
7429.00,1.55
7428.00,1.55
7427.00,1.54
7426.00,1.54
7425.00,1.54
7424.00,1.54
7423.00,1.54
7422.00,1.54
7421.00,1.53
7420.00,1.53
7419.00,1.53
7418.00,1.53
7417.00,1.53
7416.00,1.53
7415.00,1.52
7414.00,1.52
7413.00,1.52
7412.00,1.52
7411.00,1.52
7410.00,1.52
7409.00,1.51
7408.00,1.51
7407.00,1.51
7406.00,1.51
7405.00,1.51
7404.00,1.51
7403.00,1.51
7402.00,1.51
7401.00,1.51
7400.00,1.51
7399.00,1.51
7398.00,1.51
7397.00,1.51
7396.00,1.50
7395.00,1.50
7394.00,1.50
7393.00,1.50
7392.00,1.50
7391.00,1.50
7390.00,1.50
7389.00,1.50
7388.00,1.50
7387.00,1.50
7386.00,1.50
7385.00,1.50
7384.00,1.49
7383.00,1.49
7382.00,1.49
7381.00,1.49
7380.00,1.49
7379.00,1.49
7378.00,1.48
7377.00,1.48
7376.00,1.48
7375.00,1.48
7374.00,1.48
7373.00,1.48
7372.00,1.48
7371.00,1.48
7370.00,1.47
7369.00,1.47
7368.00,1.47
7367.00,1.47
7366.00,1.47
7365.00,1.47
7364.00,1.47
7363.00,1.47
7362.00,1.47
7361.00,1.47
7360.00,1.47
7359.00,1.47
7358.00,1.47
7357.00,1.47
7356.00,1.47
7355.00,1.47
7354.00,1.47
7353.00,1.47
7352.00,1.47
7351.00,1.46
7350.00,1.46
7349.00,1.46
7348.00,1.46
7347.00,1.46
7346.00,1.46
7345.00,1.46
7344.00,1.46
7343.00,1.46
7342.00,1.46
7341.00,1.46
7340.00,1.46
7339.00,1.46
7338.00,1.46
7337.00,1.46
7336.00,1.47
7335.00,1.47
7334.00,1.47
7333.00,1.47
7332.00,1.47
7331.00,1.47
7330.00,1.47
7329.00,1.47
7328.00,1.47
7327.00,1.47
7326.00,1.47
7325.00,1.47
7324.00,1.47
7323.00,1.47
7322.00,1.46
7321.00,1.46
7320.00,1.46
7319.00,1.46
7318.00,1.46
7317.00,1.46
7316.00,1.46
7315.00,1.45
7314.00,1.45
7313.00,1.45
7312.00,1.45
7311.00,1.45
7310.00,1.45
7309.00,1.45
7308.00,1.44
7307.00,1.44
7306.00,1.44
7305.00,1.44
7304.00,1.44
7303.00,1.44
7302.00,1.44
7301.00,1.44
7300.00,1.44
7299.00,1.43
7298.00,1.43
7297.00,1.43
7296.00,1.43
7295.00,1.43
7294.00,1.43
7293.00,1.43
7292.00,1.43
7291.00,1.43
7290.00,1.43
7289.00,1.42
7288.00,1.42
7287.00,1.42
7286.00,1.42
7285.00,1.42
7284.00,1.42
7283.00,1.41
7282.00,1.41
7281.00,1.41
7280.00,1.41
7279.00,1.41
7278.00,1.40
7277.00,1.40
7276.00,1.40
7275.00,1.40
7274.00,1.40
7273.00,1.39
7272.00,1.39
7271.00,1.39
7270.00,1.39
7269.00,1.39
7268.00,1.38
7267.00,1.38
7266.00,1.38
7265.00,1.38
7264.00,1.38
7263.00,1.37
7262.00,1.37
7261.00,1.37
7260.00,1.37
7259.00,1.37
7258.00,1.37
7257.00,1.36
7256.00,1.36
7255.00,1.36
7254.00,1.36
7253.00,1.36
7252.00,1.36
7251.00,1.36
7250.00,1.35
7249.00,1.35
7248.00,1.35
7247.00,1.35
7246.00,1.35
7245.00,1.34
7244.00,1.34
7243.00,1.34
7242.00,1.33
7241.00,1.33
7240.00,1.33
7239.00,1.32
7238.00,1.32
7237.00,1.32
7236.00,1.31
7235.00,1.31
7234.00,1.30
7233.00,1.30
7232.00,1.30
7231.00,1.29
7230.00,1.29
7229.00,1.28
7228.00,1.28
7227.00,1.27
7226.00,1.27
7225.00,1.27
7224.00,1.26
7223.00,1.26
7222.00,1.25
7221.00,1.25
7220.00,1.25
7219.00,1.24
7218.00,1.24
7217.00,1.23
7216.00,1.23
7215.00,1.23
7214.00,1.22
7213.00,1.22
7212.00,1.21
7211.00,1.21
7210.00,1.20
7209.00,1.20
7208.00,1.20
7207.00,1.19
7206.00,1.19
7205.00,1.18
7204.00,1.18
7203.00,1.17
7202.00,1.17
7201.00,1.16
7200.00,1.16
7199.00,1.16
7198.00,1.15
7197.00,1.15
7196.00,1.14
7195.00,1.14
7194.00,1.14
7193.00,1.13
7192.00,1.13
7191.00,1.13
7190.00,1.12
7189.00,1.12
7188.00,1.11
7187.00,1.11
7186.00,1.11
7185.00,1.10
7184.00,1.10
7183.00,1.10
7182.00,1.09
7181.00,1.09
7180.00,1.09
7179.00,1.08
7178.00,1.08
7177.00,1.08
7176.00,1.07
7175.00,1.07
7174.00,1.07
7173.00,1.06
7172.00,1.06
7171.00,1.06
7170.00,1.06
7169.00,1.05
7168.00,1.05
7167.00,1.05
7166.00,1.04
7165.00,1.04
7164.00,1.04
7163.00,1.03
7162.00,1.03
7161.00,1.02
7160.00,1.02
7159.00,1.02
7158.00,1.01
7157.00,1.01
7156.00,1.01
7155.00,1.00
7154.00,1.00
7153.00,0.99
7152.00,0.99
7151.00,0.99
7150.00,0.98
7149.00,0.98
7148.00,0.98
7147.00,0.97
7146.00,0.97
7145.00,0.97
7144.00,0.96
7143.00,0.96
7142.00,0.96
7141.00,0.96
7140.00,0.95
7139.00,0.95
7138.00,0.95
7137.00,0.94
7136.00,0.94
7135.00,0.94
7134.00,0.93
7133.00,0.93
7132.00,0.93
7131.00,0.92
7130.00,0.92
7129.00,0.92
7128.00,0.91
7127.00,0.91
7126.00,0.91
7125.00,0.91
7124.00,0.90
7123.00,0.90
7122.00,0.90
7121.00,0.89
7120.00,0.89
7119.00,0.89
7118.00,0.88
7117.00,0.88
7116.00,0.88
7115.00,0.88
7114.00,0.87
7113.00,0.87
7112.00,0.87
7111.00,0.86
7110.00,0.86
7109.00,0.86
7108.00,0.86
7107.00,0.85
7106.00,0.85
7105.00,0.85
7104.00,0.84
7103.00,0.84
7102.00,0.83
7101.00,0.83
7100.00,0.83
7099.00,0.82
7098.00,0.82
7097.00,0.82
7096.00,0.81
7095.00,0.81
7094.00,0.81
7093.00,0.81
7092.00,0.80
7091.00,0.80
7090.00,0.80
7089.00,0.80
7088.00,0.80
7087.00,0.79
7086.00,0.79
7085.00,0.79
7084.00,0.79
7083.00,0.79
7082.00,0.79
7081.00,0.78
7080.00,0.78
7079.00,0.78
7078.00,0.78
7077.00,0.78
7076.00,0.78
7075.00,0.78
7074.00,0.77
7073.00,0.77
7072.00,0.77
7071.00,0.77
7070.00,0.77
7069.00,0.77
7068.00,0.76
7067.00,0.76
7066.00,0.76
7065.00,0.76
7064.00,0.76
7063.00,0.76
7062.00,0.75
7061.00,0.75
7060.00,0.75
7059.00,0.75
7058.00,0.75
7057.00,0.74
7056.00,0.74
7055.00,0.74
7054.00,0.74
7053.00,0.74
7052.00,0.73
7051.00,0.73
7050.00,0.73
7049.00,0.73
7048.00,0.73
7047.00,0.73
7046.00,0.73
7045.00,0.72
7044.00,0.72
7043.00,0.72
7042.00,0.72
7041.00,0.72
7040.00,0.72
7039.00,0.72
7038.00,0.72
7037.00,0.72
7036.00,0.71
7035.00,0.71
7034.00,0.71
7033.00,0.71
7032.00,0.71
7031.00,0.71
7030.00,0.71
7029.00,0.70
7028.00,0.70
7027.00,0.70
7026.00,0.70
7025.00,0.70
7024.00,0.70
7023.00,0.70
7022.00,0.69
7021.00,0.69
7020.00,0.69
7019.00,0.69
7018.00,0.69
7017.00,0.69
7016.00,0.68
7015.00,0.68
7014.00,0.68
7013.00,0.68
7012.00,0.68
7011.00,0.68
7010.00,0.68
7009.00,0.68
7008.00,0.68
7007.00,0.68
7006.00,0.68
7005.00,0.68
7004.00,0.67
7003.00,0.67
7002.00,0.67
7001.00,0.67
7000.00,0.67
6999.00,0.67
6998.00,0.67
6997.00,0.67
6996.00,0.67
6995.00,0.67
6994.00,0.67
6993.00,0.67
6992.00,0.66
6991.00,0.66
6990.00,0.66
6989.00,0.66
6988.00,0.66
6987.00,0.66
6986.00,0.66
6985.00,0.66
6984.00,0.66
6983.00,0.65
6982.00,0.65
6981.00,0.65
6980.00,0.65
6979.00,0.65
6978.00,0.65
6977.00,0.65
6976.00,0.65
6975.00,0.65
6974.00,0.65
6973.00,0.65
6972.00,0.65
6971.00,0.64
6970.00,0.64
6969.00,0.64
6968.00,0.64
6967.00,0.64
6966.00,0.64
6965.00,0.64
6964.00,0.64
6963.00,0.64
6962.00,0.64
6961.00,0.64
6960.00,0.64
6959.00,0.64
6958.00,0.64
6957.00,0.64
6956.00,0.64
6955.00,0.64
6954.00,0.64
6953.00,0.64
6952.00,0.64
6951.00,0.64
6950.00,0.64
6949.00,0.64
6948.00,0.64
6947.00,0.64
6946.00,0.64
6945.00,0.64
6944.00,0.64
6943.00,0.64
6942.00,0.63
6941.00,0.63
6940.00,0.63
6939.00,0.63
6938.00,0.63
6937.00,0.63
6936.00,0.63
6935.00,0.63
6934.00,0.63
6933.00,0.63
6932.00,0.63
6931.00,0.63
6930.00,0.63
6929.00,0.63
6928.00,0.63
6927.00,0.63
6926.00,0.62
6925.00,0.62
6924.00,0.62
6923.00,0.62
6922.00,0.62
6921.00,0.62
6920.00,0.62
6919.00,0.62
6918.00,0.62
6917.00,0.62
6916.00,0.62
6915.00,0.62
6914.00,0.62
6913.00,0.62
6912.00,0.62
6911.00,0.62
6910.00,0.62
6909.00,0.62
6908.00,0.62
6907.00,0.62
6906.00,0.62
6905.00,0.62
6904.00,0.62
6903.00,0.62
6902.00,0.62
6901.00,0.62
6900.00,0.62
6899.00,0.62
6898.00,0.62
6897.00,0.62
6896.00,0.62
6895.00,0.62
6894.00,0.62
6893.00,0.63
6892.00,0.63
6891.00,0.63
6890.00,0.63
6889.00,0.63
6888.00,0.63
6887.00,0.63
6886.00,0.63
6885.00,0.63
6884.00,0.62
6883.00,0.62
6882.00,0.62
6881.00,0.62
6880.00,0.62
6879.00,0.62
6878.00,0.62
6877.00,0.62
6876.00,0.62
6875.00,0.62
6874.00,0.62
6873.00,0.62
6872.00,0.62
6871.00,0.62
6870.00,0.62
6869.00,0.62
6868.00,0.62
6867.00,0.62
6866.00,0.62
6865.00,0.62
6864.00,0.62
6863.00,0.62
6862.00,0.62
6861.00,0.62
6860.00,0.62
6859.00,0.62
6858.00,0.62
6857.00,0.62
6856.00,0.62
6855.00,0.62
6854.00,0.62
6853.00,0.62
6852.00,0.62
6851.00,0.62
6850.00,0.62
6849.00,0.62
6848.00,0.62
6847.00,0.62
6846.00,0.63
6845.00,0.63
6844.00,0.63
6843.00,0.63
6842.00,0.63
6841.00,0.63
6840.00,0.63
6839.00,0.63
6838.00,0.63
6837.00,0.63
6836.00,0.63
6835.00,0.63
6834.00,0.63
6833.00,0.63
6832.00,0.63
6831.00,0.63
6830.00,0.63
6829.00,0.63
6828.00,0.63
6827.00,0.63
6826.00,0.63
6825.00,0.63
6824.00,0.63
6823.00,0.63
6822.00,0.63
6821.00,0.63
6820.00,0.63
6819.00,0.63
6818.00,0.63
6817.00,0.63
6816.00,0.63
6815.00,0.63
6814.00,0.62
6813.00,0.62
6812.00,0.62
6811.00,0.62
6810.00,0.62
6809.00,0.62
6808.00,0.62
6807.00,0.62
6806.00,0.62
6805.00,0.62
6804.00,0.62
6803.00,0.62
6802.00,0.62
6801.00,0.62
6800.00,0.62
6799.00,0.62
6798.00,0.62
6797.00,0.62
6796.00,0.63
6795.00,0.63
6794.00,0.63
6793.00,0.63
6792.00,0.63
6791.00,0.63
6790.00,0.63
6789.00,0.64
6788.00,0.64
6787.00,0.64
6786.00,0.64
6785.00,0.64
6784.00,0.64
6783.00,0.64
6782.00,0.64
6781.00,0.64
6780.00,0.64
6779.00,0.64
6778.00,0.64
6777.00,0.65
6776.00,0.65
6775.00,0.65
6774.00,0.65
6773.00,0.65
6772.00,0.65
6771.00,0.65
6770.00,0.65
6769.00,0.65
6768.00,0.65
6767.00,0.65
6766.00,0.66
6765.00,0.66
6764.00,0.66
6763.00,0.66
6762.00,0.66
6761.00,0.66
6760.00,0.66
6759.00,0.66
6758.00,0.66
6757.00,0.67
6756.00,0.67
6755.00,0.67
6754.00,0.67
6753.00,0.67
6752.00,0.67
6751.00,0.67
6750.00,0.67
6749.00,0.67
6748.00,0.67
6747.00,0.67
6746.00,0.67
6745.00,0.67
6744.00,0.67
6743.00,0.67
6742.00,0.67
6741.00,0.67
6740.00,0.67
6739.00,0.67
6738.00,0.67
6737.00,0.67
6736.00,0.67
6735.00,0.68
6734.00,0.68
6733.00,0.68
6732.00,0.68
6731.00,0.68
6730.00,0.68
6729.00,0.68
6728.00,0.68
6727.00,0.68
6726.00,0.68
6725.00,0.68
6724.00,0.68
6723.00,0.68
6722.00,0.69
6721.00,0.69
6720.00,0.69
6719.00,0.69
6718.00,0.69
6717.00,0.69
6716.00,0.69
6715.00,0.69
6714.00,0.70
6713.00,0.70
6712.00,0.70
6711.00,0.70
6710.00,0.70
6709.00,0.70
6708.00,0.71
6707.00,0.71
6706.00,0.71
6705.00,0.71
6704.00,0.71
6703.00,0.71
6702.00,0.71
6701.00,0.71
6700.00,0.72
6699.00,0.72
6698.00,0.72
6697.00,0.72
6696.00,0.72
6695.00,0.72
6694.00,0.72
6693.00,0.72
6692.00,0.72
6691.00,0.72
6690.00,0.72
6689.00,0.72
6688.00,0.72
6687.00,0.72
6686.00,0.72
6685.00,0.72
6684.00,0.72
6683.00,0.72
6682.00,0.72
6681.00,0.72
6680.00,0.72
6679.00,0.72
6678.00,0.72
6677.00,0.72
6676.00,0.72
6675.00,0.73
6674.00,0.73
6673.00,0.73
6672.00,0.73
6671.00,0.73
6670.00,0.73
6669.00,0.74
6668.00,0.74
6667.00,0.74
6666.00,0.74
6665.00,0.74
6664.00,0.75
6663.00,0.75
6662.00,0.75
6661.00,0.75
6660.00,0.76
6659.00,0.76
6658.00,0.76
6657.00,0.76
6656.00,0.76
6655.00,0.76
6654.00,0.76
6653.00,0.76
6652.00,0.77
6651.00,0.77
6650.00,0.77
6649.00,0.77
6648.00,0.77
6647.00,0.77
6646.00,0.77
6645.00,0.77
6644.00,0.77
6643.00,0.77
6642.00,0.77
6641.00,0.77
6640.00,0.77
6639.00,0.77
6638.00,0.77
6637.00,0.77
6636.00,0.77
6635.00,0.77
6634.00,0.77
6633.00,0.77
6632.00,0.78
6631.00,0.78
6630.00,0.78
6629.00,0.78
6628.00,0.78
6627.00,0.78
6626.00,0.79
6625.00,0.79
6624.00,0.79
6623.00,0.79
6622.00,0.79
6621.00,0.79
6620.00,0.80
6619.00,0.80
6618.00,0.80
6617.00,0.80
6616.00,0.80
6615.00,0.80
6614.00,0.80
6613.00,0.80
6612.00,0.81
6611.00,0.81
6610.00,0.81
6609.00,0.81
6608.00,0.81
6607.00,0.81
6606.00,0.81
6605.00,0.82
6604.00,0.82
6603.00,0.82
6602.00,0.82
6601.00,0.82
6600.00,0.82
6599.00,0.82
6598.00,0.82
6597.00,0.83
6596.00,0.83
6595.00,0.83
6594.00,0.83
6593.00,0.83
6592.00,0.83
6591.00,0.83
6590.00,0.83
6589.00,0.84
6588.00,0.84
6587.00,0.84
6586.00,0.84
6585.00,0.84
6584.00,0.84
6583.00,0.84
6582.00,0.84
6581.00,0.85
6580.00,0.85
6579.00,0.85
6578.00,0.85
6577.00,0.85
6576.00,0.85
6575.00,0.85
6574.00,0.85
6573.00,0.85
6572.00,0.85
6571.00,0.85
6570.00,0.85
6569.00,0.85
6568.00,0.86
6567.00,0.86
6566.00,0.86
6565.00,0.86
6564.00,0.86
6563.00,0.86
6562.00,0.86
6561.00,0.86
6560.00,0.86
6559.00,0.86
6558.00,0.86
6557.00,0.87
6556.00,0.87
6555.00,0.87
6554.00,0.87
6553.00,0.87
6552.00,0.87
6551.00,0.87
6550.00,0.87
6549.00,0.88
6548.00,0.88
6547.00,0.88
6546.00,0.88
6545.00,0.88
6544.00,0.88
6543.00,0.88
6542.00,0.88
6541.00,0.88
6540.00,0.88
6539.00,0.88
6538.00,0.88
6537.00,0.88
6536.00,0.88
6535.00,0.88
6534.00,0.89
6533.00,0.89
6532.00,0.89
6531.00,0.89
6530.00,0.89
6529.00,0.89
6528.00,0.89
6527.00,0.89
6526.00,0.89
6525.00,0.90
6524.00,0.90
6523.00,0.90
6522.00,0.90
6521.00,0.90
6520.00,0.90
6519.00,0.90
6518.00,0.90
6517.00,0.91
6516.00,0.91
6515.00,0.91
6514.00,0.91
6513.00,0.91
6512.00,0.91
6511.00,0.92
6510.00,0.92
6509.00,0.92
6508.00,0.92
6507.00,0.92
6506.00,0.92
6505.00,0.92
6504.00,0.92
6503.00,0.92
6502.00,0.92
6501.00,0.92
6500.00,0.92
6499.00,0.92
6498.00,0.93
6497.00,0.93
6496.00,0.93
6495.00,0.93
6494.00,0.93
6493.00,0.93
6492.00,0.93
6491.00,0.93
6490.00,0.93
6489.00,0.93
6488.00,0.93
6487.00,0.93
6486.00,0.93
6485.00,0.93
6484.00,0.93
6483.00,0.93
6482.00,0.93
6481.00,0.93
6480.00,0.93
6479.00,0.93
6478.00,0.93
6477.00,0.93
6476.00,0.93
6475.00,0.93
6474.00,0.93
6473.00,0.93
6472.00,0.94
6471.00,0.94
6470.00,0.94
6469.00,0.94
6468.00,0.94
6467.00,0.94
6466.00,0.94
6465.00,0.94
6464.00,0.95
6463.00,0.95
6462.00,0.95
6461.00,0.95
6460.00,0.95
6459.00,0.95
6458.00,0.95
6457.00,0.95
6456.00,0.95
6455.00,0.95
6454.00,0.95
6453.00,0.95
6452.00,0.96
6451.00,0.96
6450.00,0.96
6449.00,0.96
6448.00,0.96
6447.00,0.96
6446.00,0.96
6445.00,0.96
6444.00,0.96
6443.00,0.96
6442.00,0.96
6441.00,0.96
6440.00,0.96
6439.00,0.96
6438.00,0.96
6437.00,0.96
6436.00,0.96
6435.00,0.96
6434.00,0.96
6433.00,0.96
6432.00,0.96
6431.00,0.96
6430.00,0.97
6429.00,0.97
6428.00,0.97
6427.00,0.97
6426.00,0.97
6425.00,0.97
6424.00,0.97
6423.00,0.97
6422.00,0.97
6421.00,0.97
6420.00,0.97
6419.00,0.97
6418.00,0.97
6417.00,0.97
6416.00,0.97
6415.00,0.97
6414.00,0.97
6413.00,0.97
6412.00,0.98
6411.00,0.98
6410.00,0.98
6409.00,0.98
6408.00,0.98
6407.00,0.98
6406.00,0.98
6405.00,0.98
6404.00,0.98
6403.00,0.98
6402.00,0.99
6401.00,0.99
6400.00,0.99
6399.00,0.99
6398.00,0.99
6397.00,0.99
6396.00,0.99
6395.00,0.99
6394.00,0.99
6393.00,0.99
6392.00,1.00
6391.00,1.00
6390.00,1.00
6389.00,1.00
6388.00,1.00
6387.00,1.00
6386.00,1.00
6385.00,1.00
6384.00,1.00
6383.00,1.00
6382.00,1.00
6381.00,1.00
6380.00,1.00
6379.00,1.00
6378.00,1.00
6377.00,1.00
6376.00,1.00
6375.00,1.00
6374.00,1.00
6373.00,1.00
6372.00,1.00
6371.00,1.00
6370.00,1.00
6369.00,1.01
6368.00,1.01
6367.00,1.01
6366.00,1.01
6365.00,1.01
6364.00,1.01
6363.00,1.01
6362.00,1.01
6361.00,1.02
6360.00,1.02
6359.00,1.02
6358.00,1.02
6357.00,1.02
6356.00,1.02
6355.00,1.02
6354.00,1.02
6353.00,1.03
6352.00,1.03
6351.00,1.03
6350.00,1.03
6349.00,1.03
6348.00,1.03
6347.00,1.04
6346.00,1.04
6345.00,1.04
6344.00,1.04
6343.00,1.04
6342.00,1.04
6341.00,1.04
6340.00,1.04
6339.00,1.04
6338.00,1.04
6337.00,1.05
6336.00,1.05
6335.00,1.05
6334.00,1.05
6333.00,1.05
6332.00,1.05
6331.00,1.05
6330.00,1.05
6329.00,1.05
6328.00,1.05
6327.00,1.06
6326.00,1.06
6325.00,1.06
6324.00,1.06
6323.00,1.06
6322.00,1.06
6321.00,1.06
6320.00,1.06
6319.00,1.07
6318.00,1.07
6317.00,1.07
6316.00,1.07
6315.00,1.07
6314.00,1.07
6313.00,1.07
6312.00,1.07
6311.00,1.07
6310.00,1.07
6309.00,1.07
6308.00,1.07
6307.00,1.08
6306.00,1.08
6305.00,1.08
6304.00,1.08
6303.00,1.08
6302.00,1.08
6301.00,1.08
6300.00,1.08
6299.00,1.08
6298.00,1.09
6297.00,1.09
6296.00,1.09
6295.00,1.09
6294.00,1.09
6293.00,1.09
6292.00,1.09
6291.00,1.10
6290.00,1.10
6289.00,1.10
6288.00,1.10
6287.00,1.10
6286.00,1.10
6285.00,1.11
6284.00,1.11
6283.00,1.11
6282.00,1.11
6281.00,1.11
6280.00,1.11
6279.00,1.12
6278.00,1.12
6277.00,1.12
6276.00,1.12
6275.00,1.12
6274.00,1.13
6273.00,1.13
6272.00,1.13
6271.00,1.13
6270.00,1.13
6269.00,1.14
6268.00,1.14
6267.00,1.14
6266.00,1.14
6265.00,1.14
6264.00,1.14
6263.00,1.15
6262.00,1.15
6261.00,1.15
6260.00,1.15
6259.00,1.15
6258.00,1.15
6257.00,1.15
6256.00,1.16
6255.00,1.16
6254.00,1.16
6253.00,1.16
6252.00,1.16
6251.00,1.16
6250.00,1.16
6249.00,1.16
6248.00,1.16
6247.00,1.17
6246.00,1.17
6245.00,1.17
6244.00,1.17
6243.00,1.17
6242.00,1.17
6241.00,1.17
6240.00,1.17
6239.00,1.18
6238.00,1.18
6237.00,1.18
6236.00,1.18
6235.00,1.18
6234.00,1.18
6233.00,1.18
6232.00,1.18
6231.00,1.19
6230.00,1.19
6229.00,1.19
6228.00,1.19
6227.00,1.19
6226.00,1.19
6225.00,1.19
6224.00,1.20
6223.00,1.20
6222.00,1.20
6221.00,1.20
6220.00,1.20
6219.00,1.20
6218.00,1.21
6217.00,1.21
6216.00,1.21
6215.00,1.21
6214.00,1.21
6213.00,1.22
6212.00,1.22
6211.00,1.22
6210.00,1.22
6209.00,1.22
6208.00,1.22
6207.00,1.23
6206.00,1.23
6205.00,1.23
6204.00,1.23
6203.00,1.23
6202.00,1.23
6201.00,1.23
6200.00,1.23
6199.00,1.23
6198.00,1.24
6197.00,1.24
6196.00,1.24
6195.00,1.24
6194.00,1.24
6193.00,1.24
6192.00,1.24
6191.00,1.24
6190.00,1.24
6189.00,1.24
6188.00,1.24
6187.00,1.25
6186.00,1.25
6185.00,1.25
6184.00,1.25
6183.00,1.25
6182.00,1.25
6181.00,1.26
6180.00,1.26
6179.00,1.26
6178.00,1.26
6177.00,1.26
6176.00,1.27
6175.00,1.27
6174.00,1.27
6173.00,1.27
6172.00,1.28
6171.00,1.28
6170.00,1.28
6169.00,1.28
6168.00,1.29
6167.00,1.29
6166.00,1.29
6165.00,1.29
6164.00,1.30
6163.00,1.30
6162.00,1.30
6161.00,1.30
6160.00,1.30
6159.00,1.31
6158.00,1.31
6157.00,1.31
6156.00,1.31
6155.00,1.31
6154.00,1.32
6153.00,1.32
6152.00,1.32
6151.00,1.32
6150.00,1.33
6149.00,1.33
6148.00,1.33
6147.00,1.33
6146.00,1.33
6145.00,1.34
6144.00,1.34
6143.00,1.34
6142.00,1.34
6141.00,1.34
6140.00,1.35
6139.00,1.35
6138.00,1.35
6137.00,1.35
6136.00,1.35
6135.00,1.35
6134.00,1.36
6133.00,1.36
6132.00,1.36
6131.00,1.36
6130.00,1.36
6129.00,1.36
6128.00,1.36
6127.00,1.37
6126.00,1.37
6125.00,1.37
6124.00,1.37
6123.00,1.37
6122.00,1.37
6121.00,1.38
6120.00,1.38
6119.00,1.38
6118.00,1.38
6117.00,1.38
6116.00,1.39
6115.00,1.39
6114.00,1.39
6113.00,1.39
6112.00,1.39
6111.00,1.40
6110.00,1.40
6109.00,1.40
6108.00,1.40
6107.00,1.40
6106.00,1.40
6105.00,1.41
6104.00,1.41
6103.00,1.41
6102.00,1.41
6101.00,1.41
6100.00,1.42
6099.00,1.42
6098.00,1.42
6097.00,1.42
6096.00,1.42
6095.00,1.43
6094.00,1.43
6093.00,1.43
6092.00,1.43
6091.00,1.43
6090.00,1.43
6089.00,1.43
6088.00,1.44
6087.00,1.44
6086.00,1.44
6085.00,1.44
6084.00,1.44
6083.00,1.44
6082.00,1.44
6081.00,1.44
6080.00,1.44
6079.00,1.45
6078.00,1.45
6077.00,1.45
6076.00,1.45
6075.00,1.45
6074.00,1.45
6073.00,1.45
6072.00,1.45
6071.00,1.46
6070.00,1.46
6069.00,1.46
6068.00,1.46
6067.00,1.46
6066.00,1.46
6065.00,1.47
6064.00,1.47
6063.00,1.47
6062.00,1.47
6061.00,1.47
6060.00,1.47
6059.00,1.47
6058.00,1.48
6057.00,1.48
6056.00,1.48
6055.00,1.48
6054.00,1.48
6053.00,1.48
6052.00,1.48
6051.00,1.48
6050.00,1.48
6049.00,1.49
6048.00,1.49
6047.00,1.49
6046.00,1.49
6045.00,1.49
6044.00,1.49
6043.00,1.49
6042.00,1.49
6041.00,1.49
6040.00,1.49
6039.00,1.49
6038.00,1.49
6037.00,1.50
6036.00,1.50
6035.00,1.50
6034.00,1.50
6033.00,1.50
6032.00,1.50
6031.00,1.50
6030.00,1.50
6029.00,1.50
6028.00,1.50
6027.00,1.50
6026.00,1.50
6025.00,1.50
6024.00,1.50
6023.00,1.51
6022.00,1.51
6021.00,1.51
6020.00,1.51
6019.00,1.51
6018.00,1.51
6017.00,1.51
6016.00,1.51
6015.00,1.51
6014.00,1.50
6013.00,1.50
6012.00,1.50
6011.00,1.50
6010.00,1.50
6009.00,1.50
6008.00,1.50
6007.00,1.50
6006.00,1.50
6005.00,1.50
6004.00,1.49
6003.00,1.49
6002.00,1.49
6001.00,1.49
6000.00,1.49
5999.00,1.49
5998.00,1.49
5997.00,1.49
5996.00,1.49
5995.00,1.49
5994.00,1.48
5993.00,1.48
5992.00,1.48
5991.00,1.48
5990.00,1.48
5989.00,1.48
5988.00,1.47
5987.00,1.47
5986.00,1.47
5985.00,1.46
5984.00,1.46
5983.00,1.46
5982.00,1.45
5981.00,1.45
5980.00,1.44
5979.00,1.44
5978.00,1.43
5977.00,1.43
5976.00,1.42
5975.00,1.41
5974.00,1.41
5973.00,1.40
5972.00,1.39
5971.00,1.39
5970.00,1.38
5969.00,1.37
5968.00,1.37
5967.00,1.36
5966.00,1.35
5965.00,1.34
5964.00,1.34
5963.00,1.33
5962.00,1.32
5961.00,1.31
5960.00,1.30
5959.00,1.29
5958.00,1.29
5957.00,1.28
5956.00,1.27
5955.00,1.26
5954.00,1.25
5953.00,1.25
5952.00,1.24
5951.00,1.23
5950.00,1.22
5949.00,1.22
5948.00,1.21
5947.00,1.21
5946.00,1.20
5945.00,1.20
5944.00,1.19
5943.00,1.19
5942.00,1.18
5941.00,1.18
5940.00,1.18
5939.00,1.18
5938.00,1.17
5937.00,1.17
5936.00,1.17
5935.00,1.17
5934.00,1.17
5933.00,1.17
5932.00,1.16
5931.00,1.16
5930.00,1.16
5929.00,1.16
5928.00,1.16
5927.00,1.16
5926.00,1.15
5925.00,1.15
5924.00,1.15
5923.00,1.15
5922.00,1.14
5921.00,1.14
5920.00,1.14
5919.00,1.13
5918.00,1.13
5917.00,1.13
5916.00,1.12
5915.00,1.12
5914.00,1.11
5913.00,1.11
5912.00,1.11
5911.00,1.10
5910.00,1.10
5909.00,1.10
5908.00,1.10
5907.00,1.09
5906.00,1.09
5905.00,1.09
5904.00,1.09
5903.00,1.09
5902.00,1.09
5901.00,1.09
5900.00,1.09
5899.00,1.09
5898.00,1.09
5897.00,1.09
5896.00,1.09
5895.00,1.10
5894.00,1.10
5893.00,1.10
5892.00,1.10
5891.00,1.11
5890.00,1.11
5889.00,1.11
5888.00,1.12
5887.00,1.12
5886.00,1.12
5885.00,1.13
5884.00,1.13
5883.00,1.13
5882.00,1.14
5881.00,1.14
5880.00,1.14
5879.00,1.15
5878.00,1.15
5877.00,1.15
5876.00,1.16
5875.00,1.16
5874.00,1.16
5873.00,1.17
5872.00,1.17
5871.00,1.17
5870.00,1.18
5869.00,1.18
5868.00,1.18
5867.00,1.18
5866.00,1.19
5865.00,1.19
5864.00,1.19
5863.00,1.19
5862.00,1.19
5861.00,1.20
5860.00,1.20
5859.00,1.20
5858.00,1.20
5857.00,1.20
5856.00,1.20
5855.00,1.20
5854.00,1.20
5853.00,1.20
5852.00,1.20
5851.00,1.21
5850.00,1.21
5849.00,1.21
5848.00,1.21
5847.00,1.21
5846.00,1.21
5845.00,1.21
5844.00,1.21
5843.00,1.21
5842.00,1.21
5841.00,1.21
5840.00,1.21
5839.00,1.21
5838.00,1.21
5837.00,1.21
5836.00,1.21
5835.00,1.21
5834.00,1.21
5833.00,1.21
5832.00,1.21
5831.00,1.21
5830.00,1.21
5829.00,1.21
5828.00,1.21
5827.00,1.21
5826.00,1.21
5825.00,1.21
5824.00,1.21
5823.00,1.21
5822.00,1.21
5821.00,1.21
5820.00,1.21
5819.00,1.21
5818.00,1.21
5817.00,1.21
5816.00,1.21
5815.00,1.21
5814.00,1.21
5813.00,1.21
5812.00,1.21
5811.00,1.21
5810.00,1.21
5809.00,1.21
5808.00,1.21
5807.00,1.21
5806.00,1.21
5805.00,1.21
5804.00,1.21
5803.00,1.21
5802.00,1.21
5801.00,1.21
5800.00,1.21
5799.00,1.21
5798.00,1.20
5797.00,1.20
5796.00,1.20
5795.00,1.20
5794.00,1.20
5793.00,1.20
5792.00,1.19
5791.00,1.19
5790.00,1.19
5789.00,1.19
5788.00,1.18
5787.00,1.18
5786.00,1.18
5785.00,1.18
5784.00,1.18
5783.00,1.17
5782.00,1.17
5781.00,1.17
5780.00,1.17
5779.00,1.17
5778.00,1.16
5777.00,1.16
5776.00,1.16
5775.00,1.16
5774.00,1.16
5773.00,1.16
5772.00,1.16
5771.00,1.16
5770.00,1.15
5769.00,1.15
5768.00,1.15
5767.00,1.16
5766.00,1.16
5765.00,1.16
5764.00,1.16
5763.00,1.16
5762.00,1.16
5761.00,1.17
5760.00,1.17
5759.00,1.17
5758.00,1.18
5757.00,1.18
5756.00,1.19
5755.00,1.19
5754.00,1.20
5753.00,1.20
5752.00,1.21
5751.00,1.21
5750.00,1.22
5749.00,1.22
5748.00,1.23
5747.00,1.23
5746.00,1.24
5745.00,1.24
5744.00,1.24
5743.00,1.25
5742.00,1.25
5741.00,1.26
5740.00,1.26
5739.00,1.26
5738.00,1.27
5737.00,1.27
5736.00,1.27
5735.00,1.27
5734.00,1.28
5733.00,1.28
5732.00,1.28
5731.00,1.28
5730.00,1.28
5729.00,1.28
5728.00,1.28
5727.00,1.28
5726.00,1.29
5725.00,1.29
5724.00,1.29
5723.00,1.29
5722.00,1.29
5721.00,1.29
5720.00,1.29
5719.00,1.29
5718.00,1.29
5717.00,1.29
5716.00,1.29
5715.00,1.29
5714.00,1.29
5713.00,1.29
5712.00,1.29
5711.00,1.28
5710.00,1.28
5709.00,1.28
5708.00,1.28
5707.00,1.28
5706.00,1.28
5705.00,1.28
5704.00,1.28
5703.00,1.28
5702.00,1.28
5701.00,1.28
5700.00,1.27
5699.00,1.27
5698.00,1.27
5697.00,1.27
5696.00,1.27
5695.00,1.27
5694.00,1.27
5693.00,1.27
5692.00,1.26
5691.00,1.26
5690.00,1.26
5689.00,1.26
5688.00,1.26
5687.00,1.26
5686.00,1.25
5685.00,1.25
5684.00,1.25
5683.00,1.25
5682.00,1.25
5681.00,1.25
5680.00,1.25
5679.00,1.25
5678.00,1.24
5677.00,1.24
5676.00,1.24
5675.00,1.24
5674.00,1.24
5673.00,1.24
5672.00,1.24
5671.00,1.24
5670.00,1.24
5669.00,1.25
5668.00,1.25
5667.00,1.25
5666.00,1.25
5665.00,1.25
5664.00,1.25
5663.00,1.25
5662.00,1.25
5661.00,1.26
5660.00,1.26
5659.00,1.26
5658.00,1.26
5657.00,1.26
5656.00,1.27
5655.00,1.27
5654.00,1.27
5653.00,1.27
5652.00,1.28
5651.00,1.28
5650.00,1.28
5649.00,1.28
5648.00,1.29
5647.00,1.29
5646.00,1.29
5645.00,1.29
5644.00,1.30
5643.00,1.30
5642.00,1.30
5641.00,1.30
5640.00,1.31
5639.00,1.31
5638.00,1.31
5637.00,1.31
5636.00,1.32
5635.00,1.32
5634.00,1.32
5633.00,1.32
5632.00,1.33
5631.00,1.33
5630.00,1.33
5629.00,1.33
5628.00,1.33
5627.00,1.33
5626.00,1.34
5625.00,1.34
5624.00,1.34
5623.00,1.34
5622.00,1.34
5621.00,1.34
5620.00,1.34
5619.00,1.35
5618.00,1.35
5617.00,1.35
5616.00,1.35
5615.00,1.35
5614.00,1.35
5613.00,1.36
5612.00,1.36
5611.00,1.36
5610.00,1.36
5609.00,1.37
5608.00,1.37
5607.00,1.37
5606.00,1.37
5605.00,1.38
5604.00,1.38
5603.00,1.38
5602.00,1.38
5601.00,1.39
5600.00,1.39
5599.00,1.39
5598.00,1.39
5597.00,1.40
5596.00,1.40
5595.00,1.40
5594.00,1.40
5593.00,1.41
5592.00,1.41
5591.00,1.41
5590.00,1.41
5589.00,1.41
5588.00,1.42
5587.00,1.42
5586.00,1.42
5585.00,1.42
5584.00,1.43
5583.00,1.43
5582.00,1.43
5581.00,1.43
5580.00,1.44
5579.00,1.44
5578.00,1.44
5577.00,1.44
5576.00,1.44
5575.00,1.45
5574.00,1.45
5573.00,1.45
5572.00,1.45
5571.00,1.45
5570.00,1.45
5569.00,1.46
5568.00,1.46
5567.00,1.46
5566.00,1.46
5565.00,1.46
5564.00,1.46
5563.00,1.46
5562.00,1.46
5561.00,1.47
5560.00,1.47
5559.00,1.47
5558.00,1.47
5557.00,1.47
5556.00,1.47
5555.00,1.48
5554.00,1.48
5553.00,1.48
5552.00,1.48
5551.00,1.48
5550.00,1.49
5549.00,1.49
5548.00,1.49
5547.00,1.49
5546.00,1.49
5545.00,1.50
5544.00,1.50
5543.00,1.50
5542.00,1.50
5541.00,1.50
5540.00,1.50
5539.00,1.51
5538.00,1.51
5537.00,1.51
5536.00,1.51
5535.00,1.51
5534.00,1.51
5533.00,1.51
5532.00,1.51
5531.00,1.51
5530.00,1.52
5529.00,1.52
5528.00,1.52
5527.00,1.52
5526.00,1.52
5525.00,1.52
5524.00,1.52
5523.00,1.52
5522.00,1.52
5521.00,1.52
5520.00,1.53
5519.00,1.53
5518.00,1.53
5517.00,1.53
5516.00,1.53
5515.00,1.53
5514.00,1.53
5513.00,1.53
5512.00,1.53
5511.00,1.53
5510.00,1.53
5509.00,1.53
5508.00,1.53
5507.00,1.53
5506.00,1.54
5505.00,1.54
5504.00,1.54
5503.00,1.54
5502.00,1.54
5501.00,1.54
5500.00,1.54
5499.00,1.54
5498.00,1.54
5497.00,1.54
5496.00,1.54
5495.00,1.55
5494.00,1.55
5493.00,1.55
5492.00,1.55
5491.00,1.55
5490.00,1.55
5489.00,1.55
5488.00,1.56
5487.00,1.56
5486.00,1.56
5485.00,1.56
5484.00,1.56
5483.00,1.57
5482.00,1.57
5481.00,1.57
5480.00,1.57
5479.00,1.57
5478.00,1.57
5477.00,1.58
5476.00,1.58
5475.00,1.58
5474.00,1.58
5473.00,1.58
5472.00,1.58
5471.00,1.59
5470.00,1.59
5469.00,1.59
5468.00,1.59
5467.00,1.59
5466.00,1.59
5465.00,1.60
5464.00,1.60
5463.00,1.60
5462.00,1.60
5461.00,1.60
5460.00,1.61
5459.00,1.61
5458.00,1.61
5457.00,1.61
5456.00,1.61
5455.00,1.61
5454.00,1.61
5453.00,1.61
5452.00,1.61
5451.00,1.61
5450.00,1.61
5449.00,1.61
5448.00,1.61
5447.00,1.61
5446.00,1.61
5445.00,1.61
5444.00,1.61
5443.00,1.61
5442.00,1.61
5441.00,1.61
5440.00,1.61
5439.00,1.61
5438.00,1.62
5437.00,1.62
5436.00,1.62
5435.00,1.62
5434.00,1.62
5433.00,1.62
5432.00,1.62
5431.00,1.62
5430.00,1.62
5429.00,1.62
5428.00,1.62
5427.00,1.62
5426.00,1.62
5425.00,1.62
5424.00,1.62
5423.00,1.62
5422.00,1.62
5421.00,1.62
5420.00,1.62
5419.00,1.62
5418.00,1.62
5417.00,1.62
5416.00,1.62
5415.00,1.62
5414.00,1.62
5413.00,1.62
5412.00,1.62
5411.00,1.62
5410.00,1.62
5409.00,1.62
5408.00,1.62
5407.00,1.62
5406.00,1.62
5405.00,1.62
5404.00,1.62
5403.00,1.62
5402.00,1.62
5401.00,1.62
5400.00,1.62
5399.00,1.62
5398.00,1.62
5397.00,1.62
5396.00,1.62
5395.00,1.61
5394.00,1.61
5393.00,1.61
5392.00,1.61
5391.00,1.61
5390.00,1.60
5389.00,1.60
5388.00,1.60
5387.00,1.60
5386.00,1.60
5385.00,1.59
5384.00,1.59
5383.00,1.59
5382.00,1.58
5381.00,1.58
5380.00,1.58
5379.00,1.57
5378.00,1.57
5377.00,1.57
5376.00,1.56
5375.00,1.56
5374.00,1.55
5373.00,1.55
5372.00,1.54
5371.00,1.54
5370.00,1.53
5369.00,1.52
5368.00,1.52
5367.00,1.51
5366.00,1.50
5365.00,1.49
5364.00,1.49
5363.00,1.48
5362.00,1.47
5361.00,1.46
5360.00,1.45
5359.00,1.45
5358.00,1.44
5357.00,1.43
5356.00,1.42
5355.00,1.41
5354.00,1.40
5353.00,1.39
5352.00,1.38
5351.00,1.37
5350.00,1.36
5349.00,1.35
5348.00,1.34
5347.00,1.32
5346.00,1.31
5345.00,1.30
5344.00,1.29
5343.00,1.28
5342.00,1.27
5341.00,1.25
5340.00,1.24
5339.00,1.23
5338.00,1.22
5337.00,1.20
5336.00,1.19
5335.00,1.18
5334.00,1.16
5333.00,1.15
5332.00,1.14
5331.00,1.12
5330.00,1.11
5329.00,1.10
5328.00,1.08
5327.00,1.07
5326.00,1.06
5325.00,1.04
5324.00,1.03
5323.00,1.02
5322.00,1.00
5321.00,0.99
5320.00,0.98
5319.00,0.97
5318.00,0.95
5317.00,0.94
5316.00,0.93
5315.00,0.92
5314.00,0.91
5313.00,0.90
5312.00,0.89
5311.00,0.88
5310.00,0.87
5309.00,0.86
5308.00,0.85
5307.00,0.84
5306.00,0.83
5305.00,0.83
5304.00,0.82
5303.00,0.81
5302.00,0.81
5301.00,0.80
5300.00,0.79
5299.00,0.79
5298.00,0.78
5297.00,0.78
5296.00,0.77
5295.00,0.77
5294.00,0.77
5293.00,0.76
5292.00,0.76
5291.00,0.75
5290.00,0.75
5289.00,0.75
5288.00,0.74
5287.00,0.74
5286.00,0.74
5285.00,0.74
5284.00,0.73
5283.00,0.73
5282.00,0.73
5281.00,0.73
5280.00,0.72
5279.00,0.72
5278.00,0.72
5277.00,0.72
5276.00,0.72
5275.00,0.72
5274.00,0.72
5273.00,0.72
5272.00,0.71
5271.00,0.71
5270.00,0.71
5269.00,0.71
5268.00,0.71
5267.00,0.71
5266.00,0.71
5265.00,0.71
5264.00,0.71
5263.00,0.71
5262.00,0.71
5261.00,0.71
5260.00,0.71
5259.00,0.71
5258.00,0.71
5257.00,0.71
5256.00,0.71
5255.00,0.71
5254.00,0.71
5253.00,0.71
5252.00,0.71
5251.00,0.71
5250.00,0.71
5249.00,0.71
5248.00,0.71
5247.00,0.71
5246.00,0.71
5245.00,0.71
5244.00,0.70
5243.00,0.70
5242.00,0.70
5241.00,0.70
5240.00,0.70
5239.00,0.70
5238.00,0.70
5237.00,0.70
5236.00,0.70
5235.00,0.70
5234.00,0.70
5233.00,0.70
5232.00,0.70
5231.00,0.71
5230.00,0.71
5229.00,0.71
5228.00,0.71
5227.00,0.71
5226.00,0.71
5225.00,0.71
5224.00,0.71
5223.00,0.71
5222.00,0.71
5221.00,0.71
5220.00,0.71
5219.00,0.71
5218.00,0.71
5217.00,0.71
5216.00,0.71
5215.00,0.71
5214.00,0.71
5213.00,0.71
5212.00,0.71
5211.00,0.71
5210.00,0.71
5209.00,0.71
5208.00,0.71
5207.00,0.71
5206.00,0.71
5205.00,0.71
5204.00,0.71
5203.00,0.71
5202.00,0.71
5201.00,0.71
5200.00,0.71
5199.00,0.71
5198.00,0.72
5197.00,0.72
5196.00,0.72
5195.00,0.72
5194.00,0.72
5193.00,0.72
5192.00,0.72
5191.00,0.72
5190.00,0.72
5189.00,0.72
5188.00,0.73
5187.00,0.73
5186.00,0.73
5185.00,0.73
5184.00,0.73
5183.00,0.73
5182.00,0.73
5181.00,0.73
5180.00,0.73
5179.00,0.73
5178.00,0.73
5177.00,0.73
5176.00,0.73
5175.00,0.73
5174.00,0.73
5173.00,0.73
5172.00,0.73
5171.00,0.73
5170.00,0.73
5169.00,0.73
5168.00,0.73
5167.00,0.73
5166.00,0.73
5165.00,0.73
5164.00,0.73
5163.00,0.73
5162.00,0.73
5161.00,0.73
5160.00,0.74
5159.00,0.74
5158.00,0.74
5157.00,0.74
5156.00,0.74
5155.00,0.74
5154.00,0.74
5153.00,0.74
5152.00,0.74
5151.00,0.74
5150.00,0.74
5149.00,0.74
5148.00,0.74
5147.00,0.74
5146.00,0.74
5145.00,0.75
5144.00,0.75
5143.00,0.75
5142.00,0.75
5141.00,0.75
5140.00,0.75
5139.00,0.75
5138.00,0.75
5137.00,0.75
5136.00,0.75
5135.00,0.75
5134.00,0.75
5133.00,0.75
5132.00,0.75
5131.00,0.76
5130.00,0.76
5129.00,0.76
5128.00,0.76
5127.00,0.76
5126.00,0.76
5125.00,0.76
5124.00,0.76
5123.00,0.76
5122.00,0.76
5121.00,0.76
5120.00,0.76
5119.00,0.76
5118.00,0.76
5117.00,0.76
5116.00,0.76
5115.00,0.76
5114.00,0.76
5113.00,0.76
5112.00,0.76
5111.00,0.76
5110.00,0.76
5109.00,0.77
5108.00,0.77
5107.00,0.77
5106.00,0.77
5105.00,0.77
5104.00,0.77
5103.00,0.77
5102.00,0.77
5101.00,0.77
5100.00,0.77
5099.00,0.77
5098.00,0.77
5097.00,0.77
5096.00,0.77
5095.00,0.77
5094.00,0.77
5093.00,0.78
5092.00,0.78
5091.00,0.78
5090.00,0.78
5089.00,0.78
5088.00,0.78
5087.00,0.78
5086.00,0.78
5085.00,0.78
5084.00,0.78
5083.00,0.78
5082.00,0.78
5081.00,0.78
5080.00,0.78
5079.00,0.78
5078.00,0.78
5077.00,0.78
5076.00,0.78
5075.00,0.78
5074.00,0.78
5073.00,0.79
5072.00,0.79
5071.00,0.79
5070.00,0.79
5069.00,0.79
5068.00,0.79
5067.00,0.79
5066.00,0.79
5065.00,0.79
5064.00,0.79
5063.00,0.79
5062.00,0.79
5061.00,0.79
5060.00,0.80
5059.00,0.80
5058.00,0.80
5057.00,0.80
5056.00,0.80
5055.00,0.80
5054.00,0.80
5053.00,0.80
5052.00,0.80
5051.00,0.80
5050.00,0.81
5049.00,0.81
5048.00,0.81
5047.00,0.81
5046.00,0.81
5045.00,0.81
5044.00,0.81
5043.00,0.81
5042.00,0.81
5041.00,0.82
5040.00,0.82
5039.00,0.82
5038.00,0.82
5037.00,0.82
5036.00,0.82
5035.00,0.82
5034.00,0.82
5033.00,0.82
5032.00,0.82
5031.00,0.82
5030.00,0.82
5029.00,0.82
5028.00,0.82
5027.00,0.82
5026.00,0.82
5025.00,0.82
5024.00,0.82
5023.00,0.82
5022.00,0.82
5021.00,0.82
5020.00,0.82
5019.00,0.82
5018.00,0.83
5017.00,0.83
5016.00,0.83
5015.00,0.83
5014.00,0.83
5013.00,0.84
5012.00,0.84
5011.00,0.84
5010.00,0.84
5009.00,0.84
5008.00,0.84
5007.00,0.85
5006.00,0.85
5005.00,0.85
5004.00,0.85
5003.00,0.85
5002.00,0.85
5001.00,0.85
5000.00,0.85
4999.00,0.85
4998.00,0.85
4997.00,0.86
4996.00,0.86
4995.00,0.86
4994.00,0.86
4993.00,0.86
4992.00,0.86
4991.00,0.86
4990.00,0.86
4989.00,0.86
4988.00,0.86
4987.00,0.86
4986.00,0.86
4985.00,0.86
4984.00,0.86
4983.00,0.86
4982.00,0.86
4981.00,0.86
4980.00,0.86
4979.00,0.87
4978.00,0.87
4977.00,0.87
4976.00,0.87
4975.00,0.87
4974.00,0.87
4973.00,0.87
4972.00,0.87
4971.00,0.87
4970.00,0.87
4969.00,0.87
4968.00,0.88
4967.00,0.88
4966.00,0.88
4965.00,0.88
4964.00,0.88
4963.00,0.88
4962.00,0.88
4961.00,0.89
4960.00,0.89
4959.00,0.89
4958.00,0.89
4957.00,0.89
4956.00,0.89
4955.00,0.89
4954.00,0.89
4953.00,0.89
4952.00,0.89
4951.00,0.89
4950.00,0.89
4949.00,0.90
4948.00,0.90
4947.00,0.90
4946.00,0.90
4945.00,0.90
4944.00,0.90
4943.00,0.90
4942.00,0.90
4941.00,0.90
4940.00,0.90
4939.00,0.91
4938.00,0.91
4937.00,0.91
4936.00,0.91
4935.00,0.91
4934.00,0.91
4933.00,0.92
4932.00,0.92
4931.00,0.92
4930.00,0.92
4929.00,0.92
4928.00,0.92
4927.00,0.92
4926.00,0.92
4925.00,0.93
4924.00,0.93
4923.00,0.93
4922.00,0.93
4921.00,0.93
4920.00,0.93
4919.00,0.93
4918.00,0.93
4917.00,0.93
4916.00,0.93
4915.00,0.93
4914.00,0.93
4913.00,0.93
4912.00,0.93
4911.00,0.93
4910.00,0.93
4909.00,0.93
4908.00,0.93
4907.00,0.94
4906.00,0.94
4905.00,0.94
4904.00,0.94
4903.00,0.94
4902.00,0.94
4901.00,0.94
4900.00,0.94
4899.00,0.94
4898.00,0.94
4897.00,0.94
4896.00,0.94
4895.00,0.94
4894.00,0.95
4893.00,0.95
4892.00,0.95
4891.00,0.95
4890.00,0.95
4889.00,0.95
4888.00,0.95
4887.00,0.95
4886.00,0.95
4885.00,0.95
4884.00,0.95
4883.00,0.96
4882.00,0.96
4881.00,0.96
4880.00,0.96
4879.00,0.96
4878.00,0.96
4877.00,0.96
4876.00,0.96
4875.00,0.96
4874.00,0.97
4873.00,0.97
4872.00,0.97
4871.00,0.97
4870.00,0.97
4869.00,0.97
4868.00,0.97
4867.00,0.97
4866.00,0.97
4865.00,0.97
4864.00,0.97
4863.00,0.97
4862.00,0.97
4861.00,0.97
4860.00,0.97
4859.00,0.97
4858.00,0.97
4857.00,0.97
4856.00,0.97
4855.00,0.97
4854.00,0.98
4853.00,0.98
4852.00,0.98
4851.00,0.98
4850.00,0.98
4849.00,0.98
4848.00,0.98
4847.00,0.99
4846.00,0.99
4845.00,0.99
4844.00,0.99
4843.00,0.99
4842.00,0.99
4841.00,0.99
4840.00,0.99
4839.00,1.00
4838.00,1.00
4837.00,1.00
4836.00,1.00
4835.00,1.00
4834.00,1.00
4833.00,1.00
4832.00,1.00
4831.00,1.01
4830.00,1.01
4829.00,1.01
4828.00,1.01
4827.00,1.01
4826.00,1.01
4825.00,1.01
4824.00,1.01
4823.00,1.01
4822.00,1.01
4821.00,1.01
4820.00,1.01
4819.00,1.01
4818.00,1.01
4817.00,1.01
4816.00,1.01
4815.00,1.01
4814.00,1.01
4813.00,1.02
4812.00,1.02
4811.00,1.02
4810.00,1.02
4809.00,1.02
4808.00,1.02
4807.00,1.02
4806.00,1.02
4805.00,1.02
4804.00,1.02
4803.00,1.02
4802.00,1.02
4801.00,1.02
4800.00,1.02
4799.00,1.03
4798.00,1.03
4797.00,1.03
4796.00,1.03
4795.00,1.03
4794.00,1.03
4793.00,1.03
4792.00,1.03
4791.00,1.03
4790.00,1.04
4789.00,1.04
4788.00,1.04
4787.00,1.04
4786.00,1.04
4785.00,1.04
4784.00,1.04
4783.00,1.04
4782.00,1.05
4781.00,1.05
4780.00,1.05
4779.00,1.05
4778.00,1.05
4777.00,1.06
4776.00,1.06
4775.00,1.06
4774.00,1.06
4773.00,1.07
4772.00,1.07
4771.00,1.07
4770.00,1.07
4769.00,1.08
4768.00,1.08
4767.00,1.08
4766.00,1.08
4765.00,1.08
4764.00,1.09
4763.00,1.09
4762.00,1.09
4761.00,1.09
4760.00,1.09
4759.00,1.09
4758.00,1.10
4757.00,1.10
4756.00,1.10
4755.00,1.10
4754.00,1.10
4753.00,1.10
4752.00,1.10
4751.00,1.11
4750.00,1.11
4749.00,1.11
4748.00,1.11
4747.00,1.11
4746.00,1.11
4745.00,1.12
4744.00,1.12
4743.00,1.12
4742.00,1.12
4741.00,1.12
4740.00,1.13
4739.00,1.13
4738.00,1.13
4737.00,1.14
4736.00,1.14
4735.00,1.14
4734.00,1.14
4733.00,1.15
4732.00,1.15
4731.00,1.15
4730.00,1.16
4729.00,1.16
4728.00,1.16
4727.00,1.16
4726.00,1.16
4725.00,1.17
4724.00,1.17
4723.00,1.17
4722.00,1.17
4721.00,1.17
4720.00,1.17
4719.00,1.17
4718.00,1.18
4717.00,1.18
4716.00,1.18
4715.00,1.18
4714.00,1.18
4713.00,1.18
4712.00,1.18
4711.00,1.19
4710.00,1.19
4709.00,1.19
4708.00,1.19
4707.00,1.19
4706.00,1.20
4705.00,1.20
4704.00,1.20
4703.00,1.20
4702.00,1.20
4701.00,1.21
4700.00,1.21
4699.00,1.21
4698.00,1.21
4697.00,1.21
4696.00,1.21
4695.00,1.22
4694.00,1.22
4693.00,1.22
4692.00,1.22
4691.00,1.22
4690.00,1.23
4689.00,1.23
4688.00,1.23
4687.00,1.23
4686.00,1.23
4685.00,1.24
4684.00,1.24
4683.00,1.24
4682.00,1.24
4681.00,1.24
4680.00,1.25
4679.00,1.25
4678.00,1.25
4677.00,1.25
4676.00,1.25
4675.00,1.25
4674.00,1.26
4673.00,1.26
4672.00,1.26
4671.00,1.26
4670.00,1.26
4669.00,1.26
4668.00,1.26
4667.00,1.26
4666.00,1.26
4665.00,1.27
4664.00,1.27
4663.00,1.27
4662.00,1.27
4661.00,1.27
4660.00,1.27
4659.00,1.28
4658.00,1.28
4657.00,1.28
4656.00,1.28
4655.00,1.28
4654.00,1.29
4653.00,1.29
4652.00,1.29
4651.00,1.29
4650.00,1.29
4649.00,1.30
4648.00,1.30
4647.00,1.30
4646.00,1.30
4645.00,1.30
4644.00,1.31
4643.00,1.31
4642.00,1.31
4641.00,1.31
4640.00,1.31
4639.00,1.31
4638.00,1.32
4637.00,1.32
4636.00,1.32
4635.00,1.32
4634.00,1.32
4633.00,1.33
4632.00,1.33
4631.00,1.33
4630.00,1.33
4629.00,1.33
4628.00,1.33
4627.00,1.33
4626.00,1.34
4625.00,1.34
4624.00,1.34
4623.00,1.34
4622.00,1.34
4621.00,1.34
4620.00,1.34
4619.00,1.35
4618.00,1.35
4617.00,1.35
4616.00,1.35
4615.00,1.35
4614.00,1.36
4613.00,1.36
4612.00,1.36
4611.00,1.36
4610.00,1.36
4609.00,1.37
4608.00,1.37
4607.00,1.37
4606.00,1.37
4605.00,1.37
4604.00,1.37
4603.00,1.37
4602.00,1.37
4601.00,1.38
4600.00,1.38
4599.00,1.38
4598.00,1.38
4597.00,1.38
4596.00,1.38
4595.00,1.38
4594.00,1.38
4593.00,1.38
4592.00,1.38
4591.00,1.38
4590.00,1.38
4589.00,1.39
4588.00,1.39
4587.00,1.39
4586.00,1.39
4585.00,1.39
4584.00,1.39
4583.00,1.39
4582.00,1.39
4581.00,1.39
4580.00,1.39
4579.00,1.39
4578.00,1.40
4577.00,1.40
4576.00,1.40
4575.00,1.40
4574.00,1.40
4573.00,1.40
4572.00,1.41
4571.00,1.41
4570.00,1.41
4569.00,1.41
4568.00,1.41
4567.00,1.42
4566.00,1.42
4565.00,1.42
4564.00,1.42
4563.00,1.42
4562.00,1.42
4561.00,1.42
4560.00,1.43
4559.00,1.43
4558.00,1.43
4557.00,1.43
4556.00,1.43
4555.00,1.43
4554.00,1.43
4553.00,1.43
4552.00,1.43
4551.00,1.43
4550.00,1.43
4549.00,1.43
4548.00,1.43
4547.00,1.44
4546.00,1.44
4545.00,1.44
4544.00,1.44
4543.00,1.44
4542.00,1.44
4541.00,1.44
4540.00,1.44
4539.00,1.44
4538.00,1.44
4537.00,1.44
4536.00,1.44
4535.00,1.45
4534.00,1.45
4533.00,1.45
4532.00,1.45
4531.00,1.45
4530.00,1.45
4529.00,1.45
4528.00,1.45
4527.00,1.45
4526.00,1.45
4525.00,1.45
4524.00,1.45
4523.00,1.45
4522.00,1.45
4521.00,1.45
4520.00,1.45
4519.00,1.45
4518.00,1.45
4517.00,1.45
4516.00,1.45
4515.00,1.45
4514.00,1.45
4513.00,1.45
4512.00,1.45
4511.00,1.45
4510.00,1.45
4509.00,1.45
4508.00,1.45
4507.00,1.45
4506.00,1.45
4505.00,1.45
4504.00,1.45
4503.00,1.45
4502.00,1.45
4501.00,1.45
4500.00,1.45
4499.00,1.45
4498.00,1.45
4497.00,1.45
4496.00,1.45
4495.00,1.45
4494.00,1.45
4493.00,1.45
4492.00,1.45
4491.00,1.44
4490.00,1.44
4489.00,1.44
4488.00,1.44
4487.00,1.44
4486.00,1.44
4485.00,1.44
4484.00,1.43
4483.00,1.43
4482.00,1.43
4481.00,1.43
4480.00,1.43
4479.00,1.42
4478.00,1.42
4477.00,1.42
4476.00,1.41
4475.00,1.41
4474.00,1.41
4473.00,1.40
4472.00,1.40
4471.00,1.39
4470.00,1.39
4469.00,1.39
4468.00,1.38
4467.00,1.38
4466.00,1.38
4465.00,1.37
4464.00,1.37
4463.00,1.36
4462.00,1.36
4461.00,1.36
4460.00,1.35
4459.00,1.35
4458.00,1.35
4457.00,1.34
4456.00,1.34
4455.00,1.34
4454.00,1.33
4453.00,1.33
4452.00,1.33
4451.00,1.32
4450.00,1.32
4449.00,1.32
4448.00,1.31
4447.00,1.31
4446.00,1.31
4445.00,1.30
4444.00,1.30
4443.00,1.30
4442.00,1.29
4441.00,1.29
4440.00,1.28
4439.00,1.28
4438.00,1.28
4437.00,1.27
4436.00,1.27
4435.00,1.26
4434.00,1.26
4433.00,1.25
4432.00,1.25
4431.00,1.25
4430.00,1.24
4429.00,1.24
4428.00,1.24
4427.00,1.24
4426.00,1.23
4425.00,1.23
4424.00,1.23
4423.00,1.23
4422.00,1.23
4421.00,1.23
4420.00,1.23
4419.00,1.22
4418.00,1.22
4417.00,1.22
4416.00,1.22
4415.00,1.22
4414.00,1.22
4413.00,1.22
4412.00,1.22
4411.00,1.22
4410.00,1.22
4409.00,1.22
4408.00,1.22
4407.00,1.22
4406.00,1.22
4405.00,1.22
4404.00,1.22
4403.00,1.22
4402.00,1.22
4401.00,1.22
4400.00,1.22
4399.00,1.22
4398.00,1.22
4397.00,1.22
4396.00,1.22
4395.00,1.22
4394.00,1.23
4393.00,1.23
4392.00,1.23
4391.00,1.23
4390.00,1.23
4389.00,1.24
4388.00,1.24
4387.00,1.24
4386.00,1.24
4385.00,1.25
4384.00,1.25
4383.00,1.25
4382.00,1.26
4381.00,1.26
4380.00,1.26
4379.00,1.26
4378.00,1.26
4377.00,1.26
4376.00,1.27
4375.00,1.27
4374.00,1.27
4373.00,1.27
4372.00,1.27
4371.00,1.27
4370.00,1.27
4369.00,1.27
4368.00,1.27
4367.00,1.27
4366.00,1.27
4365.00,1.27
4364.00,1.27
4363.00,1.27
4362.00,1.27
4361.00,1.27
4360.00,1.27
4359.00,1.27
4358.00,1.27
4357.00,1.27
4356.00,1.27
4355.00,1.27
4354.00,1.27
4353.00,1.27
4352.00,1.27
4351.00,1.27
4350.00,1.27
4349.00,1.27
4348.00,1.27
4347.00,1.27
4346.00,1.27
4345.00,1.27
4344.00,1.28
4343.00,1.28
4342.00,1.28
4341.00,1.28
4340.00,1.28
4339.00,1.28
4338.00,1.28
4337.00,1.28
4336.00,1.28
4335.00,1.29
4334.00,1.29
4333.00,1.29
4332.00,1.29
4331.00,1.29
4330.00,1.30
4329.00,1.30
4328.00,1.30
4327.00,1.30
4326.00,1.30
4325.00,1.30
4324.00,1.30
4323.00,1.30
4322.00,1.30
4321.00,1.30
4320.00,1.31
4319.00,1.31
4318.00,1.31
4317.00,1.31
4316.00,1.31
4315.00,1.31
4314.00,1.31
4313.00,1.31
4312.00,1.32
4311.00,1.32
4310.00,1.32
4309.00,1.32
4308.00,1.33
4307.00,1.33
4306.00,1.33
4305.00,1.33
4304.00,1.34
4303.00,1.34
4302.00,1.34
4301.00,1.34
4300.00,1.35
4299.00,1.35
4298.00,1.35
4297.00,1.35
4296.00,1.35
4295.00,1.35
4294.00,1.35
4293.00,1.35
4292.00,1.35
4291.00,1.35
4290.00,1.35
4289.00,1.35
4288.00,1.35
4287.00,1.35
4286.00,1.35
4285.00,1.36
4284.00,1.36
4283.00,1.36
4282.00,1.36
4281.00,1.36
4280.00,1.36
4279.00,1.36
4278.00,1.36
4277.00,1.36
4276.00,1.36
4275.00,1.36
4274.00,1.36
4273.00,1.36
4272.00,1.36
4271.00,1.36
4270.00,1.36
4269.00,1.36
4268.00,1.36
4267.00,1.36
4266.00,1.36
4265.00,1.36
4264.00,1.36
4263.00,1.35
4262.00,1.35
4261.00,1.35
4260.00,1.35
4259.00,1.35
4258.00,1.35
4257.00,1.36
4256.00,1.36
4255.00,1.36
4254.00,1.36
4253.00,1.36
4252.00,1.36
4251.00,1.36
4250.00,1.36
4249.00,1.37
4248.00,1.37
4247.00,1.37
4246.00,1.37
4245.00,1.37
4244.00,1.37
4243.00,1.38
4242.00,1.38
4241.00,1.38
4240.00,1.38
4239.00,1.38
4238.00,1.38
4237.00,1.38
4236.00,1.38
4235.00,1.39
4234.00,1.39
4233.00,1.39
4232.00,1.39
4231.00,1.39
4230.00,1.40
4229.00,1.40
4228.00,1.40
4227.00,1.41
4226.00,1.41
4225.00,1.41
4224.00,1.41
4223.00,1.42
4222.00,1.42
4221.00,1.42
4220.00,1.42
4219.00,1.43
4218.00,1.43
4217.00,1.43
4216.00,1.43
4215.00,1.43
4214.00,1.43
4213.00,1.43
4212.00,1.43
4211.00,1.43
4210.00,1.43
4209.00,1.43
4208.00,1.43
4207.00,1.43
4206.00,1.43
4205.00,1.43
4204.00,1.43
4203.00,1.43
4202.00,1.44
4201.00,1.44
4200.00,1.44
4199.00,1.44
4198.00,1.44
4197.00,1.44
4196.00,1.44
4195.00,1.44
4194.00,1.44
4193.00,1.44
4192.00,1.44
4191.00,1.45
4190.00,1.45
4189.00,1.45
4188.00,1.45
4187.00,1.45
4186.00,1.45
4185.00,1.45
4184.00,1.45
4183.00,1.45
4182.00,1.45
4181.00,1.45
4180.00,1.46
4179.00,1.46
4178.00,1.46
4177.00,1.46
4176.00,1.46
4175.00,1.46
4174.00,1.46
4173.00,1.46
4172.00,1.46
4171.00,1.46
4170.00,1.46
4169.00,1.46
4168.00,1.46
4167.00,1.46
4166.00,1.46
4165.00,1.46
4164.00,1.46
4163.00,1.46
4162.00,1.46
4161.00,1.46
4160.00,1.46
4159.00,1.46
4158.00,1.46
4157.00,1.46
4156.00,1.46
4155.00,1.46
4154.00,1.46
4153.00,1.46
4152.00,1.46
4151.00,1.46
4150.00,1.46
4149.00,1.46
4148.00,1.46
4147.00,1.46
4146.00,1.46
4145.00,1.46
4144.00,1.47
4143.00,1.47
4142.00,1.47
4141.00,1.47
4140.00,1.47
4139.00,1.47
4138.00,1.47
4137.00,1.48
4136.00,1.48
4135.00,1.48
4134.00,1.48
4133.00,1.48
4132.00,1.48
4131.00,1.47
4130.00,1.47
4129.00,1.47
4128.00,1.47
4127.00,1.47
4126.00,1.47
4125.00,1.47
4124.00,1.47
4123.00,1.48
4122.00,1.48
4121.00,1.48
4120.00,1.48
4119.00,1.48
4118.00,1.48
4117.00,1.48
4116.00,1.48
4115.00,1.48
4114.00,1.49
4113.00,1.49
4112.00,1.49
4111.00,1.49
4110.00,1.49
4109.00,1.49
4108.00,1.49
4107.00,1.50
4106.00,1.50
4105.00,1.50
4104.00,1.50
4103.00,1.50
4102.00,1.50
4101.00,1.50
4100.00,1.50
4099.00,1.50
4098.00,1.50
4097.00,1.50
4096.00,1.50
4095.00,1.50
4094.00,1.51
4093.00,1.51
4092.00,1.51
4091.00,1.51
4090.00,1.51
4089.00,1.51
4088.00,1.51
4087.00,1.51
4086.00,1.51
4085.00,1.51
4084.00,1.51
4083.00,1.51
4082.00,1.51
4081.00,1.51
4080.00,1.51
4079.00,1.51
4078.00,1.52
4077.00,1.52
4076.00,1.52
4075.00,1.52
4074.00,1.52
4073.00,1.52
4072.00,1.52
4071.00,1.52
4070.00,1.52
4069.00,1.52
4068.00,1.52
4067.00,1.52
4066.00,1.51
4065.00,1.51
4064.00,1.51
4063.00,1.51
4062.00,1.51
4061.00,1.51
4060.00,1.51
4059.00,1.51
4058.00,1.52
4057.00,1.52
4056.00,1.52
4055.00,1.52
4054.00,1.52
4053.00,1.52
4052.00,1.52
4051.00,1.52
4050.00,1.52
4049.00,1.52
4048.00,1.52
4047.00,1.52
4046.00,1.52
4045.00,1.52
4044.00,1.52
4043.00,1.52
4042.00,1.52
4041.00,1.52
4040.00,1.52
4039.00,1.52
4038.00,1.52
4037.00,1.52
4036.00,1.52
4035.00,1.52
4034.00,1.52
4033.00,1.52
4032.00,1.52
4031.00,1.53
4030.00,1.53
4029.00,1.53
4028.00,1.53
4027.00,1.54
4026.00,1.54
4025.00,1.54
4024.00,1.55
4023.00,1.55
4022.00,1.55
4021.00,1.56
4020.00,1.56
4019.00,1.56
4018.00,1.57
4017.00,1.57
4016.00,1.58
4015.00,1.58
4014.00,1.58
4013.00,1.59
4012.00,1.59
4011.00,1.60
4010.00,1.60
4009.00,1.60
4008.00,1.61
4007.00,1.61
4006.00,1.61
4005.00,1.61
4004.00,1.61
4003.00,1.62
4002.00,1.62
4001.00,1.62
4000.00,1.62
