创建为新数据集,样品 020 用户 Administrator 日期 星期三, 十一月 01 2017
cm-1,%T
10000.00,1.52
9999.00,1.52
9998.00,1.52
9997.00,1.51
9996.00,1.51
9995.00,1.51
9994.00,1.51
9993.00,1.50
9992.00,1.50
9991.00,1.50
9990.00,1.50
9989.00,1.50
9988.00,1.49
9987.00,1.49
9986.00,1.49
9985.00,1.49
9984.00,1.49
9983.00,1.49
9982.00,1.49
9981.00,1.49
9980.00,1.49
9979.00,1.49
9978.00,1.49
9977.00,1.49
9976.00,1.49
9975.00,1.49
9974.00,1.50
9973.00,1.50
9972.00,1.50
9971.00,1.50
9970.00,1.50
9969.00,1.51
9968.00,1.51
9967.00,1.51
9966.00,1.51
9965.00,1.51
9964.00,1.51
9963.00,1.51
9962.00,1.52
9961.00,1.52
9960.00,1.52
9959.00,1.52
9958.00,1.52
9957.00,1.52
9956.00,1.52
9955.00,1.52
9954.00,1.52
9953.00,1.52
9952.00,1.52
9951.00,1.52
9950.00,1.51
9949.00,1.51
9948.00,1.51
9947.00,1.51
9946.00,1.51
9945.00,1.51
9944.00,1.51
9943.00,1.51
9942.00,1.51
9941.00,1.50
9940.00,1.50
9939.00,1.50
9938.00,1.50
9937.00,1.50
9936.00,1.49
9935.00,1.49
9934.00,1.49
9933.00,1.49
9932.00,1.49
9931.00,1.49
9930.00,1.49
9929.00,1.49
9928.00,1.49
9927.00,1.49
9926.00,1.49
9925.00,1.49
9924.00,1.49
9923.00,1.50
9922.00,1.50
9921.00,1.50
9920.00,1.50
9919.00,1.50
9918.00,1.50
9917.00,1.50
9916.00,1.50
9915.00,1.50
9914.00,1.50
9913.00,1.50
9912.00,1.50
9911.00,1.50
9910.00,1.50
9909.00,1.50
9908.00,1.49
9907.00,1.49
9906.00,1.49
9905.00,1.49
9904.00,1.49
9903.00,1.49
9902.00,1.49
9901.00,1.49
9900.00,1.49
9899.00,1.49
9898.00,1.49
9897.00,1.50
9896.00,1.50
9895.00,1.50
9894.00,1.50
9893.00,1.50
9892.00,1.50
9891.00,1.51
9890.00,1.51
9889.00,1.51
9888.00,1.51
9887.00,1.51
9886.00,1.51
9885.00,1.51
9884.00,1.51
9883.00,1.51
9882.00,1.51
9881.00,1.51
9880.00,1.51
9879.00,1.51
9878.00,1.51
9877.00,1.51
9876.00,1.51
9875.00,1.50
9874.00,1.50
9873.00,1.50
9872.00,1.50
9871.00,1.49
9870.00,1.49
9869.00,1.49
9868.00,1.48
9867.00,1.48
9866.00,1.48
9865.00,1.48
9864.00,1.48
9863.00,1.48
9862.00,1.48
9861.00,1.48
9860.00,1.48
9859.00,1.48
9858.00,1.48
9857.00,1.48
9856.00,1.48
9855.00,1.49
9854.00,1.49
9853.00,1.49
9852.00,1.50
9851.00,1.50
9850.00,1.50
9849.00,1.50
9848.00,1.51
9847.00,1.51
9846.00,1.51
9845.00,1.51
9844.00,1.51
9843.00,1.51
9842.00,1.52
9841.00,1.52
9840.00,1.52
9839.00,1.52
9838.00,1.52
9837.00,1.52
9836.00,1.52
9835.00,1.52
9834.00,1.52
9833.00,1.52
9832.00,1.52
9831.00,1.52
9830.00,1.52
9829.00,1.52
9828.00,1.51
9827.00,1.51
9826.00,1.51
9825.00,1.51
9824.00,1.51
9823.00,1.51
9822.00,1.51
9821.00,1.50
9820.00,1.50
9819.00,1.50
9818.00,1.50
9817.00,1.50
9816.00,1.50
9815.00,1.50
9814.00,1.50
9813.00,1.50
9812.00,1.50
9811.00,1.50
9810.00,1.50
9809.00,1.50
9808.00,1.50
9807.00,1.50
9806.00,1.51
9805.00,1.51
9804.00,1.51
9803.00,1.50
9802.00,1.50
9801.00,1.50
9800.00,1.50
9799.00,1.50
9798.00,1.50
9797.00,1.50
9796.00,1.49
9795.00,1.49
9794.00,1.49
9793.00,1.49
9792.00,1.48
9791.00,1.48
9790.00,1.48
9789.00,1.48
9788.00,1.47
9787.00,1.47
9786.00,1.47
9785.00,1.47
9784.00,1.47
9783.00,1.47
9782.00,1.47
9781.00,1.46
9780.00,1.46
9779.00,1.46
9778.00,1.46
9777.00,1.46
9776.00,1.46
9775.00,1.46
9774.00,1.45
9773.00,1.45
9772.00,1.45
9771.00,1.45
9770.00,1.45
9769.00,1.44
9768.00,1.44
9767.00,1.44
9766.00,1.44
9765.00,1.44
9764.00,1.44
9763.00,1.44
9762.00,1.44
9761.00,1.44
9760.00,1.44
9759.00,1.44
9758.00,1.44
9757.00,1.44
9756.00,1.44
9755.00,1.45
9754.00,1.45
9753.00,1.45
9752.00,1.45
9751.00,1.45
9750.00,1.46
9749.00,1.46
9748.00,1.46
9747.00,1.46
9746.00,1.46
9745.00,1.47
9744.00,1.47
9743.00,1.47
9742.00,1.47
9741.00,1.47
9740.00,1.47
9739.00,1.48
9738.00,1.48
9737.00,1.48
9736.00,1.48
9735.00,1.48
9734.00,1.48
9733.00,1.48
9732.00,1.49
9731.00,1.49
9730.00,1.49
9729.00,1.49
9728.00,1.49
9727.00,1.50
9726.00,1.50
9725.00,1.50
9724.00,1.50
9723.00,1.50
9722.00,1.50
9721.00,1.50
9720.00,1.50
9719.00,1.50
9718.00,1.50
9717.00,1.50
9716.00,1.50
9715.00,1.50
9714.00,1.50
9713.00,1.50
9712.00,1.49
9711.00,1.49
9710.00,1.49
9709.00,1.49
9708.00,1.49
9707.00,1.49
9706.00,1.49
9705.00,1.49
9704.00,1.49
9703.00,1.49
9702.00,1.49
9701.00,1.49
9700.00,1.49
9699.00,1.49
9698.00,1.49
9697.00,1.49
9696.00,1.49
9695.00,1.49
9694.00,1.49
9693.00,1.49
9692.00,1.49
9691.00,1.48
9690.00,1.48
9689.00,1.48
9688.00,1.48
9687.00,1.48
9686.00,1.48
9685.00,1.48
9684.00,1.48
9683.00,1.48
9682.00,1.48
9681.00,1.48
9680.00,1.48
9679.00,1.47
9678.00,1.47
9677.00,1.47
9676.00,1.47
9675.00,1.47
9674.00,1.47
9673.00,1.47
9672.00,1.47
9671.00,1.47
9670.00,1.46
9669.00,1.46
9668.00,1.46
9667.00,1.46
9666.00,1.46
9665.00,1.46
9664.00,1.46
9663.00,1.46
9662.00,1.46
9661.00,1.46
9660.00,1.46
9659.00,1.46
9658.00,1.47
9657.00,1.47
9656.00,1.47
9655.00,1.47
9654.00,1.47
9653.00,1.47
9652.00,1.47
9651.00,1.47
9650.00,1.48
9649.00,1.48
9648.00,1.48
9647.00,1.48
9646.00,1.48
9645.00,1.49
9644.00,1.49
9643.00,1.49
9642.00,1.49
9641.00,1.50
9640.00,1.50
9639.00,1.50
9638.00,1.50
9637.00,1.51
9636.00,1.51
9635.00,1.51
9634.00,1.51
9633.00,1.51
9632.00,1.51
9631.00,1.52
9630.00,1.52
9629.00,1.52
9628.00,1.52
9627.00,1.52
9626.00,1.52
9625.00,1.52
9624.00,1.52
9623.00,1.51
9622.00,1.51
9621.00,1.51
9620.00,1.51
9619.00,1.51
9618.00,1.51
9617.00,1.50
9616.00,1.50
9615.00,1.50
9614.00,1.50
9613.00,1.50
9612.00,1.50
9611.00,1.49
9610.00,1.49
9609.00,1.49
9608.00,1.49
9607.00,1.49
9606.00,1.49
9605.00,1.49
9604.00,1.49
9603.00,1.49
9602.00,1.49
9601.00,1.50
9600.00,1.50
9599.00,1.50
9598.00,1.50
9597.00,1.50
9596.00,1.50
9595.00,1.50
9594.00,1.50
9593.00,1.50
9592.00,1.50
9591.00,1.50
9590.00,1.49
9589.00,1.49
9588.00,1.49
9587.00,1.49
9586.00,1.49
9585.00,1.49
9584.00,1.49
9583.00,1.49
9582.00,1.48
9581.00,1.48
9580.00,1.48
9579.00,1.48
9578.00,1.48
9577.00,1.48
9576.00,1.48
9575.00,1.48
9574.00,1.48
9573.00,1.48
9572.00,1.48
9571.00,1.48
9570.00,1.48
9569.00,1.48
9568.00,1.48
9567.00,1.48
9566.00,1.48
9565.00,1.48
9564.00,1.48
9563.00,1.47
9562.00,1.47
9561.00,1.47
9560.00,1.47
9559.00,1.47
9558.00,1.47
9557.00,1.47
9556.00,1.46
9555.00,1.46
9554.00,1.46
9553.00,1.46
9552.00,1.46
9551.00,1.45
9550.00,1.45
9549.00,1.45
9548.00,1.45
9547.00,1.45
9546.00,1.44
9545.00,1.44
9544.00,1.44
9543.00,1.44
9542.00,1.44
9541.00,1.44
9540.00,1.44
9539.00,1.45
9538.00,1.45
9537.00,1.45
9536.00,1.45
9535.00,1.46
9534.00,1.46
9533.00,1.46
9532.00,1.47
9531.00,1.47
9530.00,1.47
9529.00,1.48
9528.00,1.48
9527.00,1.48
9526.00,1.49
9525.00,1.49
9524.00,1.49
9523.00,1.49
9522.00,1.49
9521.00,1.49
9520.00,1.50
9519.00,1.50
9518.00,1.50
9517.00,1.49
9516.00,1.49
9515.00,1.49
9514.00,1.49
9513.00,1.49
9512.00,1.49
9511.00,1.49
9510.00,1.48
9509.00,1.48
9508.00,1.48
9507.00,1.48
9506.00,1.48
9505.00,1.48
9504.00,1.48
9503.00,1.48
9502.00,1.48
9501.00,1.48
9500.00,1.48
9499.00,1.48
9498.00,1.48
9497.00,1.48
9496.00,1.48
9495.00,1.48
9494.00,1.49
9493.00,1.49
9492.00,1.49
9491.00,1.49
9490.00,1.49
9489.00,1.50
9488.00,1.50
9487.00,1.50
9486.00,1.50
9485.00,1.50
9484.00,1.50
9483.00,1.50
9482.00,1.50
9481.00,1.50
9480.00,1.50
9479.00,1.49
9478.00,1.49
9477.00,1.49
9476.00,1.49
9475.00,1.48
9474.00,1.48
9473.00,1.48
9472.00,1.48
9471.00,1.47
9470.00,1.47
9469.00,1.47
9468.00,1.47
9467.00,1.47
9466.00,1.47
9465.00,1.47
9464.00,1.46
9463.00,1.46
9462.00,1.46
9461.00,1.46
9460.00,1.46
9459.00,1.46
9458.00,1.46
9457.00,1.46
9456.00,1.46
9455.00,1.46
9454.00,1.46
9453.00,1.46
9452.00,1.46
9451.00,1.46
9450.00,1.46
9449.00,1.46
9448.00,1.46
9447.00,1.46
9446.00,1.46
9445.00,1.45
9444.00,1.45
9443.00,1.45
9442.00,1.45
9441.00,1.45
9440.00,1.45
9439.00,1.45
9438.00,1.46
9437.00,1.46
9436.00,1.46
9435.00,1.46
9434.00,1.46
9433.00,1.46
9432.00,1.46
9431.00,1.46
9430.00,1.47
9429.00,1.47
9428.00,1.47
9427.00,1.47
9426.00,1.47
9425.00,1.47
9424.00,1.47
9423.00,1.47
9422.00,1.47
9421.00,1.47
9420.00,1.47
9419.00,1.47
9418.00,1.47
9417.00,1.47
9416.00,1.47
9415.00,1.47
9414.00,1.47
9413.00,1.47
9412.00,1.47
9411.00,1.47
9410.00,1.47
9409.00,1.47
9408.00,1.47
9407.00,1.48
9406.00,1.48
9405.00,1.48
9404.00,1.48
9403.00,1.49
9402.00,1.49
9401.00,1.49
9400.00,1.50
9399.00,1.50
9398.00,1.50
9397.00,1.50
9396.00,1.51
9395.00,1.51
9394.00,1.51
9393.00,1.51
9392.00,1.51
9391.00,1.51
9390.00,1.51
9389.00,1.51
9388.00,1.51
9387.00,1.51
9386.00,1.51
9385.00,1.51
9384.00,1.51
9383.00,1.51
9382.00,1.50
9381.00,1.50
9380.00,1.50
9379.00,1.50
9378.00,1.49
9377.00,1.49
9376.00,1.49
9375.00,1.49
9374.00,1.49
9373.00,1.48
9372.00,1.48
9371.00,1.48
9370.00,1.48
9369.00,1.48
9368.00,1.48
9367.00,1.48
9366.00,1.48
9365.00,1.48
9364.00,1.48
9363.00,1.48
9362.00,1.48
9361.00,1.48
9360.00,1.48
9359.00,1.49
9358.00,1.49
9357.00,1.49
9356.00,1.49
9355.00,1.49
9354.00,1.49
9353.00,1.49
9352.00,1.49
9351.00,1.49
9350.00,1.49
9349.00,1.49
9348.00,1.49
9347.00,1.49
9346.00,1.49
9345.00,1.49
9344.00,1.49
9343.00,1.49
9342.00,1.49
9341.00,1.49
9340.00,1.49
9339.00,1.49
9338.00,1.49
9337.00,1.49
9336.00,1.49
9335.00,1.50
9334.00,1.50
9333.00,1.50
9332.00,1.50
9331.00,1.50
9330.00,1.50
9329.00,1.49
9328.00,1.49
9327.00,1.49
9326.00,1.49
9325.00,1.49
9324.00,1.49
9323.00,1.48
9322.00,1.48
9321.00,1.48
9320.00,1.48
9319.00,1.48
9318.00,1.47
9317.00,1.47
9316.00,1.47
9315.00,1.47
9314.00,1.47
9313.00,1.47
9312.00,1.47
9311.00,1.47
9310.00,1.47
9309.00,1.47
9308.00,1.47
9307.00,1.47
9306.00,1.47
9305.00,1.47
9304.00,1.47
9303.00,1.47
9302.00,1.47
9301.00,1.48
9300.00,1.48
9299.00,1.48
9298.00,1.48
9297.00,1.48
9296.00,1.48
9295.00,1.48
9294.00,1.48
9293.00,1.48
9292.00,1.48
9291.00,1.48
9290.00,1.48
9289.00,1.48
9288.00,1.48
9287.00,1.48
9286.00,1.48
9285.00,1.48
9284.00,1.48
9283.00,1.48
9282.00,1.48
9281.00,1.48
9280.00,1.48
9279.00,1.49
9278.00,1.49
9277.00,1.49
9276.00,1.49
9275.00,1.49
9274.00,1.49
9273.00,1.49
9272.00,1.49
9271.00,1.49
9270.00,1.49
9269.00,1.49
9268.00,1.49
9267.00,1.49
9266.00,1.49
9265.00,1.49
9264.00,1.49
9263.00,1.49
9262.00,1.48
9261.00,1.48
9260.00,1.48
9259.00,1.48
9258.00,1.48
9257.00,1.48
9256.00,1.48
9255.00,1.48
9254.00,1.48
9253.00,1.48
9252.00,1.48
9251.00,1.48
9250.00,1.48
9249.00,1.48
9248.00,1.48
9247.00,1.48
9246.00,1.48
9245.00,1.48
9244.00,1.48
9243.00,1.48
9242.00,1.48
9241.00,1.48
9240.00,1.49
9239.00,1.49
9238.00,1.49
9237.00,1.49
9236.00,1.49
9235.00,1.49
9234.00,1.49
9233.00,1.49
9232.00,1.49
9231.00,1.49
9230.00,1.49
9229.00,1.49
9228.00,1.49
9227.00,1.49
9226.00,1.49
9225.00,1.49
9224.00,1.49
9223.00,1.49
9222.00,1.49
9221.00,1.49
9220.00,1.49
9219.00,1.49
9218.00,1.50
9217.00,1.50
9216.00,1.50
9215.00,1.50
9214.00,1.50
9213.00,1.50
9212.00,1.50
9211.00,1.51
9210.00,1.51
9209.00,1.51
9208.00,1.51
9207.00,1.51
9206.00,1.51
9205.00,1.51
9204.00,1.51
9203.00,1.51
9202.00,1.51
9201.00,1.50
9200.00,1.50
9199.00,1.50
9198.00,1.50
9197.00,1.49
9196.00,1.49
9195.00,1.49
9194.00,1.48
9193.00,1.48
9192.00,1.48
9191.00,1.48
9190.00,1.47
9189.00,1.47
9188.00,1.47
9187.00,1.47
9186.00,1.47
9185.00,1.47
9184.00,1.47
9183.00,1.47
9182.00,1.47
9181.00,1.47
9180.00,1.48
9179.00,1.48
9178.00,1.48
9177.00,1.48
9176.00,1.48
9175.00,1.48
9174.00,1.49
9173.00,1.49
9172.00,1.49
9171.00,1.49
9170.00,1.49
9169.00,1.49
9168.00,1.49
9167.00,1.49
9166.00,1.49
9165.00,1.49
9164.00,1.49
9163.00,1.49
9162.00,1.50
9161.00,1.50
9160.00,1.50
9159.00,1.50
9158.00,1.50
9157.00,1.50
9156.00,1.50
9155.00,1.50
9154.00,1.50
9153.00,1.50
9152.00,1.50
9151.00,1.51
9150.00,1.51
9149.00,1.51
9148.00,1.51
9147.00,1.50
9146.00,1.50
9145.00,1.50
9144.00,1.50
9143.00,1.50
9142.00,1.50
9141.00,1.50
9140.00,1.50
9139.00,1.50
9138.00,1.50
9137.00,1.50
9136.00,1.50
9135.00,1.49
9134.00,1.49
9133.00,1.49
9132.00,1.49
9131.00,1.49
9130.00,1.49
9129.00,1.49
9128.00,1.49
9127.00,1.49
9126.00,1.49
9125.00,1.49
9124.00,1.49
9123.00,1.49
9122.00,1.49
9121.00,1.49
9120.00,1.49
9119.00,1.49
9118.00,1.49
9117.00,1.49
9116.00,1.50
9115.00,1.50
9114.00,1.50
9113.00,1.50
9112.00,1.50
9111.00,1.50
9110.00,1.50
9109.00,1.50
9108.00,1.50
9107.00,1.50
9106.00,1.50
9105.00,1.50
9104.00,1.50
9103.00,1.50
9102.00,1.50
9101.00,1.49
9100.00,1.49
9099.00,1.49
9098.00,1.49
9097.00,1.49
9096.00,1.49
9095.00,1.48
9094.00,1.48
9093.00,1.48
9092.00,1.48
9091.00,1.48
9090.00,1.48
9089.00,1.48
9088.00,1.48
9087.00,1.48
9086.00,1.48
9085.00,1.48
9084.00,1.48
9083.00,1.48
9082.00,1.49
9081.00,1.49
9080.00,1.49
9079.00,1.49
9078.00,1.49
9077.00,1.49
9076.00,1.49
9075.00,1.50
9074.00,1.50
9073.00,1.50
9072.00,1.50
9071.00,1.50
9070.00,1.50
9069.00,1.50
9068.00,1.50
9067.00,1.51
9066.00,1.51
9065.00,1.51
9064.00,1.51
9063.00,1.51
9062.00,1.51
9061.00,1.51
9060.00,1.52
9059.00,1.52
9058.00,1.52
9057.00,1.52
9056.00,1.52
9055.00,1.51
9054.00,1.51
9053.00,1.51
9052.00,1.51
9051.00,1.51
9050.00,1.51
9049.00,1.50
9048.00,1.50
9047.00,1.50
9046.00,1.50
9045.00,1.49
9044.00,1.49
9043.00,1.49
9042.00,1.49
9041.00,1.48
9040.00,1.48
9039.00,1.48
9038.00,1.48
9037.00,1.48
9036.00,1.48
9035.00,1.48
9034.00,1.48
9033.00,1.47
9032.00,1.47
9031.00,1.48
9030.00,1.48
9029.00,1.48
9028.00,1.48
9027.00,1.48
9026.00,1.48
9025.00,1.48
9024.00,1.48
9023.00,1.48
9022.00,1.48
9021.00,1.49
9020.00,1.49
9019.00,1.49
9018.00,1.49
9017.00,1.49
9016.00,1.49
9015.00,1.50
9014.00,1.50
9013.00,1.50
9012.00,1.50
9011.00,1.50
9010.00,1.50
9009.00,1.50
9008.00,1.50
9007.00,1.50
9006.00,1.50
9005.00,1.50
9004.00,1.50
9003.00,1.50
9002.00,1.50
9001.00,1.50
9000.00,1.50
8999.00,1.50
8998.00,1.50
8997.00,1.50
8996.00,1.50
8995.00,1.50
8994.00,1.50
8993.00,1.50
8992.00,1.50
8991.00,1.50
8990.00,1.50
8989.00,1.50
8988.00,1.50
8987.00,1.50
8986.00,1.50
8985.00,1.50
8984.00,1.50
8983.00,1.50
8982.00,1.50
8981.00,1.50
8980.00,1.50
8979.00,1.50
8978.00,1.50
8977.00,1.50
8976.00,1.50
8975.00,1.50
8974.00,1.50
8973.00,1.50
8972.00,1.50
8971.00,1.50
8970.00,1.50
8969.00,1.50
8968.00,1.50
8967.00,1.50
8966.00,1.50
8965.00,1.50
8964.00,1.50
8963.00,1.50
8962.00,1.50
8961.00,1.50
8960.00,1.50
8959.00,1.50
8958.00,1.50
8957.00,1.50
8956.00,1.50
8955.00,1.51
8954.00,1.51
8953.00,1.51
8952.00,1.51
8951.00,1.51
8950.00,1.51
8949.00,1.52
8948.00,1.52
8947.00,1.52
8946.00,1.52
8945.00,1.52
8944.00,1.52
8943.00,1.52
8942.00,1.52
8941.00,1.52
8940.00,1.51
8939.00,1.51
8938.00,1.51
8937.00,1.51
8936.00,1.51
8935.00,1.51
8934.00,1.51
8933.00,1.51
8932.00,1.50
8931.00,1.50
8930.00,1.50
8929.00,1.50
8928.00,1.50
8927.00,1.49
8926.00,1.49
8925.00,1.49
8924.00,1.49
8923.00,1.48
8922.00,1.48
8921.00,1.48
8920.00,1.48
8919.00,1.48
8918.00,1.47
8917.00,1.47
8916.00,1.47
8915.00,1.47
8914.00,1.47
8913.00,1.47
8912.00,1.47
8911.00,1.47
8910.00,1.47
8909.00,1.47
8908.00,1.47
8907.00,1.47
8906.00,1.47
8905.00,1.48
8904.00,1.48
8903.00,1.48
8902.00,1.48
8901.00,1.48
8900.00,1.48
8899.00,1.48
8898.00,1.48
8897.00,1.48
8896.00,1.48
8895.00,1.48
8894.00,1.48
8893.00,1.48
8892.00,1.48
8891.00,1.48
8890.00,1.48
8889.00,1.48
8888.00,1.48
8887.00,1.48
8886.00,1.48
8885.00,1.48
8884.00,1.48
8883.00,1.48
8882.00,1.48
8881.00,1.48
8880.00,1.48
8879.00,1.48
8878.00,1.48
8877.00,1.48
8876.00,1.48
8875.00,1.47
8874.00,1.47
8873.00,1.47
8872.00,1.47
8871.00,1.47
8870.00,1.47
8869.00,1.47
8868.00,1.47
8867.00,1.47
8866.00,1.47
8865.00,1.47
8864.00,1.47
8863.00,1.47
8862.00,1.48
8861.00,1.48
8860.00,1.48
8859.00,1.48
8858.00,1.48
8857.00,1.48
8856.00,1.49
8855.00,1.49
8854.00,1.49
8853.00,1.49
8852.00,1.49
8851.00,1.49
8850.00,1.49
8849.00,1.49
8848.00,1.49
8847.00,1.49
8846.00,1.49
8845.00,1.49
8844.00,1.49
8843.00,1.48
8842.00,1.48
8841.00,1.48
8840.00,1.48
8839.00,1.48
8838.00,1.47
8837.00,1.47
8836.00,1.47
8835.00,1.47
8834.00,1.47
8833.00,1.47
8832.00,1.46
8831.00,1.46
8830.00,1.47
8829.00,1.47
8828.00,1.47
8827.00,1.47
8826.00,1.47
8825.00,1.47
8824.00,1.48
8823.00,1.48
8822.00,1.48
8821.00,1.48
8820.00,1.49
8819.00,1.49
8818.00,1.49
8817.00,1.49
8816.00,1.49
8815.00,1.49
8814.00,1.49
8813.00,1.49
8812.00,1.49
8811.00,1.48
8810.00,1.48
8809.00,1.48
8808.00,1.48
8807.00,1.47
8806.00,1.47
8805.00,1.47
8804.00,1.47
8803.00,1.46
8802.00,1.46
8801.00,1.46
8800.00,1.46
8799.00,1.45
8798.00,1.45
8797.00,1.45
8796.00,1.45
8795.00,1.45
8794.00,1.45
8793.00,1.45
8792.00,1.45
8791.00,1.45
8790.00,1.45
8789.00,1.45
8788.00,1.45
8787.00,1.45
8786.00,1.45
8785.00,1.45
8784.00,1.45
8783.00,1.45
8782.00,1.45
8781.00,1.46
8780.00,1.46
8779.00,1.46
8778.00,1.46
8777.00,1.46
8776.00,1.46
8775.00,1.46
8774.00,1.47
8773.00,1.47
8772.00,1.47
8771.00,1.47
8770.00,1.47
8769.00,1.47
8768.00,1.47
8767.00,1.47
8766.00,1.47
8765.00,1.47
8764.00,1.46
8763.00,1.46
8762.00,1.46
8761.00,1.46
8760.00,1.46
8759.00,1.46
8758.00,1.46
8757.00,1.46
8756.00,1.46
8755.00,1.46
8754.00,1.46
8753.00,1.46
8752.00,1.46
8751.00,1.46
8750.00,1.46
8749.00,1.46
8748.00,1.46
8747.00,1.46
8746.00,1.46
8745.00,1.46
8744.00,1.46
8743.00,1.46
8742.00,1.46
8741.00,1.45
8740.00,1.45
8739.00,1.45
8738.00,1.45
8737.00,1.45
8736.00,1.45
8735.00,1.45
8734.00,1.45
8733.00,1.45
8732.00,1.45
8731.00,1.45
8730.00,1.45
8729.00,1.44
8728.00,1.44
8727.00,1.44
8726.00,1.44
8725.00,1.44
8724.00,1.44
8723.00,1.44
8722.00,1.44
8721.00,1.44
8720.00,1.44
8719.00,1.44
8718.00,1.44
8717.00,1.44
8716.00,1.44
8715.00,1.44
8714.00,1.44
8713.00,1.44
8712.00,1.45
8711.00,1.45
8710.00,1.45
8709.00,1.45
8708.00,1.45
8707.00,1.45
8706.00,1.45
8705.00,1.45
8704.00,1.45
8703.00,1.45
8702.00,1.45
8701.00,1.45
8700.00,1.45
8699.00,1.45
8698.00,1.45
8697.00,1.45
8696.00,1.45
8695.00,1.45
8694.00,1.45
8693.00,1.45
8692.00,1.45
8691.00,1.45
8690.00,1.45
8689.00,1.45
8688.00,1.45
8687.00,1.45
8686.00,1.45
8685.00,1.45
8684.00,1.45
8683.00,1.45
8682.00,1.45
8681.00,1.45
8680.00,1.45
8679.00,1.44
8678.00,1.44
8677.00,1.44
8676.00,1.44
8675.00,1.44
8674.00,1.43
8673.00,1.43
8672.00,1.43
8671.00,1.43
8670.00,1.43
8669.00,1.42
8668.00,1.42
8667.00,1.42
8666.00,1.42
8665.00,1.42
8664.00,1.42
8663.00,1.42
8662.00,1.42
8661.00,1.41
8660.00,1.41
8659.00,1.41
8658.00,1.41
8657.00,1.41
8656.00,1.41
8655.00,1.41
8654.00,1.41
8653.00,1.41
8652.00,1.41
8651.00,1.41
8650.00,1.41
8649.00,1.41
8648.00,1.41
8647.00,1.41
8646.00,1.41
8645.00,1.41
8644.00,1.41
8643.00,1.42
8642.00,1.42
8641.00,1.42
8640.00,1.42
8639.00,1.42
8638.00,1.42
8637.00,1.42
8636.00,1.42
8635.00,1.42
8634.00,1.42
8633.00,1.42
8632.00,1.42
8631.00,1.42
8630.00,1.42
8629.00,1.42
8628.00,1.42
8627.00,1.42
8626.00,1.42
8625.00,1.42
8624.00,1.42
8623.00,1.42
8622.00,1.42
8621.00,1.42
8620.00,1.42
8619.00,1.42
8618.00,1.42
8617.00,1.42
8616.00,1.41
8615.00,1.41
8614.00,1.41
8613.00,1.41
8612.00,1.41
8611.00,1.41
8610.00,1.41
8609.00,1.41
8608.00,1.41
8607.00,1.41
8606.00,1.41
8605.00,1.41
8604.00,1.41
8603.00,1.41
8602.00,1.41
8601.00,1.40
8600.00,1.40
8599.00,1.40
8598.00,1.40
8597.00,1.40
8596.00,1.40
8595.00,1.40
8594.00,1.40
8593.00,1.40
8592.00,1.40
8591.00,1.40
8590.00,1.40
8589.00,1.40
8588.00,1.40
8587.00,1.40
8586.00,1.40
8585.00,1.40
8584.00,1.40
8583.00,1.41
8582.00,1.41
8581.00,1.41
8580.00,1.41
8579.00,1.41
8578.00,1.41
8577.00,1.41
8576.00,1.41
8575.00,1.41
8574.00,1.41
8573.00,1.41
8572.00,1.41
8571.00,1.40
8570.00,1.40
8569.00,1.40
8568.00,1.40
8567.00,1.40
8566.00,1.40
8565.00,1.40
8564.00,1.40
8563.00,1.40
8562.00,1.40
8561.00,1.40
8560.00,1.40
8559.00,1.40
8558.00,1.40
8557.00,1.40
8556.00,1.40
8555.00,1.40
8554.00,1.40
8553.00,1.40
8552.00,1.40
8551.00,1.40
8550.00,1.40
8549.00,1.40
8548.00,1.40
8547.00,1.39
8546.00,1.39
8545.00,1.39
8544.00,1.39
8543.00,1.39
8542.00,1.39
8541.00,1.39
8540.00,1.39
8539.00,1.39
8538.00,1.39
8537.00,1.39
8536.00,1.39
8535.00,1.39
8534.00,1.39
8533.00,1.39
8532.00,1.39
8531.00,1.39
8530.00,1.39
8529.00,1.39
8528.00,1.39
8527.00,1.39
8526.00,1.39
8525.00,1.39
8524.00,1.39
8523.00,1.39
8522.00,1.39
8521.00,1.39
8520.00,1.39
8519.00,1.39
8518.00,1.39
8517.00,1.39
8516.00,1.39
8515.00,1.39
8514.00,1.39
8513.00,1.39
8512.00,1.38
8511.00,1.38
8510.00,1.38
8509.00,1.38
8508.00,1.38
8507.00,1.38
8506.00,1.38
8505.00,1.38
8504.00,1.37
8503.00,1.37
8502.00,1.37
8501.00,1.37
8500.00,1.37
8499.00,1.36
8498.00,1.36
8497.00,1.36
8496.00,1.36
8495.00,1.36
8494.00,1.36
8493.00,1.35
8492.00,1.35
8491.00,1.35
8490.00,1.35
8489.00,1.35
8488.00,1.35
8487.00,1.35
8486.00,1.35
8485.00,1.35
8484.00,1.35
8483.00,1.35
8482.00,1.35
8481.00,1.35
8480.00,1.35
8479.00,1.35
8478.00,1.35
8477.00,1.35
8476.00,1.35
8475.00,1.35
8474.00,1.35
8473.00,1.35
8472.00,1.35
8471.00,1.35
8470.00,1.35
8469.00,1.35
8468.00,1.35
8467.00,1.35
8466.00,1.35
8465.00,1.35
8464.00,1.35
8463.00,1.35
8462.00,1.35
8461.00,1.35
8460.00,1.35
8459.00,1.34
8458.00,1.34
8457.00,1.34
8456.00,1.34
8455.00,1.34
8454.00,1.34
8453.00,1.33
8452.00,1.33
8451.00,1.33
8450.00,1.33
8449.00,1.33
8448.00,1.33
8447.00,1.33
8446.00,1.33
8445.00,1.33
8444.00,1.33
8443.00,1.33
8442.00,1.33
8441.00,1.33
8440.00,1.33
8439.00,1.33
8438.00,1.33
8437.00,1.33
8436.00,1.33
8435.00,1.33
8434.00,1.33
8433.00,1.33
8432.00,1.33
8431.00,1.33
8430.00,1.33
8429.00,1.33
8428.00,1.33
8427.00,1.33
8426.00,1.33
8425.00,1.33
8424.00,1.33
8423.00,1.33
8422.00,1.33
8421.00,1.33
8420.00,1.33
8419.00,1.33
8418.00,1.33
8417.00,1.33
8416.00,1.33
8415.00,1.33
8414.00,1.33
8413.00,1.34
8412.00,1.34
8411.00,1.34
8410.00,1.34
8409.00,1.34
8408.00,1.34
8407.00,1.34
8406.00,1.34
8405.00,1.34
8404.00,1.34
8403.00,1.34
8402.00,1.34
8401.00,1.34
8400.00,1.34
8399.00,1.34
8398.00,1.35
8397.00,1.35
8396.00,1.35
8395.00,1.35
8394.00,1.35
8393.00,1.35
8392.00,1.35
8391.00,1.35
8390.00,1.36
8389.00,1.36
8388.00,1.36
8387.00,1.36
8386.00,1.36
8385.00,1.37
8384.00,1.37
8383.00,1.37
8382.00,1.37
8381.00,1.37
8380.00,1.37
8379.00,1.38
8378.00,1.38
8377.00,1.38
8376.00,1.38
8375.00,1.38
8374.00,1.38
8373.00,1.38
8372.00,1.38
8371.00,1.38
8370.00,1.38
8369.00,1.38
8368.00,1.38
8367.00,1.38
8366.00,1.39
8365.00,1.39
8364.00,1.39
8363.00,1.39
8362.00,1.39
8361.00,1.39
8360.00,1.39
8359.00,1.39
8358.00,1.39
8357.00,1.39
8356.00,1.39
8355.00,1.39
8354.00,1.39
8353.00,1.39
8352.00,1.39
8351.00,1.39
8350.00,1.39
8349.00,1.39
8348.00,1.39
8347.00,1.39
8346.00,1.39
8345.00,1.39
8344.00,1.38
8343.00,1.38
8342.00,1.38
8341.00,1.38
8340.00,1.38
8339.00,1.38
8338.00,1.38
8337.00,1.37
8336.00,1.37
8335.00,1.37
8334.00,1.37
8333.00,1.37
8332.00,1.37
8331.00,1.37
8330.00,1.37
8329.00,1.37
8328.00,1.37
8327.00,1.37
8326.00,1.37
8325.00,1.37
8324.00,1.37
8323.00,1.37
8322.00,1.37
8321.00,1.37
8320.00,1.37
8319.00,1.37
8318.00,1.37
8317.00,1.37
8316.00,1.37
8315.00,1.37
8314.00,1.37
8313.00,1.38
8312.00,1.38
8311.00,1.38
8310.00,1.38
8309.00,1.38
8308.00,1.38
8307.00,1.38
8306.00,1.38
8305.00,1.38
8304.00,1.38
8303.00,1.38
8302.00,1.38
8301.00,1.38
8300.00,1.38
8299.00,1.38
8298.00,1.38
8297.00,1.38
8296.00,1.38
8295.00,1.38
8294.00,1.38
8293.00,1.38
8292.00,1.38
8291.00,1.38
8290.00,1.38
8289.00,1.38
8288.00,1.39
8287.00,1.39
8286.00,1.39
8285.00,1.39
8284.00,1.39
8283.00,1.39
8282.00,1.39
8281.00,1.39
8280.00,1.39
8279.00,1.39
8278.00,1.39
8277.00,1.39
8276.00,1.39
8275.00,1.39
8274.00,1.39
8273.00,1.39
8272.00,1.39
8271.00,1.39
8270.00,1.39
8269.00,1.39
8268.00,1.39
8267.00,1.39
8266.00,1.39
8265.00,1.39
8264.00,1.39
8263.00,1.39
8262.00,1.39
8261.00,1.39
8260.00,1.40
8259.00,1.40
8258.00,1.40
8257.00,1.40
8256.00,1.40
8255.00,1.40
8254.00,1.40
8253.00,1.40
8252.00,1.40
8251.00,1.40
8250.00,1.40
8249.00,1.40
8248.00,1.40
8247.00,1.40
8246.00,1.40
8245.00,1.40
8244.00,1.40
8243.00,1.40
8242.00,1.40
8241.00,1.40
8240.00,1.40
8239.00,1.40
8238.00,1.40
8237.00,1.40
8236.00,1.40
8235.00,1.40
8234.00,1.40
8233.00,1.40
8232.00,1.40
8231.00,1.40
8230.00,1.41
8229.00,1.41
8228.00,1.41
8227.00,1.41
8226.00,1.41
8225.00,1.41
8224.00,1.41
8223.00,1.41
8222.00,1.41
8221.00,1.41
8220.00,1.41
8219.00,1.41
8218.00,1.41
8217.00,1.41
8216.00,1.41
8215.00,1.41
8214.00,1.41
8213.00,1.41
8212.00,1.41
8211.00,1.41
8210.00,1.41
8209.00,1.41
8208.00,1.41
8207.00,1.41
8206.00,1.41
8205.00,1.41
8204.00,1.41
8203.00,1.41
8202.00,1.41
8201.00,1.42
8200.00,1.42
8199.00,1.42
8198.00,1.42
8197.00,1.42
8196.00,1.42
8195.00,1.42
8194.00,1.42
8193.00,1.42
8192.00,1.42
8191.00,1.42
8190.00,1.42
8189.00,1.42
8188.00,1.42
8187.00,1.42
8186.00,1.42
8185.00,1.42
8184.00,1.42
8183.00,1.42
8182.00,1.42
8181.00,1.42
8180.00,1.42
8179.00,1.42
8178.00,1.42
8177.00,1.42
8176.00,1.42
8175.00,1.42
8174.00,1.42
8173.00,1.42
8172.00,1.42
8171.00,1.43
8170.00,1.43
8169.00,1.43
8168.00,1.43
8167.00,1.43
8166.00,1.43
8165.00,1.43
8164.00,1.43
8163.00,1.43
8162.00,1.43
8161.00,1.43
8160.00,1.44
8159.00,1.44
8158.00,1.44
8157.00,1.44
8156.00,1.44
8155.00,1.44
8154.00,1.44
8153.00,1.44
8152.00,1.44
8151.00,1.44
8150.00,1.44
8149.00,1.44
8148.00,1.44
8147.00,1.44
8146.00,1.44
8145.00,1.44
8144.00,1.44
8143.00,1.44
8142.00,1.44
8141.00,1.44
8140.00,1.44
8139.00,1.44
8138.00,1.44
8137.00,1.44
8136.00,1.44
8135.00,1.43
8134.00,1.43
8133.00,1.43
8132.00,1.43
8131.00,1.43
8130.00,1.43
8129.00,1.43
8128.00,1.43
8127.00,1.43
8126.00,1.43
8125.00,1.43
8124.00,1.43
8123.00,1.43
8122.00,1.43
8121.00,1.43
8120.00,1.43
8119.00,1.43
8118.00,1.43
8117.00,1.43
8116.00,1.43
8115.00,1.43
8114.00,1.43
8113.00,1.43
8112.00,1.43
8111.00,1.43
8110.00,1.43
8109.00,1.43
8108.00,1.43
8107.00,1.43
8106.00,1.44
8105.00,1.44
8104.00,1.44
8103.00,1.44
8102.00,1.44
8101.00,1.44
8100.00,1.44
8099.00,1.44
8098.00,1.44
8097.00,1.44
8096.00,1.44
8095.00,1.44
8094.00,1.44
8093.00,1.44
8092.00,1.44
8091.00,1.45
8090.00,1.45
8089.00,1.45
8088.00,1.45
8087.00,1.45
8086.00,1.45
8085.00,1.45
8084.00,1.45
8083.00,1.45
8082.00,1.45
8081.00,1.45
8080.00,1.45
8079.00,1.45
8078.00,1.45
8077.00,1.45
8076.00,1.45
8075.00,1.45
8074.00,1.45
8073.00,1.45
8072.00,1.45
8071.00,1.45
8070.00,1.45
8069.00,1.45
8068.00,1.45
8067.00,1.45
8066.00,1.45
8065.00,1.45
8064.00,1.45
8063.00,1.45
8062.00,1.45
8061.00,1.45
8060.00,1.45
8059.00,1.45
8058.00,1.45
8057.00,1.45
8056.00,1.45
8055.00,1.45
8054.00,1.45
8053.00,1.46
8052.00,1.46
8051.00,1.46
8050.00,1.46
8049.00,1.46
8048.00,1.46
8047.00,1.46
8046.00,1.46
8045.00,1.46
8044.00,1.46
8043.00,1.46
8042.00,1.46
8041.00,1.46
8040.00,1.46
8039.00,1.46
8038.00,1.46
8037.00,1.46
8036.00,1.46
8035.00,1.46
8034.00,1.47
8033.00,1.47
8032.00,1.47
8031.00,1.47
8030.00,1.47
8029.00,1.47
8028.00,1.47
8027.00,1.47
8026.00,1.47
8025.00,1.47
8024.00,1.47
8023.00,1.47
8022.00,1.47
8021.00,1.47
8020.00,1.47
8019.00,1.47
8018.00,1.47
8017.00,1.47
8016.00,1.47
8015.00,1.47
8014.00,1.47
8013.00,1.47
8012.00,1.47
8011.00,1.47
8010.00,1.47
8009.00,1.47
8008.00,1.47
8007.00,1.47
8006.00,1.47
8005.00,1.47
8004.00,1.47
8003.00,1.47
8002.00,1.47
8001.00,1.47
8000.00,1.47
7999.00,1.47
7998.00,1.47
7997.00,1.47
7996.00,1.47
7995.00,1.47
7994.00,1.47
7993.00,1.47
7992.00,1.46
7991.00,1.46
7990.00,1.46
7989.00,1.46
7988.00,1.46
7987.00,1.46
7986.00,1.46
7985.00,1.46
7984.00,1.46
7983.00,1.46
7982.00,1.46
7981.00,1.46
7980.00,1.47
7979.00,1.47
7978.00,1.47
7977.00,1.47
7976.00,1.47
7975.00,1.47
7974.00,1.47
7973.00,1.47
7972.00,1.47
7971.00,1.47
7970.00,1.47
7969.00,1.48
7968.00,1.48
7967.00,1.48
7966.00,1.48
7965.00,1.48
7964.00,1.48
7963.00,1.48
7962.00,1.48
7961.00,1.48
7960.00,1.48
7959.00,1.48
7958.00,1.48
7957.00,1.48
7956.00,1.48
7955.00,1.48
7954.00,1.48
7953.00,1.48
7952.00,1.48
7951.00,1.48
7950.00,1.48
7949.00,1.48
7948.00,1.48
7947.00,1.48
7946.00,1.48
7945.00,1.48
7944.00,1.48
7943.00,1.48
7942.00,1.48
7941.00,1.48
7940.00,1.48
7939.00,1.49
7938.00,1.49
7937.00,1.49
7936.00,1.49
7935.00,1.49
7934.00,1.49
7933.00,1.49
7932.00,1.49
7931.00,1.49
7930.00,1.49
7929.00,1.49
7928.00,1.49
7927.00,1.49
7926.00,1.49
7925.00,1.49
7924.00,1.49
7923.00,1.49
7922.00,1.49
7921.00,1.49
7920.00,1.49
7919.00,1.49
7918.00,1.49
7917.00,1.49
7916.00,1.49
7915.00,1.49
7914.00,1.50
7913.00,1.50
7912.00,1.50
7911.00,1.50
7910.00,1.50
7909.00,1.50
7908.00,1.50
7907.00,1.50
7906.00,1.50
7905.00,1.50
7904.00,1.50
7903.00,1.50
7902.00,1.50
7901.00,1.50
7900.00,1.49
7899.00,1.49
7898.00,1.49
7897.00,1.49
7896.00,1.49
7895.00,1.49
7894.00,1.49
7893.00,1.49
7892.00,1.49
7891.00,1.49
7890.00,1.49
7889.00,1.49
7888.00,1.49
7887.00,1.49
7886.00,1.49
7885.00,1.49
7884.00,1.49
7883.00,1.49
7882.00,1.49
7881.00,1.49
7880.00,1.49
7879.00,1.49
7878.00,1.49
7877.00,1.49
7876.00,1.49
7875.00,1.49
7874.00,1.49
7873.00,1.49
7872.00,1.49
7871.00,1.49
7870.00,1.49
7869.00,1.49
7868.00,1.49
7867.00,1.49
7866.00,1.49
7865.00,1.50
7864.00,1.50
7863.00,1.50
7862.00,1.50
7861.00,1.50
7860.00,1.50
7859.00,1.50
7858.00,1.50
7857.00,1.50
7856.00,1.50
7855.00,1.50
7854.00,1.50
7853.00,1.50
7852.00,1.50
7851.00,1.50
7850.00,1.50
7849.00,1.50
7848.00,1.50
7847.00,1.50
7846.00,1.50
7845.00,1.50
7844.00,1.50
7843.00,1.50
7842.00,1.50
7841.00,1.50
7840.00,1.50
7839.00,1.50
7838.00,1.49
7837.00,1.49
7836.00,1.49
7835.00,1.49
7834.00,1.49
7833.00,1.49
7832.00,1.49
7831.00,1.49
7830.00,1.50
7829.00,1.50
7828.00,1.50
7827.00,1.50
7826.00,1.50
7825.00,1.50
7824.00,1.50
7823.00,1.50
7822.00,1.50
7821.00,1.50
7820.00,1.50
7819.00,1.50
7818.00,1.50
7817.00,1.51
7816.00,1.51
7815.00,1.51
7814.00,1.51
7813.00,1.51
7812.00,1.51
7811.00,1.51
7810.00,1.51
7809.00,1.51
7808.00,1.51
7807.00,1.51
7806.00,1.51
7805.00,1.51
7804.00,1.51
7803.00,1.51
7802.00,1.51
7801.00,1.51
7800.00,1.51
7799.00,1.51
7798.00,1.51
7797.00,1.51
7796.00,1.51
7795.00,1.51
7794.00,1.51
7793.00,1.51
7792.00,1.51
7791.00,1.51
7790.00,1.51
7789.00,1.51
7788.00,1.51
7787.00,1.51
7786.00,1.51
7785.00,1.51
7784.00,1.51
7783.00,1.51
7782.00,1.51
7781.00,1.51
7780.00,1.51
7779.00,1.51
7778.00,1.51
7777.00,1.51
7776.00,1.51
7775.00,1.51
7774.00,1.51
7773.00,1.51
7772.00,1.51
7771.00,1.51
7770.00,1.51
7769.00,1.51
7768.00,1.51
7767.00,1.51
7766.00,1.51
7765.00,1.51
7764.00,1.51
7763.00,1.51
7762.00,1.51
7761.00,1.51
7760.00,1.51
7759.00,1.52
7758.00,1.52
7757.00,1.52
7756.00,1.52
7755.00,1.52
7754.00,1.52
7753.00,1.52
7752.00,1.52
7751.00,1.52
7750.00,1.52
7749.00,1.52
7748.00,1.52
7747.00,1.52
7746.00,1.52
7745.00,1.52
7744.00,1.52
7743.00,1.52
7742.00,1.52
7741.00,1.52
7740.00,1.52
7739.00,1.52
7738.00,1.52
7737.00,1.52
7736.00,1.52
7735.00,1.52
7734.00,1.52
7733.00,1.52
7732.00,1.52
7731.00,1.52
7730.00,1.52
7729.00,1.52
7728.00,1.52
7727.00,1.52
7726.00,1.51
7725.00,1.51
7724.00,1.51
7723.00,1.51
7722.00,1.51
7721.00,1.51
7720.00,1.51
7719.00,1.51
7718.00,1.51
7717.00,1.51
7716.00,1.51
7715.00,1.51
7714.00,1.51
7713.00,1.51
7712.00,1.51
7711.00,1.51
7710.00,1.51
7709.00,1.51
7708.00,1.51
7707.00,1.51
7706.00,1.51
7705.00,1.51
7704.00,1.51
7703.00,1.52
7702.00,1.52
7701.00,1.52
7700.00,1.52
7699.00,1.52
7698.00,1.52
7697.00,1.52
7696.00,1.52
7695.00,1.52
7694.00,1.52
7693.00,1.52
7692.00,1.52
7691.00,1.52
7690.00,1.52
7689.00,1.52
7688.00,1.52
7687.00,1.52
7686.00,1.52
7685.00,1.52
7684.00,1.52
7683.00,1.52
7682.00,1.51
7681.00,1.51
7680.00,1.51
7679.00,1.51
7678.00,1.51
7677.00,1.51
7676.00,1.51
7675.00,1.51
7674.00,1.51
7673.00,1.51
7672.00,1.51
7671.00,1.51
7670.00,1.51
7669.00,1.51
7668.00,1.51
7667.00,1.51
7666.00,1.51
7665.00,1.51
7664.00,1.52
7663.00,1.52
7662.00,1.52
7661.00,1.52
7660.00,1.52
7659.00,1.52
7658.00,1.52
7657.00,1.52
7656.00,1.52
7655.00,1.52
7654.00,1.52
7653.00,1.52
7652.00,1.52
7651.00,1.52
7650.00,1.51
7649.00,1.51
7648.00,1.51
7647.00,1.51
7646.00,1.51
7645.00,1.51
7644.00,1.51
7643.00,1.51
7642.00,1.51
7641.00,1.51
7640.00,1.51
7639.00,1.51
7638.00,1.51
7637.00,1.51
7636.00,1.51
7635.00,1.51
7634.00,1.52
7633.00,1.52
7632.00,1.52
7631.00,1.52
7630.00,1.52
7629.00,1.52
7628.00,1.52
7627.00,1.52
7626.00,1.52
7625.00,1.52
7624.00,1.52
7623.00,1.52
7622.00,1.52
7621.00,1.52
7620.00,1.52
7619.00,1.52
7618.00,1.52
7617.00,1.52
7616.00,1.52
7615.00,1.52
7614.00,1.52
7613.00,1.52
7612.00,1.52
7611.00,1.52
7610.00,1.52
7609.00,1.52
7608.00,1.52
7607.00,1.52
7606.00,1.51
7605.00,1.51
7604.00,1.51
7603.00,1.51
7602.00,1.51
7601.00,1.51
7600.00,1.51
7599.00,1.51
7598.00,1.51
7597.00,1.51
7596.00,1.51
7595.00,1.51
7594.00,1.51
7593.00,1.51
7592.00,1.51
7591.00,1.51
7590.00,1.51
7589.00,1.51
7588.00,1.51
7587.00,1.51
7586.00,1.51
7585.00,1.51
7584.00,1.51
7583.00,1.51
7582.00,1.51
7581.00,1.51
7580.00,1.51
7579.00,1.51
7578.00,1.51
7577.00,1.51
7576.00,1.51
7575.00,1.51
7574.00,1.51
7573.00,1.51
7572.00,1.51
7571.00,1.51
7570.00,1.51
7569.00,1.51
7568.00,1.51
7567.00,1.51
7566.00,1.51
7565.00,1.51
7564.00,1.51
7563.00,1.51
7562.00,1.51
7561.00,1.51
7560.00,1.51
7559.00,1.51
7558.00,1.51
7557.00,1.51
7556.00,1.51
7555.00,1.51
7554.00,1.51
7553.00,1.51
7552.00,1.51
7551.00,1.51
7550.00,1.51
7549.00,1.51
7548.00,1.51
7547.00,1.51
7546.00,1.51
7545.00,1.51
7544.00,1.51
7543.00,1.51
7542.00,1.51
7541.00,1.51
7540.00,1.51
7539.00,1.51
7538.00,1.51
7537.00,1.51
7536.00,1.51
7535.00,1.51
7534.00,1.51
7533.00,1.51
7532.00,1.50
7531.00,1.50
7530.00,1.50
7529.00,1.50
7528.00,1.50
7527.00,1.50
7526.00,1.50
7525.00,1.50
7524.00,1.50
7523.00,1.49
7522.00,1.49
7521.00,1.49
7520.00,1.49
7519.00,1.49
7518.00,1.49
7517.00,1.49
7516.00,1.49
7515.00,1.49
7514.00,1.49
7513.00,1.49
7512.00,1.49
7511.00,1.49
7510.00,1.49
7509.00,1.49
7508.00,1.49
7507.00,1.49
7506.00,1.49
7505.00,1.49
7504.00,1.49
7503.00,1.49
7502.00,1.49
7501.00,1.49
7500.00,1.49
7499.00,1.49
7498.00,1.49
7497.00,1.49
7496.00,1.49
7495.00,1.49
7494.00,1.49
7493.00,1.49
7492.00,1.49
7491.00,1.49
7490.00,1.49
7489.00,1.48
7488.00,1.48
7487.00,1.48
7486.00,1.48
7485.00,1.48
7484.00,1.48
7483.00,1.48
7482.00,1.48
7481.00,1.48
7480.00,1.48
7479.00,1.48
7478.00,1.48
7477.00,1.48
7476.00,1.48
7475.00,1.48
7474.00,1.48
7473.00,1.48
7472.00,1.48
7471.00,1.48
7470.00,1.48
7469.00,1.48
7468.00,1.48
7467.00,1.48
7466.00,1.48
7465.00,1.48
7464.00,1.48
7463.00,1.48
7462.00,1.48
7461.00,1.47
7460.00,1.47
7459.00,1.47
7458.00,1.47
7457.00,1.47
7456.00,1.47
7455.00,1.47
7454.00,1.46
7453.00,1.46
7452.00,1.46
7451.00,1.46
7450.00,1.46
7449.00,1.46
7448.00,1.46
7447.00,1.46
7446.00,1.46
7445.00,1.46
7444.00,1.46
7443.00,1.46
7442.00,1.46
7441.00,1.46
7440.00,1.46
7439.00,1.46
7438.00,1.46
7437.00,1.46
7436.00,1.46
7435.00,1.46
7434.00,1.46
7433.00,1.46
7432.00,1.46
7431.00,1.46
7430.00,1.45
7429.00,1.45
7428.00,1.45
7427.00,1.45
7426.00,1.45
7425.00,1.45
7424.00,1.45
7423.00,1.45
7422.00,1.45
7421.00,1.45
7420.00,1.45
7419.00,1.45
7418.00,1.45
7417.00,1.45
7416.00,1.45
7415.00,1.45
7414.00,1.45
7413.00,1.45
7412.00,1.45
7411.00,1.45
7410.00,1.45
7409.00,1.45
7408.00,1.45
7407.00,1.45
7406.00,1.45
7405.00,1.45
7404.00,1.45
7403.00,1.44
7402.00,1.44
7401.00,1.44
7400.00,1.44
7399.00,1.44
7398.00,1.44
7397.00,1.44
7396.00,1.44
7395.00,1.44
7394.00,1.44
7393.00,1.43
7392.00,1.43
7391.00,1.43
7390.00,1.43
7389.00,1.43
7388.00,1.43
7387.00,1.43
7386.00,1.43
7385.00,1.43
7384.00,1.43
7383.00,1.42
7382.00,1.42
7381.00,1.42
7380.00,1.42
7379.00,1.42
7378.00,1.42
7377.00,1.42
7376.00,1.42
7375.00,1.42
7374.00,1.41
7373.00,1.41
7372.00,1.41
7371.00,1.41
7370.00,1.41
7369.00,1.41
7368.00,1.41
7367.00,1.41
7366.00,1.41
7365.00,1.41
7364.00,1.41
7363.00,1.41
7362.00,1.41
7361.00,1.41
7360.00,1.40
7359.00,1.40
7358.00,1.40
7357.00,1.40
7356.00,1.40
7355.00,1.40
7354.00,1.40
7353.00,1.40
7352.00,1.40
7351.00,1.40
7350.00,1.40
7349.00,1.40
7348.00,1.40
7347.00,1.40
7346.00,1.40
7345.00,1.40
7344.00,1.40
7343.00,1.40
7342.00,1.40
7341.00,1.40
7340.00,1.40
7339.00,1.40
7338.00,1.40
7337.00,1.40
7336.00,1.40
7335.00,1.40
7334.00,1.40
7333.00,1.40
7332.00,1.40
7331.00,1.40
7330.00,1.40
7329.00,1.40
7328.00,1.40
7327.00,1.40
7326.00,1.39
7325.00,1.39
7324.00,1.39
7323.00,1.39
7322.00,1.39
7321.00,1.39
7320.00,1.39
7319.00,1.39
7318.00,1.39
7317.00,1.39
7316.00,1.39
7315.00,1.39
7314.00,1.39
7313.00,1.39
7312.00,1.38
7311.00,1.38
7310.00,1.38
7309.00,1.38
7308.00,1.38
7307.00,1.38
7306.00,1.38
7305.00,1.38
7304.00,1.38
7303.00,1.37
7302.00,1.37
7301.00,1.37
7300.00,1.37
7299.00,1.37
7298.00,1.37
7297.00,1.37
7296.00,1.37
7295.00,1.37
7294.00,1.37
7293.00,1.37
7292.00,1.36
7291.00,1.36
7290.00,1.36
7289.00,1.36
7288.00,1.36
7287.00,1.36
7286.00,1.36
7285.00,1.36
7284.00,1.36
7283.00,1.35
7282.00,1.35
7281.00,1.35
7280.00,1.35
7279.00,1.35
7278.00,1.35
7277.00,1.35
7276.00,1.34
7275.00,1.34
7274.00,1.34
7273.00,1.34
7272.00,1.34
7271.00,1.34
7270.00,1.34
7269.00,1.34
7268.00,1.34
7267.00,1.34
7266.00,1.33
7265.00,1.33
7264.00,1.33
7263.00,1.33
7262.00,1.33
7261.00,1.33
7260.00,1.33
7259.00,1.33
7258.00,1.33
7257.00,1.33
7256.00,1.33
7255.00,1.33
7254.00,1.32
7253.00,1.32
7252.00,1.32
7251.00,1.32
7250.00,1.32
7249.00,1.32
7248.00,1.31
7247.00,1.31
7246.00,1.31
7245.00,1.31
7244.00,1.31
7243.00,1.30
7242.00,1.30
7241.00,1.30
7240.00,1.29
7239.00,1.29
7238.00,1.29
7237.00,1.29
7236.00,1.28
7235.00,1.28
7234.00,1.28
7233.00,1.27
7232.00,1.27
7231.00,1.27
7230.00,1.26
7229.00,1.26
7228.00,1.25
7227.00,1.25
7226.00,1.25
7225.00,1.24
7224.00,1.24
7223.00,1.24
7222.00,1.23
7221.00,1.23
7220.00,1.23
7219.00,1.23
7218.00,1.22
7217.00,1.22
7216.00,1.22
7215.00,1.21
7214.00,1.21
7213.00,1.21
7212.00,1.21
7211.00,1.20
7210.00,1.20
7209.00,1.20
7208.00,1.19
7207.00,1.19
7206.00,1.19
7205.00,1.18
7204.00,1.18
7203.00,1.18
7202.00,1.17
7201.00,1.17
7200.00,1.17
7199.00,1.17
7198.00,1.16
7197.00,1.16
7196.00,1.16
7195.00,1.15
7194.00,1.15
7193.00,1.15
7192.00,1.14
7191.00,1.14
7190.00,1.14
7189.00,1.14
7188.00,1.13
7187.00,1.13
7186.00,1.13
7185.00,1.12
7184.00,1.12
7183.00,1.12
7182.00,1.12
7181.00,1.11
7180.00,1.11
7179.00,1.11
7178.00,1.10
7177.00,1.10
7176.00,1.10
7175.00,1.10
7174.00,1.09
7173.00,1.09
7172.00,1.09
7171.00,1.08
7170.00,1.08
7169.00,1.08
7168.00,1.07
7167.00,1.07
7166.00,1.07
7165.00,1.07
7164.00,1.06
7163.00,1.06
7162.00,1.06
7161.00,1.05
7160.00,1.05
7159.00,1.05
7158.00,1.05
7157.00,1.04
7156.00,1.04
7155.00,1.04
7154.00,1.04
7153.00,1.03
7152.00,1.03
7151.00,1.03
7150.00,1.02
7149.00,1.02
7148.00,1.02
7147.00,1.02
7146.00,1.01
7145.00,1.01
7144.00,1.01
7143.00,1.01
7142.00,1.00
7141.00,1.00
7140.00,1.00
7139.00,1.00
7138.00,0.99
7137.00,0.99
7136.00,0.99
7135.00,0.98
7134.00,0.98
7133.00,0.98
7132.00,0.98
7131.00,0.97
7130.00,0.97
7129.00,0.97
7128.00,0.96
7127.00,0.96
7126.00,0.96
7125.00,0.96
7124.00,0.95
7123.00,0.95
7122.00,0.95
7121.00,0.94
7120.00,0.94
7119.00,0.94
7118.00,0.94
7117.00,0.93
7116.00,0.93
7115.00,0.93
7114.00,0.93
7113.00,0.92
7112.00,0.92
7111.00,0.92
7110.00,0.92
7109.00,0.92
7108.00,0.91
7107.00,0.91
7106.00,0.91
7105.00,0.91
7104.00,0.90
7103.00,0.90
7102.00,0.90
7101.00,0.90
7100.00,0.90
7099.00,0.89
7098.00,0.89
7097.00,0.89
7096.00,0.89
7095.00,0.88
7094.00,0.88
7093.00,0.88
7092.00,0.88
7091.00,0.88
7090.00,0.87
7089.00,0.87
7088.00,0.87
7087.00,0.87
7086.00,0.87
7085.00,0.86
7084.00,0.86
7083.00,0.86
7082.00,0.86
7081.00,0.86
7080.00,0.86
7079.00,0.86
7078.00,0.85
7077.00,0.85
7076.00,0.85
7075.00,0.85
7074.00,0.85
7073.00,0.85
7072.00,0.85
7071.00,0.85
7070.00,0.84
7069.00,0.84
7068.00,0.84
7067.00,0.84
7066.00,0.84
7065.00,0.84
7064.00,0.84
7063.00,0.83
7062.00,0.83
7061.00,0.83
7060.00,0.83
7059.00,0.83
7058.00,0.83
7057.00,0.83
7056.00,0.83
7055.00,0.83
7054.00,0.82
7053.00,0.82
7052.00,0.82
7051.00,0.82
7050.00,0.82
7049.00,0.82
7048.00,0.82
7047.00,0.82
7046.00,0.82
7045.00,0.81
7044.00,0.81
7043.00,0.81
7042.00,0.81
7041.00,0.81
7040.00,0.81
7039.00,0.81
7038.00,0.81
7037.00,0.80
7036.00,0.80
7035.00,0.80
7034.00,0.80
7033.00,0.80
7032.00,0.80
7031.00,0.80
7030.00,0.79
7029.00,0.79
7028.00,0.79
7027.00,0.79
7026.00,0.79
7025.00,0.79
7024.00,0.78
7023.00,0.78
7022.00,0.78
7021.00,0.78
7020.00,0.78
7019.00,0.78
7018.00,0.78
7017.00,0.78
7016.00,0.78
7015.00,0.78
7014.00,0.77
7013.00,0.77
7012.00,0.77
7011.00,0.77
7010.00,0.77
7009.00,0.77
7008.00,0.77
7007.00,0.77
7006.00,0.77
7005.00,0.77
7004.00,0.77
7003.00,0.77
7002.00,0.77
7001.00,0.77
7000.00,0.77
6999.00,0.76
6998.00,0.76
6997.00,0.76
6996.00,0.76
6995.00,0.76
6994.00,0.76
6993.00,0.76
6992.00,0.76
6991.00,0.76
6990.00,0.76
6989.00,0.76
6988.00,0.76
6987.00,0.76
6986.00,0.76
6985.00,0.76
6984.00,0.76
6983.00,0.76
6982.00,0.75
6981.00,0.75
6980.00,0.75
6979.00,0.75
6978.00,0.75
6977.00,0.75
6976.00,0.75
6975.00,0.75
6974.00,0.75
6973.00,0.74
6972.00,0.74
6971.00,0.74
6970.00,0.74
6969.00,0.74
6968.00,0.74
6967.00,0.74
6966.00,0.74
6965.00,0.74
6964.00,0.74
6963.00,0.73
6962.00,0.73
6961.00,0.73
6960.00,0.73
6959.00,0.73
6958.00,0.73
6957.00,0.73
6956.00,0.73
6955.00,0.73
6954.00,0.73
6953.00,0.73
6952.00,0.73
6951.00,0.73
6950.00,0.73
6949.00,0.73
6948.00,0.73
6947.00,0.73
6946.00,0.73
6945.00,0.73
6944.00,0.73
6943.00,0.73
6942.00,0.73
6941.00,0.73
6940.00,0.73
6939.00,0.73
6938.00,0.73
6937.00,0.73
6936.00,0.73
6935.00,0.73
6934.00,0.73
6933.00,0.73
6932.00,0.73
6931.00,0.73
6930.00,0.73
6929.00,0.73
6928.00,0.73
6927.00,0.73
6926.00,0.73
6925.00,0.73
6924.00,0.73
6923.00,0.72
6922.00,0.72
6921.00,0.72
6920.00,0.72
6919.00,0.72
6918.00,0.72
6917.00,0.72
6916.00,0.72
6915.00,0.72
6914.00,0.72
6913.00,0.72
6912.00,0.71
6911.00,0.71
6910.00,0.71
6909.00,0.71
6908.00,0.71
6907.00,0.71
6906.00,0.71
6905.00,0.71
6904.00,0.71
6903.00,0.71
6902.00,0.71
6901.00,0.71
6900.00,0.71
6899.00,0.71
6898.00,0.71
6897.00,0.71
6896.00,0.71
6895.00,0.71
6894.00,0.71
6893.00,0.71
6892.00,0.71
6891.00,0.71
6890.00,0.71
6889.00,0.71
6888.00,0.71
6887.00,0.71
6886.00,0.71
6885.00,0.71
6884.00,0.71
6883.00,0.71
6882.00,0.71
6881.00,0.71
6880.00,0.71
6879.00,0.71
6878.00,0.71
6877.00,0.71
6876.00,0.71
6875.00,0.71
6874.00,0.71
6873.00,0.71
6872.00,0.71
6871.00,0.71
6870.00,0.71
6869.00,0.71
6868.00,0.71
6867.00,0.71
6866.00,0.72
6865.00,0.72
6864.00,0.72
6863.00,0.72
6862.00,0.72
6861.00,0.72
6860.00,0.72
6859.00,0.72
6858.00,0.72
6857.00,0.72
6856.00,0.71
6855.00,0.71
6854.00,0.71
6853.00,0.71
6852.00,0.71
6851.00,0.71
6850.00,0.71
6849.00,0.71
6848.00,0.71
6847.00,0.71
6846.00,0.71
6845.00,0.71
6844.00,0.71
6843.00,0.71
6842.00,0.71
6841.00,0.71
6840.00,0.71
6839.00,0.71
6838.00,0.71
6837.00,0.71
6836.00,0.71
6835.00,0.71
6834.00,0.72
6833.00,0.72
6832.00,0.72
6831.00,0.72
6830.00,0.72
6829.00,0.72
6828.00,0.72
6827.00,0.72
6826.00,0.72
6825.00,0.72
6824.00,0.72
6823.00,0.72
6822.00,0.72
6821.00,0.72
6820.00,0.73
6819.00,0.73
6818.00,0.73
6817.00,0.73
6816.00,0.73
6815.00,0.73
6814.00,0.73
6813.00,0.73
6812.00,0.73
6811.00,0.73
6810.00,0.73
6809.00,0.73
6808.00,0.73
6807.00,0.73
6806.00,0.73
6805.00,0.73
6804.00,0.73
6803.00,0.73
6802.00,0.73
6801.00,0.73
6800.00,0.73
6799.00,0.73
6798.00,0.73
6797.00,0.73
6796.00,0.73
6795.00,0.73
6794.00,0.73
6793.00,0.73
6792.00,0.73
6791.00,0.73
6790.00,0.73
6789.00,0.73
6788.00,0.73
6787.00,0.73
6786.00,0.73
6785.00,0.73
6784.00,0.74
6783.00,0.74
6782.00,0.74
6781.00,0.74
6780.00,0.74
6779.00,0.74
6778.00,0.74
6777.00,0.74
6776.00,0.74
6775.00,0.75
6774.00,0.75
6773.00,0.75
6772.00,0.75
6771.00,0.75
6770.00,0.75
6769.00,0.75
6768.00,0.75
6767.00,0.75
6766.00,0.75
6765.00,0.75
6764.00,0.75
6763.00,0.75
6762.00,0.75
6761.00,0.75
6760.00,0.75
6759.00,0.75
6758.00,0.76
6757.00,0.76
6756.00,0.76
6755.00,0.76
6754.00,0.76
6753.00,0.76
6752.00,0.76
6751.00,0.76
6750.00,0.76
6749.00,0.76
6748.00,0.76
6747.00,0.76
6746.00,0.76
6745.00,0.76
6744.00,0.76
6743.00,0.76
6742.00,0.76
6741.00,0.76
6740.00,0.76
6739.00,0.76
6738.00,0.76
6737.00,0.76
6736.00,0.76
6735.00,0.76
6734.00,0.76
6733.00,0.77
6732.00,0.77
6731.00,0.77
6730.00,0.77
6729.00,0.77
6728.00,0.77
6727.00,0.77
6726.00,0.77
6725.00,0.77
6724.00,0.77
6723.00,0.77
6722.00,0.78
6721.00,0.78
6720.00,0.78
6719.00,0.78
6718.00,0.78
6717.00,0.78
6716.00,0.78
6715.00,0.78
6714.00,0.79
6713.00,0.79
6712.00,0.79
6711.00,0.79
6710.00,0.79
6709.00,0.79
6708.00,0.79
6707.00,0.79
6706.00,0.80
6705.00,0.80
6704.00,0.80
6703.00,0.80
6702.00,0.80
6701.00,0.80
6700.00,0.80
6699.00,0.80
6698.00,0.80
6697.00,0.81
6696.00,0.81
6695.00,0.81
6694.00,0.81
6693.00,0.81
6692.00,0.81
6691.00,0.81
6690.00,0.81
6689.00,0.81
6688.00,0.81
6687.00,0.81
6686.00,0.81
6685.00,0.81
6684.00,0.81
6683.00,0.81
6682.00,0.81
6681.00,0.81
6680.00,0.82
6679.00,0.82
6678.00,0.82
6677.00,0.82
6676.00,0.82
6675.00,0.82
6674.00,0.82
6673.00,0.82
6672.00,0.82
6671.00,0.82
6670.00,0.82
6669.00,0.82
6668.00,0.82
6667.00,0.82
6666.00,0.82
6665.00,0.82
6664.00,0.82
6663.00,0.82
6662.00,0.82
6661.00,0.83
6660.00,0.83
6659.00,0.83
6658.00,0.83
6657.00,0.83
6656.00,0.83
6655.00,0.83
6654.00,0.83
6653.00,0.84
6652.00,0.84
6651.00,0.84
6650.00,0.84
6649.00,0.84
6648.00,0.84
6647.00,0.84
6646.00,0.84
6645.00,0.84
6644.00,0.85
6643.00,0.85
6642.00,0.85
6641.00,0.85
6640.00,0.85
6639.00,0.85
6638.00,0.85
6637.00,0.85
6636.00,0.85
6635.00,0.85
6634.00,0.85
6633.00,0.85
6632.00,0.85
6631.00,0.85
6630.00,0.86
6629.00,0.86
6628.00,0.86
6627.00,0.86
6626.00,0.86
6625.00,0.86
6624.00,0.86
6623.00,0.87
6622.00,0.87
6621.00,0.87
6620.00,0.87
6619.00,0.87
6618.00,0.87
6617.00,0.87
6616.00,0.87
6615.00,0.87
6614.00,0.88
6613.00,0.88
6612.00,0.88
6611.00,0.88
6610.00,0.88
6609.00,0.88
6608.00,0.88
6607.00,0.89
6606.00,0.89
6605.00,0.89
6604.00,0.89
6603.00,0.89
6602.00,0.89
6601.00,0.89
6600.00,0.90
6599.00,0.90
6598.00,0.90
6597.00,0.90
6596.00,0.90
6595.00,0.90
6594.00,0.90
6593.00,0.91
6592.00,0.91
6591.00,0.91
6590.00,0.91
6589.00,0.91
6588.00,0.91
6587.00,0.91
6586.00,0.91
6585.00,0.91
6584.00,0.91
6583.00,0.91
6582.00,0.91
6581.00,0.91
6580.00,0.92
6579.00,0.92
6578.00,0.92
6577.00,0.92
6576.00,0.92
6575.00,0.92
6574.00,0.92
6573.00,0.92
6572.00,0.92
6571.00,0.92
6570.00,0.93
6569.00,0.93
6568.00,0.93
6567.00,0.93
6566.00,0.93
6565.00,0.93
6564.00,0.93
6563.00,0.93
6562.00,0.93
6561.00,0.93
6560.00,0.93
6559.00,0.93
6558.00,0.93
6557.00,0.94
6556.00,0.94
6555.00,0.94
6554.00,0.94
6553.00,0.94
6552.00,0.94
6551.00,0.94
6550.00,0.94
6549.00,0.94
6548.00,0.94
6547.00,0.94
6546.00,0.94
6545.00,0.94
6544.00,0.94
6543.00,0.95
6542.00,0.95
6541.00,0.95
6540.00,0.95
6539.00,0.95
6538.00,0.95
6537.00,0.95
6536.00,0.95
6535.00,0.95
6534.00,0.95
6533.00,0.95
6532.00,0.96
6531.00,0.96
6530.00,0.96
6529.00,0.96
6528.00,0.96
6527.00,0.96
6526.00,0.96
6525.00,0.96
6524.00,0.97
6523.00,0.97
6522.00,0.97
6521.00,0.97
6520.00,0.97
6519.00,0.97
6518.00,0.97
6517.00,0.97
6516.00,0.97
6515.00,0.97
6514.00,0.97
6513.00,0.97
6512.00,0.97
6511.00,0.97
6510.00,0.97
6509.00,0.98
6508.00,0.98
6507.00,0.98
6506.00,0.98
6505.00,0.98
6504.00,0.98
6503.00,0.98
6502.00,0.98
6501.00,0.98
6500.00,0.98
6499.00,0.98
6498.00,0.98
6497.00,0.98
6496.00,0.98
6495.00,0.98
6494.00,0.98
6493.00,0.98
6492.00,0.98
6491.00,0.98
6490.00,0.98
6489.00,0.98
6488.00,0.98
6487.00,0.98
6486.00,0.98
6485.00,0.98
6484.00,0.98
6483.00,0.98
6482.00,0.99
6481.00,0.99
6480.00,0.99
6479.00,0.99
6478.00,0.99
6477.00,0.99
6476.00,0.99
6475.00,0.99
6474.00,0.99
6473.00,0.99
6472.00,0.99
6471.00,0.99
6470.00,0.99
6469.00,0.99
6468.00,1.00
6467.00,1.00
6466.00,1.00
6465.00,1.00
6464.00,1.00
6463.00,1.00
6462.00,1.00
6461.00,1.00
6460.00,1.00
6459.00,1.00
6458.00,1.00
6457.00,1.00
6456.00,1.00
6455.00,1.00
6454.00,1.00
6453.00,1.00
6452.00,1.01
6451.00,1.01
6450.00,1.01
6449.00,1.01
6448.00,1.01
6447.00,1.01
6446.00,1.01
6445.00,1.01
6444.00,1.01
6443.00,1.01
6442.00,1.01
6441.00,1.01
6440.00,1.01
6439.00,1.01
6438.00,1.01
6437.00,1.01
6436.00,1.01
6435.00,1.01
6434.00,1.01
6433.00,1.01
6432.00,1.02
6431.00,1.02
6430.00,1.02
6429.00,1.02
6428.00,1.02
6427.00,1.02
6426.00,1.02
6425.00,1.02
6424.00,1.02
6423.00,1.02
6422.00,1.02
6421.00,1.02
6420.00,1.02
6419.00,1.02
6418.00,1.02
6417.00,1.03
6416.00,1.03
6415.00,1.03
6414.00,1.03
6413.00,1.03
6412.00,1.03
6411.00,1.03
6410.00,1.03
6409.00,1.03
6408.00,1.03
6407.00,1.03
6406.00,1.03
6405.00,1.03
6404.00,1.03
6403.00,1.03
6402.00,1.03
6401.00,1.03
6400.00,1.03
6399.00,1.03
6398.00,1.03
6397.00,1.03
6396.00,1.03
6395.00,1.03
6394.00,1.04
6393.00,1.04
6392.00,1.04
6391.00,1.04
6390.00,1.04
6389.00,1.04
6388.00,1.04
6387.00,1.04
6386.00,1.04
6385.00,1.04
6384.00,1.04
6383.00,1.04
6382.00,1.04
6381.00,1.04
6380.00,1.04
6379.00,1.04
6378.00,1.04
6377.00,1.04
6376.00,1.05
6375.00,1.05
6374.00,1.05
6373.00,1.05
6372.00,1.05
6371.00,1.05
6370.00,1.05
6369.00,1.05
6368.00,1.05
6367.00,1.05
6366.00,1.05
6365.00,1.05
6364.00,1.05
6363.00,1.05
6362.00,1.05
6361.00,1.06
6360.00,1.06
6359.00,1.06
6358.00,1.06
6357.00,1.06
6356.00,1.06
6355.00,1.06
6354.00,1.06
6353.00,1.06
6352.00,1.06
6351.00,1.06
6350.00,1.06
6349.00,1.07
6348.00,1.07
6347.00,1.07
6346.00,1.07
6345.00,1.07
6344.00,1.07
6343.00,1.07
6342.00,1.07
6341.00,1.08
6340.00,1.08
6339.00,1.08
6338.00,1.08
6337.00,1.08
6336.00,1.08
6335.00,1.08
6334.00,1.08
6333.00,1.08
6332.00,1.08
6331.00,1.08
6330.00,1.08
6329.00,1.09
6328.00,1.09
6327.00,1.09
6326.00,1.09
6325.00,1.09
6324.00,1.09
6323.00,1.09
6322.00,1.09
6321.00,1.09
6320.00,1.09
6319.00,1.10
6318.00,1.10
6317.00,1.10
6316.00,1.10
6315.00,1.10
6314.00,1.10
6313.00,1.10
6312.00,1.11
6311.00,1.11
6310.00,1.11
6309.00,1.11
6308.00,1.11
6307.00,1.11
6306.00,1.11
6305.00,1.11
6304.00,1.11
6303.00,1.12
6302.00,1.12
6301.00,1.12
6300.00,1.12
6299.00,1.12
6298.00,1.12
6297.00,1.12
6296.00,1.12
6295.00,1.12
6294.00,1.12
6293.00,1.12
6292.00,1.12
6291.00,1.12
6290.00,1.12
6289.00,1.13
6288.00,1.13
6287.00,1.13
6286.00,1.13
6285.00,1.13
6284.00,1.13
6283.00,1.13
6282.00,1.13
6281.00,1.13
6280.00,1.14
6279.00,1.14
6278.00,1.14
6277.00,1.14
6276.00,1.14
6275.00,1.14
6274.00,1.14
6273.00,1.15
6272.00,1.15
6271.00,1.15
6270.00,1.15
6269.00,1.15
6268.00,1.15
6267.00,1.15
6266.00,1.15
6265.00,1.15
6264.00,1.16
6263.00,1.16
6262.00,1.16
6261.00,1.16
6260.00,1.16
6259.00,1.16
6258.00,1.16
6257.00,1.16
6256.00,1.16
6255.00,1.16
6254.00,1.16
6253.00,1.17
6252.00,1.17
6251.00,1.17
6250.00,1.17
6249.00,1.17
6248.00,1.17
6247.00,1.17
6246.00,1.17
6245.00,1.17
6244.00,1.17
6243.00,1.17
6242.00,1.17
6241.00,1.17
6240.00,1.17
6239.00,1.18
6238.00,1.18
6237.00,1.18
6236.00,1.18
6235.00,1.18
6234.00,1.18
6233.00,1.18
6232.00,1.19
6231.00,1.19
6230.00,1.19
6229.00,1.19
6228.00,1.19
6227.00,1.19
6226.00,1.19
6225.00,1.19
6224.00,1.20
6223.00,1.20
6222.00,1.20
6221.00,1.20
6220.00,1.20
6219.00,1.20
6218.00,1.20
6217.00,1.20
6216.00,1.21
6215.00,1.21
6214.00,1.21
6213.00,1.21
6212.00,1.21
6211.00,1.21
6210.00,1.21
6209.00,1.21
6208.00,1.22
6207.00,1.22
6206.00,1.22
6205.00,1.22
6204.00,1.22
6203.00,1.22
6202.00,1.22
6201.00,1.23
6200.00,1.23
6199.00,1.23
6198.00,1.23
6197.00,1.23
6196.00,1.23
6195.00,1.23
6194.00,1.23
6193.00,1.23
6192.00,1.23
6191.00,1.24
6190.00,1.24
6189.00,1.24
6188.00,1.24
6187.00,1.24
6186.00,1.24
6185.00,1.24
6184.00,1.24
6183.00,1.25
6182.00,1.25
6181.00,1.25
6180.00,1.25
6179.00,1.25
6178.00,1.25
6177.00,1.26
6176.00,1.26
6175.00,1.26
6174.00,1.26
6173.00,1.26
6172.00,1.26
6171.00,1.27
6170.00,1.27
6169.00,1.27
6168.00,1.27
6167.00,1.27
6166.00,1.27
6165.00,1.27
6164.00,1.27
6163.00,1.28
6162.00,1.28
6161.00,1.28
6160.00,1.28
6159.00,1.28
6158.00,1.28
6157.00,1.28
6156.00,1.28
6155.00,1.28
6154.00,1.29
6153.00,1.29
6152.00,1.29
6151.00,1.29
6150.00,1.29
6149.00,1.29
6148.00,1.29
6147.00,1.29
6146.00,1.30
6145.00,1.30
6144.00,1.30
6143.00,1.30
6142.00,1.30
6141.00,1.31
6140.00,1.31
6139.00,1.31
6138.00,1.31
6137.00,1.31
6136.00,1.32
6135.00,1.32
6134.00,1.32
6133.00,1.32
6132.00,1.32
6131.00,1.32
6130.00,1.32
6129.00,1.32
6128.00,1.33
6127.00,1.33
6126.00,1.33
6125.00,1.33
6124.00,1.33
6123.00,1.33
6122.00,1.33
6121.00,1.33
6120.00,1.33
6119.00,1.33
6118.00,1.33
6117.00,1.33
6116.00,1.34
6115.00,1.34
6114.00,1.34
6113.00,1.34
6112.00,1.34
6111.00,1.34
6110.00,1.34
6109.00,1.34
6108.00,1.34
6107.00,1.35
6106.00,1.35
6105.00,1.35
6104.00,1.35
6103.00,1.35
6102.00,1.35
6101.00,1.35
6100.00,1.35
6099.00,1.35
6098.00,1.36
6097.00,1.36
6096.00,1.36
6095.00,1.36
6094.00,1.36
6093.00,1.36
6092.00,1.36
6091.00,1.37
6090.00,1.37
6089.00,1.37
6088.00,1.37
6087.00,1.37
6086.00,1.37
6085.00,1.38
6084.00,1.38
6083.00,1.38
6082.00,1.38
6081.00,1.38
6080.00,1.38
6079.00,1.38
6078.00,1.39
6077.00,1.39
6076.00,1.39
6075.00,1.39
6074.00,1.39
6073.00,1.39
6072.00,1.39
6071.00,1.39
6070.00,1.39
6069.00,1.39
6068.00,1.39
6067.00,1.39
6066.00,1.40
6065.00,1.40
6064.00,1.40
6063.00,1.40
6062.00,1.40
6061.00,1.40
6060.00,1.40
6059.00,1.40
6058.00,1.40
6057.00,1.40
6056.00,1.41
6055.00,1.41
6054.00,1.41
6053.00,1.41
6052.00,1.41
6051.00,1.41
6050.00,1.41
6049.00,1.41
6048.00,1.41
6047.00,1.41
6046.00,1.41
6045.00,1.41
6044.00,1.41
6043.00,1.41
6042.00,1.41
6041.00,1.41
6040.00,1.41
6039.00,1.41
6038.00,1.42
6037.00,1.42
6036.00,1.42
6035.00,1.42
6034.00,1.42
6033.00,1.42
6032.00,1.42
6031.00,1.42
6030.00,1.42
6029.00,1.42
6028.00,1.42
6027.00,1.42
6026.00,1.42
6025.00,1.42
6024.00,1.42
6023.00,1.42
6022.00,1.42
6021.00,1.42
6020.00,1.43
6019.00,1.43
6018.00,1.43
6017.00,1.43
6016.00,1.43
6015.00,1.43
6014.00,1.43
6013.00,1.43
6012.00,1.43
6011.00,1.43
6010.00,1.43
6009.00,1.43
6008.00,1.43
6007.00,1.42
6006.00,1.42
6005.00,1.42
6004.00,1.42
6003.00,1.42
6002.00,1.42
6001.00,1.42
6000.00,1.42
5999.00,1.42
5998.00,1.42
5997.00,1.42
5996.00,1.41
5995.00,1.41
5994.00,1.41
5993.00,1.41
5992.00,1.41
5991.00,1.41
5990.00,1.41
5989.00,1.41
5988.00,1.40
5987.00,1.40
5986.00,1.40
5985.00,1.40
5984.00,1.40
5983.00,1.39
5982.00,1.39
5981.00,1.39
5980.00,1.39
5979.00,1.38
5978.00,1.38
5977.00,1.38
5976.00,1.37
5975.00,1.37
5974.00,1.36
5973.00,1.36
5972.00,1.35
5971.00,1.35
5970.00,1.34
5969.00,1.34
5968.00,1.33
5967.00,1.33
5966.00,1.32
5965.00,1.31
5964.00,1.31
5963.00,1.30
5962.00,1.29
5961.00,1.29
5960.00,1.28
5959.00,1.27
5958.00,1.27
5957.00,1.26
5956.00,1.25
5955.00,1.24
5954.00,1.24
5953.00,1.23
5952.00,1.22
5951.00,1.22
5950.00,1.21
5949.00,1.21
5948.00,1.20
5947.00,1.20
5946.00,1.19
5945.00,1.19
5944.00,1.18
5943.00,1.18
5942.00,1.18
5941.00,1.18
5940.00,1.17
5939.00,1.17
5938.00,1.17
5937.00,1.17
5936.00,1.17
5935.00,1.17
5934.00,1.17
5933.00,1.17
5932.00,1.17
5931.00,1.17
5930.00,1.17
5929.00,1.17
5928.00,1.16
5927.00,1.16
5926.00,1.16
5925.00,1.16
5924.00,1.16
5923.00,1.16
5922.00,1.16
5921.00,1.15
5920.00,1.15
5919.00,1.15
5918.00,1.15
5917.00,1.14
5916.00,1.14
5915.00,1.14
5914.00,1.14
5913.00,1.13
5912.00,1.13
5911.00,1.13
5910.00,1.13
5909.00,1.13
5908.00,1.12
5907.00,1.12
5906.00,1.12
5905.00,1.12
5904.00,1.12
5903.00,1.12
5902.00,1.12
5901.00,1.12
5900.00,1.12
5899.00,1.12
5898.00,1.12
5897.00,1.12
5896.00,1.12
5895.00,1.12
5894.00,1.13
5893.00,1.13
5892.00,1.13
5891.00,1.13
5890.00,1.13
5889.00,1.14
5888.00,1.14
5887.00,1.14
5886.00,1.15
5885.00,1.15
5884.00,1.15
5883.00,1.15
5882.00,1.16
5881.00,1.16
5880.00,1.16
5879.00,1.17
5878.00,1.17
5877.00,1.17
5876.00,1.17
5875.00,1.18
5874.00,1.18
5873.00,1.18
5872.00,1.18
5871.00,1.19
5870.00,1.19
5869.00,1.19
5868.00,1.19
5867.00,1.19
5866.00,1.19
5865.00,1.20
5864.00,1.20
5863.00,1.20
5862.00,1.20
5861.00,1.20
5860.00,1.20
5859.00,1.20
5858.00,1.20
5857.00,1.20
5856.00,1.20
5855.00,1.21
5854.00,1.21
5853.00,1.21
5852.00,1.21
5851.00,1.21
5850.00,1.21
5849.00,1.21
5848.00,1.21
5847.00,1.21
5846.00,1.21
5845.00,1.21
5844.00,1.21
5843.00,1.21
5842.00,1.21
5841.00,1.21
5840.00,1.21
5839.00,1.21
5838.00,1.21
5837.00,1.21
5836.00,1.21
5835.00,1.21
5834.00,1.21
5833.00,1.21
5832.00,1.21
5831.00,1.21
5830.00,1.21
5829.00,1.21
5828.00,1.21
5827.00,1.21
5826.00,1.21
5825.00,1.21
5824.00,1.21
5823.00,1.21
5822.00,1.21
5821.00,1.21
5820.00,1.21
5819.00,1.22
5818.00,1.22
5817.00,1.22
5816.00,1.22
5815.00,1.22
5814.00,1.22
5813.00,1.22
5812.00,1.22
5811.00,1.22
5810.00,1.22
5809.00,1.22
5808.00,1.22
5807.00,1.22
5806.00,1.21
5805.00,1.21
5804.00,1.21
5803.00,1.21
5802.00,1.21
5801.00,1.21
5800.00,1.21
5799.00,1.21
5798.00,1.20
5797.00,1.20
5796.00,1.20
5795.00,1.20
5794.00,1.20
5793.00,1.20
5792.00,1.19
5791.00,1.19
5790.00,1.19
5789.00,1.19
5788.00,1.18
5787.00,1.18
5786.00,1.18
5785.00,1.18
5784.00,1.17
5783.00,1.17
5782.00,1.17
5781.00,1.17
5780.00,1.17
5779.00,1.17
5778.00,1.16
5777.00,1.16
5776.00,1.16
5775.00,1.16
5774.00,1.16
5773.00,1.16
5772.00,1.16
5771.00,1.16
5770.00,1.16
5769.00,1.17
5768.00,1.17
5767.00,1.17
5766.00,1.17
5765.00,1.17
5764.00,1.17
5763.00,1.17
5762.00,1.18
5761.00,1.18
5760.00,1.18
5759.00,1.18
5758.00,1.19
5757.00,1.19
5756.00,1.19
5755.00,1.20
5754.00,1.20
5753.00,1.20
5752.00,1.21
5751.00,1.21
5750.00,1.21
5749.00,1.22
5748.00,1.22
5747.00,1.22
5746.00,1.23
5745.00,1.23
5744.00,1.23
5743.00,1.24
5742.00,1.24
5741.00,1.24
5740.00,1.25
5739.00,1.25
5738.00,1.25
5737.00,1.25
5736.00,1.26
5735.00,1.26
5734.00,1.26
5733.00,1.26
5732.00,1.26
5731.00,1.27
5730.00,1.27
5729.00,1.27
5728.00,1.27
5727.00,1.27
5726.00,1.27
5725.00,1.27
5724.00,1.27
5723.00,1.27
5722.00,1.27
5721.00,1.27
5720.00,1.27
5719.00,1.27
5718.00,1.28
5717.00,1.28
5716.00,1.28
5715.00,1.28
5714.00,1.28
5713.00,1.27
5712.00,1.27
5711.00,1.27
5710.00,1.27
5709.00,1.27
5708.00,1.27
5707.00,1.27
5706.00,1.27
5705.00,1.27
5704.00,1.27
5703.00,1.27
5702.00,1.27
5701.00,1.27
5700.00,1.26
5699.00,1.26
5698.00,1.26
5697.00,1.26
5696.00,1.26
5695.00,1.26
5694.00,1.26
5693.00,1.25
5692.00,1.25
5691.00,1.25
5690.00,1.25
5689.00,1.25
5688.00,1.25
5687.00,1.25
5686.00,1.25
5685.00,1.24
5684.00,1.24
5683.00,1.24
5682.00,1.24
5681.00,1.24
5680.00,1.24
5679.00,1.24
5678.00,1.24
5677.00,1.24
5676.00,1.24
5675.00,1.24
5674.00,1.24
5673.00,1.24
5672.00,1.24
5671.00,1.24
5670.00,1.24
5669.00,1.24
5668.00,1.24
5667.00,1.24
5666.00,1.24
5665.00,1.25
5664.00,1.25
5663.00,1.25
5662.00,1.25
5661.00,1.25
5660.00,1.25
5659.00,1.25
5658.00,1.25
5657.00,1.26
5656.00,1.26
5655.00,1.26
5654.00,1.26
5653.00,1.26
5652.00,1.26
5651.00,1.26
5650.00,1.26
5649.00,1.27
5648.00,1.27
5647.00,1.27
5646.00,1.27
5645.00,1.27
5644.00,1.28
5643.00,1.28
5642.00,1.28
5641.00,1.28
5640.00,1.28
5639.00,1.29
5638.00,1.29
5637.00,1.29
5636.00,1.29
5635.00,1.29
5634.00,1.30
5633.00,1.30
5632.00,1.30
5631.00,1.30
5630.00,1.30
5629.00,1.31
5628.00,1.31
5627.00,1.31
5626.00,1.31
5625.00,1.31
5624.00,1.31
5623.00,1.31
5622.00,1.32
5621.00,1.32
5620.00,1.32
5619.00,1.32
5618.00,1.32
5617.00,1.32
5616.00,1.32
5615.00,1.33
5614.00,1.33
5613.00,1.33
5612.00,1.33
5611.00,1.33
5610.00,1.33
5609.00,1.34
5608.00,1.34
5607.00,1.34
5606.00,1.34
5605.00,1.34
5604.00,1.34
5603.00,1.35
5602.00,1.35
5601.00,1.35
5600.00,1.35
5599.00,1.35
5598.00,1.35
5597.00,1.35
5596.00,1.36
5595.00,1.36
5594.00,1.36
5593.00,1.36
5592.00,1.36
5591.00,1.36
5590.00,1.36
5589.00,1.36
5588.00,1.37
5587.00,1.37
5586.00,1.37
5585.00,1.37
5584.00,1.37
5583.00,1.37
5582.00,1.37
5581.00,1.37
5580.00,1.38
5579.00,1.38
5578.00,1.38
5577.00,1.38
5576.00,1.38
5575.00,1.38
5574.00,1.38
5573.00,1.38
5572.00,1.39
5571.00,1.39
5570.00,1.39
5569.00,1.39
5568.00,1.39
5567.00,1.39
5566.00,1.40
5565.00,1.40
5564.00,1.40
5563.00,1.40
5562.00,1.40
5561.00,1.40
5560.00,1.41
5559.00,1.41
5558.00,1.41
5557.00,1.41
5556.00,1.41
5555.00,1.41
5554.00,1.42
5553.00,1.42
5552.00,1.42
5551.00,1.42
5550.00,1.42
5549.00,1.42
5548.00,1.42
5547.00,1.42
5546.00,1.42
5545.00,1.43
5544.00,1.43
5543.00,1.43
5542.00,1.43
5541.00,1.43
5540.00,1.43
5539.00,1.43
5538.00,1.43
5537.00,1.43
5536.00,1.43
5535.00,1.43
5534.00,1.43
5533.00,1.44
5532.00,1.44
5531.00,1.44
5530.00,1.44
5529.00,1.44
5528.00,1.44
5527.00,1.44
5526.00,1.44
5525.00,1.44
5524.00,1.44
5523.00,1.44
5522.00,1.45
5521.00,1.45
5520.00,1.45
5519.00,1.45
5518.00,1.45
5517.00,1.45
5516.00,1.45
5515.00,1.45
5514.00,1.45
5513.00,1.45
5512.00,1.45
5511.00,1.45
5510.00,1.45
5509.00,1.45
5508.00,1.45
5507.00,1.45
5506.00,1.46
5505.00,1.46
5504.00,1.46
5503.00,1.46
5502.00,1.46
5501.00,1.46
5500.00,1.46
5499.00,1.46
5498.00,1.46
5497.00,1.46
5496.00,1.46
5495.00,1.46
5494.00,1.47
5493.00,1.47
5492.00,1.47
5491.00,1.47
5490.00,1.47
5489.00,1.47
5488.00,1.47
5487.00,1.47
5486.00,1.47
5485.00,1.47
5484.00,1.48
5483.00,1.48
5482.00,1.48
5481.00,1.48
5480.00,1.48
5479.00,1.48
5478.00,1.48
5477.00,1.48
5476.00,1.48
5475.00,1.48
5474.00,1.48
5473.00,1.49
5472.00,1.49
5471.00,1.49
5470.00,1.49
5469.00,1.49
5468.00,1.49
5467.00,1.49
5466.00,1.49
5465.00,1.50
5464.00,1.50
5463.00,1.50
5462.00,1.50
5461.00,1.50
5460.00,1.50
5459.00,1.50
5458.00,1.50
5457.00,1.50
5456.00,1.51
5455.00,1.51
5454.00,1.51
5453.00,1.51
5452.00,1.51
5451.00,1.51
5450.00,1.51
5449.00,1.51
5448.00,1.51
5447.00,1.51
5446.00,1.51
5445.00,1.51
5444.00,1.51
5443.00,1.51
5442.00,1.51
5441.00,1.51
5440.00,1.51
5439.00,1.51
5438.00,1.51
5437.00,1.51
5436.00,1.51
5435.00,1.51
5434.00,1.51
5433.00,1.51
5432.00,1.52
5431.00,1.52
5430.00,1.52
5429.00,1.52
5428.00,1.52
5427.00,1.52
5426.00,1.52
5425.00,1.52
5424.00,1.52
5423.00,1.52
5422.00,1.52
5421.00,1.52
5420.00,1.52
5419.00,1.52
5418.00,1.52
5417.00,1.52
5416.00,1.52
5415.00,1.52
5414.00,1.52
5413.00,1.52
5412.00,1.52
5411.00,1.52
5410.00,1.52
5409.00,1.52
5408.00,1.52
5407.00,1.52
5406.00,1.52
5405.00,1.52
5404.00,1.52
5403.00,1.52
5402.00,1.52
5401.00,1.52
5400.00,1.52
5399.00,1.52
5398.00,1.52
5397.00,1.52
5396.00,1.51
5395.00,1.51
5394.00,1.51
5393.00,1.51
5392.00,1.51
5391.00,1.51
5390.00,1.51
5389.00,1.50
5388.00,1.50
5387.00,1.50
5386.00,1.50
5385.00,1.50
5384.00,1.49
5383.00,1.49
5382.00,1.49
5381.00,1.49
5380.00,1.48
5379.00,1.48
5378.00,1.48
5377.00,1.47
5376.00,1.47
5375.00,1.47
5374.00,1.46
5373.00,1.46
5372.00,1.46
5371.00,1.45
5370.00,1.45
5369.00,1.44
5368.00,1.44
5367.00,1.44
5366.00,1.43
5365.00,1.43
5364.00,1.42
5363.00,1.41
5362.00,1.41
5361.00,1.40
5360.00,1.40
5359.00,1.39
5358.00,1.39
5357.00,1.38
5356.00,1.37
5355.00,1.36
5354.00,1.36
5353.00,1.35
5352.00,1.34
5351.00,1.33
5350.00,1.33
5349.00,1.32
5348.00,1.31
5347.00,1.30
5346.00,1.29
5345.00,1.28
5344.00,1.27
5343.00,1.26
5342.00,1.26
5341.00,1.25
5340.00,1.24
5339.00,1.23
5338.00,1.22
5337.00,1.21
5336.00,1.20
5335.00,1.19
5334.00,1.18
5333.00,1.17
5332.00,1.16
5331.00,1.15
5330.00,1.14
5329.00,1.13
5328.00,1.12
5327.00,1.11
5326.00,1.10
5325.00,1.08
5324.00,1.07
5323.00,1.06
5322.00,1.05
5321.00,1.04
5320.00,1.03
5319.00,1.02
5318.00,1.01
5317.00,1.00
5316.00,0.99
5315.00,0.98
5314.00,0.97
5313.00,0.96
5312.00,0.95
5311.00,0.94
5310.00,0.93
5309.00,0.93
5308.00,0.92
5307.00,0.91
5306.00,0.90
5305.00,0.89
5304.00,0.88
5303.00,0.88
5302.00,0.87
5301.00,0.86
5300.00,0.86
5299.00,0.85
5298.00,0.84
5297.00,0.84
5296.00,0.83
5295.00,0.83
5294.00,0.82
5293.00,0.82
5292.00,0.82
5291.00,0.81
5290.00,0.81
5289.00,0.81
5288.00,0.80
5287.00,0.80
5286.00,0.80
5285.00,0.80
5284.00,0.79
5283.00,0.79
5282.00,0.79
5281.00,0.79
5280.00,0.79
5279.00,0.78
5278.00,0.78
5277.00,0.78
5276.00,0.78
5275.00,0.78
5274.00,0.78
5273.00,0.78
5272.00,0.78
5271.00,0.78
5270.00,0.77
5269.00,0.77
5268.00,0.77
5267.00,0.77
5266.00,0.77
5265.00,0.77
5264.00,0.77
5263.00,0.77
5262.00,0.77
5261.00,0.77
5260.00,0.76
5259.00,0.76
5258.00,0.76
5257.00,0.76
5256.00,0.76
5255.00,0.76
5254.00,0.76
5253.00,0.76
5252.00,0.76
5251.00,0.76
5250.00,0.76
5249.00,0.76
5248.00,0.76
5247.00,0.76
5246.00,0.76
5245.00,0.76
5244.00,0.76
5243.00,0.76
5242.00,0.76
5241.00,0.76
5240.00,0.76
5239.00,0.76
5238.00,0.76
5237.00,0.76
5236.00,0.76
5235.00,0.76
5234.00,0.76
5233.00,0.76
5232.00,0.76
5231.00,0.76
5230.00,0.76
5229.00,0.76
5228.00,0.76
5227.00,0.76
5226.00,0.76
5225.00,0.76
5224.00,0.76
5223.00,0.76
5222.00,0.76
5221.00,0.76
5220.00,0.76
5219.00,0.76
5218.00,0.76
5217.00,0.76
5216.00,0.76
5215.00,0.76
5214.00,0.76
5213.00,0.76
5212.00,0.76
5211.00,0.76
5210.00,0.76
5209.00,0.76
5208.00,0.76
5207.00,0.76
5206.00,0.76
5205.00,0.77
5204.00,0.77
5203.00,0.77
5202.00,0.77
5201.00,0.77
5200.00,0.77
5199.00,0.77
5198.00,0.77
5197.00,0.77
5196.00,0.77
5195.00,0.77
5194.00,0.77
5193.00,0.77
5192.00,0.77
5191.00,0.77
5190.00,0.77
5189.00,0.77
5188.00,0.77
5187.00,0.77
5186.00,0.77
5185.00,0.77
5184.00,0.77
5183.00,0.77
5182.00,0.77
5181.00,0.77
5180.00,0.77
5179.00,0.77
5178.00,0.77
5177.00,0.77
5176.00,0.77
5175.00,0.77
5174.00,0.77
5173.00,0.77
5172.00,0.77
5171.00,0.77
5170.00,0.78
5169.00,0.78
5168.00,0.78
5167.00,0.78
5166.00,0.78
5165.00,0.78
5164.00,0.78
5163.00,0.78
5162.00,0.78
5161.00,0.78
5160.00,0.78
5159.00,0.78
5158.00,0.78
5157.00,0.78
5156.00,0.78
5155.00,0.79
5154.00,0.79
5153.00,0.79
5152.00,0.79
5151.00,0.79
5150.00,0.79
5149.00,0.79
5148.00,0.79
5147.00,0.79
5146.00,0.79
5145.00,0.79
5144.00,0.79
5143.00,0.79
5142.00,0.79
5141.00,0.79
5140.00,0.79
5139.00,0.79
5138.00,0.79
5137.00,0.79
5136.00,0.79
5135.00,0.79
5134.00,0.79
5133.00,0.79
5132.00,0.79
5131.00,0.79
5130.00,0.79
5129.00,0.79
5128.00,0.79
5127.00,0.79
5126.00,0.80
5125.00,0.80
5124.00,0.80
5123.00,0.80
5122.00,0.80
5121.00,0.80
5120.00,0.80
5119.00,0.80
5118.00,0.80
5117.00,0.80
5116.00,0.80
5115.00,0.80
5114.00,0.80
5113.00,0.80
5112.00,0.80
5111.00,0.80
5110.00,0.80
5109.00,0.80
5108.00,0.81
5107.00,0.81
5106.00,0.81
5105.00,0.81
5104.00,0.81
5103.00,0.81
5102.00,0.81
5101.00,0.81
5100.00,0.81
5099.00,0.81
5098.00,0.81
5097.00,0.81
5096.00,0.81
5095.00,0.81
5094.00,0.81
5093.00,0.81
5092.00,0.82
5091.00,0.82
5090.00,0.82
5089.00,0.82
5088.00,0.82
5087.00,0.82
5086.00,0.82
5085.00,0.82
5084.00,0.82
5083.00,0.82
5082.00,0.83
5081.00,0.83
5080.00,0.83
5079.00,0.83
5078.00,0.83
5077.00,0.83
5076.00,0.83
5075.00,0.83
5074.00,0.83
5073.00,0.83
5072.00,0.83
5071.00,0.84
5070.00,0.84
5069.00,0.84
5068.00,0.84
5067.00,0.84
5066.00,0.84
5065.00,0.84
5064.00,0.84
5063.00,0.84
5062.00,0.84
5061.00,0.84
5060.00,0.84
5059.00,0.84
5058.00,0.84
5057.00,0.84
5056.00,0.85
5055.00,0.85
5054.00,0.85
5053.00,0.85
5052.00,0.85
5051.00,0.85
5050.00,0.85
5049.00,0.85
5048.00,0.85
5047.00,0.86
5046.00,0.86
5045.00,0.86
5044.00,0.86
5043.00,0.86
5042.00,0.86
5041.00,0.86
5040.00,0.86
5039.00,0.86
5038.00,0.87
5037.00,0.87
5036.00,0.87
5035.00,0.87
5034.00,0.87
5033.00,0.87
5032.00,0.87
5031.00,0.87
5030.00,0.87
5029.00,0.87
5028.00,0.87
5027.00,0.87
5026.00,0.87
5025.00,0.87
5024.00,0.88
5023.00,0.88
5022.00,0.88
5021.00,0.88
5020.00,0.88
5019.00,0.88
5018.00,0.88
5017.00,0.88
5016.00,0.89
5015.00,0.89
5014.00,0.89
5013.00,0.89
5012.00,0.89
5011.00,0.89
5010.00,0.89
5009.00,0.89
5008.00,0.90
5007.00,0.90
5006.00,0.90
5005.00,0.90
5004.00,0.90
5003.00,0.90
5002.00,0.90
5001.00,0.90
5000.00,0.90
4999.00,0.90
4998.00,0.90
4997.00,0.91
4996.00,0.91
4995.00,0.91
4994.00,0.91
4993.00,0.91
4992.00,0.91
4991.00,0.91
4990.00,0.91
4989.00,0.91
4988.00,0.91
4987.00,0.91
4986.00,0.91
4985.00,0.92
4984.00,0.92
4983.00,0.92
4982.00,0.92
4981.00,0.92
4980.00,0.92
4979.00,0.92
4978.00,0.92
4977.00,0.92
4976.00,0.93
4975.00,0.93
4974.00,0.93
4973.00,0.93
4972.00,0.93
4971.00,0.93
4970.00,0.93
4969.00,0.93
4968.00,0.93
4967.00,0.93
4966.00,0.94
4965.00,0.94
4964.00,0.94
4963.00,0.94
4962.00,0.94
4961.00,0.94
4960.00,0.94
4959.00,0.94
4958.00,0.94
4957.00,0.94
4956.00,0.94
4955.00,0.94
4954.00,0.94
4953.00,0.94
4952.00,0.95
4951.00,0.95
4950.00,0.95
4949.00,0.95
4948.00,0.95
4947.00,0.95
4946.00,0.95
4945.00,0.95
4944.00,0.95
4943.00,0.95
4942.00,0.96
4941.00,0.96
4940.00,0.96
4939.00,0.96
4938.00,0.96
4937.00,0.96
4936.00,0.96
4935.00,0.96
4934.00,0.96
4933.00,0.96
4932.00,0.96
4931.00,0.97
4930.00,0.97
4929.00,0.97
4928.00,0.97
4927.00,0.97
4926.00,0.97
4925.00,0.97
4924.00,0.97
4923.00,0.97
4922.00,0.97
4921.00,0.97
4920.00,0.98
4919.00,0.98
4918.00,0.98
4917.00,0.98
4916.00,0.98
4915.00,0.98
4914.00,0.98
4913.00,0.98
4912.00,0.98
4911.00,0.98
4910.00,0.99
4909.00,0.99
4908.00,0.99
4907.00,0.99
4906.00,0.99
4905.00,0.99
4904.00,0.99
4903.00,0.99
4902.00,0.99
4901.00,0.99
4900.00,0.99
4899.00,0.99
4898.00,0.99
4897.00,0.99
4896.00,0.99
4895.00,0.99
4894.00,0.99
4893.00,1.00
4892.00,1.00
4891.00,1.00
4890.00,1.00
4889.00,1.00
4888.00,1.00
4887.00,1.00
4886.00,1.00
4885.00,1.00
4884.00,1.00
4883.00,1.00
4882.00,1.01
4881.00,1.01
4880.00,1.01
4879.00,1.01
4878.00,1.01
4877.00,1.01
4876.00,1.01
4875.00,1.01
4874.00,1.01
4873.00,1.01
4872.00,1.01
4871.00,1.01
4870.00,1.01
4869.00,1.01
4868.00,1.01
4867.00,1.01
4866.00,1.01
4865.00,1.01
4864.00,1.01
4863.00,1.01
4862.00,1.01
4861.00,1.01
4860.00,1.01
4859.00,1.01
4858.00,1.01
4857.00,1.02
4856.00,1.02
4855.00,1.02
4854.00,1.02
4853.00,1.02
4852.00,1.02
4851.00,1.02
4850.00,1.02
4849.00,1.02
4848.00,1.02
4847.00,1.02
4846.00,1.03
4845.00,1.03
4844.00,1.03
4843.00,1.03
4842.00,1.03
4841.00,1.03
4840.00,1.03
4839.00,1.03
4838.00,1.03
4837.00,1.04
4836.00,1.04
4835.00,1.04
4834.00,1.04
4833.00,1.04
4832.00,1.04
4831.00,1.04
4830.00,1.04
4829.00,1.04
4828.00,1.05
4827.00,1.05
4826.00,1.05
4825.00,1.05
4824.00,1.05
4823.00,1.05
4822.00,1.05
4821.00,1.05
4820.00,1.05
4819.00,1.06
4818.00,1.06
4817.00,1.06
4816.00,1.06
4815.00,1.06
4814.00,1.06
4813.00,1.06
4812.00,1.06
4811.00,1.07
4810.00,1.07
4809.00,1.07
4808.00,1.07
4807.00,1.07
4806.00,1.07
4805.00,1.07
4804.00,1.07
4803.00,1.07
4802.00,1.07
4801.00,1.08
4800.00,1.08
4799.00,1.08
4798.00,1.08
4797.00,1.08
4796.00,1.08
4795.00,1.08
4794.00,1.08
4793.00,1.08
4792.00,1.08
4791.00,1.08
4790.00,1.08
4789.00,1.09
4788.00,1.09
4787.00,1.09
4786.00,1.09
4785.00,1.09
4784.00,1.09
4783.00,1.09
4782.00,1.10
4781.00,1.10
4780.00,1.10
4779.00,1.10
4778.00,1.10
4777.00,1.11
4776.00,1.11
4775.00,1.11
4774.00,1.11
4773.00,1.11
4772.00,1.11
4771.00,1.11
4770.00,1.12
4769.00,1.12
4768.00,1.12
4767.00,1.12
4766.00,1.12
4765.00,1.12
4764.00,1.12
4763.00,1.12
4762.00,1.13
4761.00,1.13
4760.00,1.13
4759.00,1.13
4758.00,1.13
4757.00,1.13
4756.00,1.13
4755.00,1.13
4754.00,1.14
4753.00,1.14
4752.00,1.14
4751.00,1.14
4750.00,1.14
4749.00,1.14
4748.00,1.15
4747.00,1.15
4746.00,1.15
4745.00,1.15
4744.00,1.15
4743.00,1.16
4742.00,1.16
4741.00,1.16
4740.00,1.16
4739.00,1.16
4738.00,1.17
4737.00,1.17
4736.00,1.17
4735.00,1.17
4734.00,1.17
4733.00,1.18
4732.00,1.18
4731.00,1.18
4730.00,1.18
4729.00,1.18
4728.00,1.18
4727.00,1.19
4726.00,1.19
4725.00,1.19
4724.00,1.19
4723.00,1.19
4722.00,1.20
4721.00,1.20
4720.00,1.20
4719.00,1.20
4718.00,1.20
4717.00,1.21
4716.00,1.21
4715.00,1.21
4714.00,1.21
4713.00,1.21
4712.00,1.22
4711.00,1.22
4710.00,1.22
4709.00,1.22
4708.00,1.22
4707.00,1.22
4706.00,1.22
4705.00,1.23
4704.00,1.23
4703.00,1.23
4702.00,1.23
4701.00,1.23
4700.00,1.23
4699.00,1.23
4698.00,1.24
4697.00,1.24
4696.00,1.24
4695.00,1.24
4694.00,1.24
4693.00,1.25
4692.00,1.25
4691.00,1.25
4690.00,1.25
4689.00,1.25
4688.00,1.26
4687.00,1.26
4686.00,1.26
4685.00,1.26
4684.00,1.26
4683.00,1.26
4682.00,1.26
4681.00,1.27
4680.00,1.27
4679.00,1.27
4678.00,1.27
4677.00,1.27
4676.00,1.27
4675.00,1.27
4674.00,1.27
4673.00,1.27
4672.00,1.28
4671.00,1.28
4670.00,1.28
4669.00,1.28
4668.00,1.28
4667.00,1.28
4666.00,1.28
4665.00,1.28
4664.00,1.28
4663.00,1.29
4662.00,1.29
4661.00,1.29
4660.00,1.29
4659.00,1.29
4658.00,1.30
4657.00,1.30
4656.00,1.30
4655.00,1.30
4654.00,1.30
4653.00,1.31
4652.00,1.31
4651.00,1.31
4650.00,1.31
4649.00,1.31
4648.00,1.31
4647.00,1.32
4646.00,1.32
4645.00,1.32
4644.00,1.32
4643.00,1.32
4642.00,1.32
4641.00,1.32
4640.00,1.32
4639.00,1.32
4638.00,1.32
4637.00,1.32
4636.00,1.32
4635.00,1.32
4634.00,1.33
4633.00,1.33
4632.00,1.33
4631.00,1.33
4630.00,1.33
4629.00,1.33
4628.00,1.33
4627.00,1.33
4626.00,1.34
4625.00,1.34
4624.00,1.34
4623.00,1.34
4622.00,1.34
4621.00,1.34
4620.00,1.34
4619.00,1.34
4618.00,1.35
4617.00,1.35
4616.00,1.35
4615.00,1.35
4614.00,1.35
4613.00,1.35
4612.00,1.35
4611.00,1.35
4610.00,1.35
4609.00,1.35
4608.00,1.35
4607.00,1.35
4606.00,1.35
4605.00,1.35
4604.00,1.35
4603.00,1.35
4602.00,1.35
4601.00,1.35
4600.00,1.35
4599.00,1.35
4598.00,1.35
4597.00,1.35
4596.00,1.35
4595.00,1.35
4594.00,1.36
4593.00,1.36
4592.00,1.36
4591.00,1.36
4590.00,1.36
4589.00,1.36
4588.00,1.36
4587.00,1.36
4586.00,1.37
4585.00,1.37
4584.00,1.37
4583.00,1.37
4582.00,1.37
4581.00,1.38
4580.00,1.38
4579.00,1.38
4578.00,1.38
4577.00,1.38
4576.00,1.38
4575.00,1.38
4574.00,1.38
4573.00,1.39
4572.00,1.39
4571.00,1.39
4570.00,1.39
4569.00,1.39
4568.00,1.39
4567.00,1.39
4566.00,1.39
4565.00,1.39
4564.00,1.39
4563.00,1.39
4562.00,1.39
4561.00,1.39
4560.00,1.39
4559.00,1.39
4558.00,1.39
4557.00,1.39
4556.00,1.39
4555.00,1.39
4554.00,1.39
4553.00,1.39
4552.00,1.40
4551.00,1.40
4550.00,1.40
4549.00,1.40
4548.00,1.40
4547.00,1.40
4546.00,1.40
4545.00,1.40
4544.00,1.40
4543.00,1.40
4542.00,1.40
4541.00,1.40
4540.00,1.40
4539.00,1.40
4538.00,1.41
4537.00,1.41
4536.00,1.41
4535.00,1.41
4534.00,1.41
4533.00,1.41
4532.00,1.41
4531.00,1.41
4530.00,1.41
4529.00,1.41
4528.00,1.41
4527.00,1.41
4526.00,1.41
4525.00,1.42
4524.00,1.42
4523.00,1.42
4522.00,1.42
4521.00,1.42
4520.00,1.42
4519.00,1.42
4518.00,1.42
4517.00,1.42
4516.00,1.42
4515.00,1.42
4514.00,1.42
4513.00,1.42
4512.00,1.42
4511.00,1.42
4510.00,1.42
4509.00,1.42
4508.00,1.42
4507.00,1.42
4506.00,1.42
4505.00,1.42
4504.00,1.42
4503.00,1.42
4502.00,1.42
4501.00,1.42
4500.00,1.42
4499.00,1.42
4498.00,1.42
4497.00,1.42
4496.00,1.42
4495.00,1.42
4494.00,1.42
4493.00,1.42
4492.00,1.42
4491.00,1.42
4490.00,1.41
4489.00,1.41
4488.00,1.41
4487.00,1.41
4486.00,1.41
4485.00,1.41
4484.00,1.41
4483.00,1.41
4482.00,1.40
4481.00,1.40
4480.00,1.40
4479.00,1.40
4478.00,1.40
4477.00,1.40
4476.00,1.39
4475.00,1.39
4474.00,1.39
4473.00,1.39
4472.00,1.39
4471.00,1.38
4470.00,1.38
4469.00,1.38
4468.00,1.38
4467.00,1.37
4466.00,1.37
4465.00,1.37
4464.00,1.36
4463.00,1.36
4462.00,1.36
4461.00,1.35
4460.00,1.35
4459.00,1.34
4458.00,1.34
4457.00,1.34
4456.00,1.33
4455.00,1.33
4454.00,1.32
4453.00,1.32
4452.00,1.31
4451.00,1.31
4450.00,1.31
4449.00,1.30
4448.00,1.30
4447.00,1.29
4446.00,1.29
4445.00,1.28
4444.00,1.28
4443.00,1.27
4442.00,1.27
4441.00,1.27
4440.00,1.26
4439.00,1.26
4438.00,1.25
4437.00,1.25
4436.00,1.25
4435.00,1.24
4434.00,1.24
4433.00,1.24
4432.00,1.23
4431.00,1.23
4430.00,1.23
4429.00,1.23
4428.00,1.22
4427.00,1.22
4426.00,1.22
4425.00,1.22
4424.00,1.21
4423.00,1.21
4422.00,1.21
4421.00,1.21
4420.00,1.21
4419.00,1.21
4418.00,1.20
4417.00,1.20
4416.00,1.20
4415.00,1.20
4414.00,1.20
4413.00,1.20
4412.00,1.20
4411.00,1.20
4410.00,1.20
4409.00,1.20
4408.00,1.20
4407.00,1.20
4406.00,1.20
4405.00,1.20
4404.00,1.20
4403.00,1.20
4402.00,1.21
4401.00,1.21
4400.00,1.21
4399.00,1.21
4398.00,1.21
4397.00,1.21
4396.00,1.21
4395.00,1.22
4394.00,1.22
4393.00,1.22
4392.00,1.22
4391.00,1.22
4390.00,1.22
4389.00,1.22
4388.00,1.23
4387.00,1.23
4386.00,1.23
4385.00,1.23
4384.00,1.23
4383.00,1.23
4382.00,1.23
4381.00,1.23
4380.00,1.23
4379.00,1.23
4378.00,1.24
4377.00,1.24
4376.00,1.24
4375.00,1.24
4374.00,1.24
4373.00,1.24
4372.00,1.24
4371.00,1.24
4370.00,1.24
4369.00,1.25
4368.00,1.25
4367.00,1.25
4366.00,1.25
4365.00,1.25
4364.00,1.25
4363.00,1.25
4362.00,1.25
4361.00,1.25
4360.00,1.25
4359.00,1.25
4358.00,1.25
4357.00,1.25
4356.00,1.25
4355.00,1.25
4354.00,1.25
4353.00,1.25
4352.00,1.25
4351.00,1.25
4350.00,1.25
4349.00,1.25
4348.00,1.25
4347.00,1.25
4346.00,1.25
4345.00,1.25
4344.00,1.25
4343.00,1.25
4342.00,1.25
4341.00,1.25
4340.00,1.25
4339.00,1.25
4338.00,1.25
4337.00,1.25
4336.00,1.25
4335.00,1.26
4334.00,1.26
4333.00,1.26
4332.00,1.26
4331.00,1.26
4330.00,1.26
4329.00,1.26
4328.00,1.27
4327.00,1.27
4326.00,1.27
4325.00,1.27
4324.00,1.27
4323.00,1.27
4322.00,1.28
4321.00,1.28
4320.00,1.28
4319.00,1.28
4318.00,1.28
4317.00,1.28
4316.00,1.29
4315.00,1.29
4314.00,1.29
4313.00,1.29
4312.00,1.30
4311.00,1.30
4310.00,1.30
4309.00,1.30
4308.00,1.31
4307.00,1.31
4306.00,1.31
4305.00,1.31
4304.00,1.31
4303.00,1.32
4302.00,1.32
4301.00,1.32
4300.00,1.32
4299.00,1.32
4298.00,1.32
4297.00,1.32
4296.00,1.33
4295.00,1.33
4294.00,1.33
4293.00,1.33
4292.00,1.33
4291.00,1.33
4290.00,1.34
4289.00,1.34
4288.00,1.34
4287.00,1.34
4286.00,1.34
4285.00,1.34
4284.00,1.34
4283.00,1.35
4282.00,1.35
4281.00,1.35
4280.00,1.35
4279.00,1.35
4278.00,1.35
4277.00,1.35
4276.00,1.35
4275.00,1.35
4274.00,1.35
4273.00,1.35
4272.00,1.35
4271.00,1.35
4270.00,1.35
4269.00,1.34
4268.00,1.34
4267.00,1.34
4266.00,1.34
4265.00,1.34
4264.00,1.34
4263.00,1.34
4262.00,1.34
4261.00,1.34
4260.00,1.34
4259.00,1.34
4258.00,1.34
4257.00,1.34
4256.00,1.34
4255.00,1.34
4254.00,1.34
4253.00,1.34
4252.00,1.34
4251.00,1.34
4250.00,1.34
4249.00,1.34
4248.00,1.34
4247.00,1.35
4246.00,1.35
4245.00,1.35
4244.00,1.35
4243.00,1.35
4242.00,1.35
4241.00,1.36
4240.00,1.36
4239.00,1.36
4238.00,1.36
4237.00,1.36
4236.00,1.36
4235.00,1.36
4234.00,1.36
4233.00,1.36
4232.00,1.36
4231.00,1.37
4230.00,1.37
4229.00,1.37
4228.00,1.37
4227.00,1.37
4226.00,1.37
4225.00,1.37
4224.00,1.37
4223.00,1.37
4222.00,1.38
4221.00,1.38
4220.00,1.38
4219.00,1.38
4218.00,1.38
4217.00,1.38
4216.00,1.39
4215.00,1.39
4214.00,1.39
4213.00,1.39
4212.00,1.39
4211.00,1.39
4210.00,1.39
4209.00,1.39
4208.00,1.40
4207.00,1.40
4206.00,1.40
4205.00,1.40
4204.00,1.40
4203.00,1.40
4202.00,1.40
4201.00,1.40
4200.00,1.40
4199.00,1.40
4198.00,1.40
4197.00,1.40
4196.00,1.40
4195.00,1.40
4194.00,1.40
4193.00,1.40
4192.00,1.40
4191.00,1.40
4190.00,1.40
4189.00,1.40
4188.00,1.40
4187.00,1.40
4186.00,1.40
4185.00,1.40
4184.00,1.40
4183.00,1.40
4182.00,1.40
4181.00,1.40
4180.00,1.40
4179.00,1.40
4178.00,1.40
4177.00,1.40
4176.00,1.40
4175.00,1.40
4174.00,1.40
4173.00,1.40
4172.00,1.40
4171.00,1.40
4170.00,1.40
4169.00,1.40
4168.00,1.40
4167.00,1.41
4166.00,1.41
4165.00,1.41
4164.00,1.41
4163.00,1.41
4162.00,1.41
4161.00,1.41
4160.00,1.41
4159.00,1.41
4158.00,1.41
4157.00,1.41
4156.00,1.41
4155.00,1.41
4154.00,1.41
4153.00,1.41
4152.00,1.41
4151.00,1.41
4150.00,1.41
4149.00,1.41
4148.00,1.41
4147.00,1.41
4146.00,1.41
4145.00,1.41
4144.00,1.41
4143.00,1.41
4142.00,1.41
4141.00,1.41
4140.00,1.41
4139.00,1.41
4138.00,1.41
4137.00,1.41
4136.00,1.41
4135.00,1.41
4134.00,1.41
4133.00,1.41
4132.00,1.41
4131.00,1.41
4130.00,1.41
4129.00,1.41
4128.00,1.42
4127.00,1.42
4126.00,1.42
4125.00,1.42
4124.00,1.42
4123.00,1.42
4122.00,1.42
4121.00,1.42
4120.00,1.43
4119.00,1.43
4118.00,1.43
4117.00,1.43
4116.00,1.43
4115.00,1.43
4114.00,1.43
4113.00,1.43
4112.00,1.43
4111.00,1.43
4110.00,1.43
4109.00,1.43
4108.00,1.43
4107.00,1.43
4106.00,1.43
4105.00,1.43
4104.00,1.43
4103.00,1.43
4102.00,1.43
4101.00,1.43
4100.00,1.43
4099.00,1.43
4098.00,1.43
4097.00,1.43
4096.00,1.43
4095.00,1.43
4094.00,1.43
4093.00,1.43
4092.00,1.43
4091.00,1.43
4090.00,1.43
4089.00,1.43
4088.00,1.43
4087.00,1.43
4086.00,1.43
4085.00,1.43
4084.00,1.43
4083.00,1.43
4082.00,1.43
4081.00,1.43
4080.00,1.43
4079.00,1.43
4078.00,1.43
4077.00,1.43
4076.00,1.43
4075.00,1.43
4074.00,1.43
4073.00,1.43
4072.00,1.43
4071.00,1.43
4070.00,1.43
4069.00,1.43
4068.00,1.43
4067.00,1.43
4066.00,1.43
4065.00,1.43
4064.00,1.43
4063.00,1.43
4062.00,1.44
4061.00,1.44
4060.00,1.44
4059.00,1.44
4058.00,1.44
4057.00,1.44
4056.00,1.44
4055.00,1.44
4054.00,1.44
4053.00,1.44
4052.00,1.44
4051.00,1.44
4050.00,1.44
4049.00,1.44
4048.00,1.45
4047.00,1.45
4046.00,1.45
4045.00,1.45
4044.00,1.45
4043.00,1.45
4042.00,1.46
4041.00,1.46
4040.00,1.46
4039.00,1.46
4038.00,1.46
4037.00,1.47
4036.00,1.47
4035.00,1.47
4034.00,1.47
4033.00,1.47
4032.00,1.48
4031.00,1.48
4030.00,1.48
4029.00,1.48
4028.00,1.48
4027.00,1.48
4026.00,1.49
4025.00,1.49
4024.00,1.49
4023.00,1.49
4022.00,1.49
4021.00,1.49
4020.00,1.49
4019.00,1.49
4018.00,1.49
4017.00,1.50
4016.00,1.50
4015.00,1.50
4014.00,1.50
4013.00,1.50
4012.00,1.50
4011.00,1.50
4010.00,1.50
4009.00,1.50
4008.00,1.50
4007.00,1.51
4006.00,1.51
4005.00,1.51
4004.00,1.51
4003.00,1.51
4002.00,1.52
4001.00,1.52
4000.00,1.52
