创建为新数据集,样品 025 用户 Administrator 日期 星期三, 十一月 01 2017
cm-1,%T
10000.00,1.38
9999.00,1.38
9998.00,1.38
9997.00,1.38
9996.00,1.38
9995.00,1.38
9994.00,1.38
9993.00,1.38
9992.00,1.38
9991.00,1.38
9990.00,1.38
9989.00,1.38
9988.00,1.38
9987.00,1.38
9986.00,1.38
9985.00,1.37
9984.00,1.37
9983.00,1.37
9982.00,1.37
9981.00,1.37
9980.00,1.37
9979.00,1.37
9978.00,1.37
9977.00,1.37
9976.00,1.37
9975.00,1.37
9974.00,1.37
9973.00,1.36
9972.00,1.36
9971.00,1.36
9970.00,1.36
9969.00,1.36
9968.00,1.36
9967.00,1.36
9966.00,1.35
9965.00,1.35
9964.00,1.35
9963.00,1.35
9962.00,1.35
9961.00,1.35
9960.00,1.34
9959.00,1.34
9958.00,1.34
9957.00,1.34
9956.00,1.34
9955.00,1.34
9954.00,1.34
9953.00,1.34
9952.00,1.34
9951.00,1.34
9950.00,1.34
9949.00,1.34
9948.00,1.34
9947.00,1.34
9946.00,1.35
9945.00,1.35
9944.00,1.35
9943.00,1.35
9942.00,1.35
9941.00,1.35
9940.00,1.35
9939.00,1.35
9938.00,1.35
9937.00,1.35
9936.00,1.36
9935.00,1.36
9934.00,1.36
9933.00,1.36
9932.00,1.36
9931.00,1.36
9930.00,1.36
9929.00,1.36
9928.00,1.36
9927.00,1.36
9926.00,1.36
9925.00,1.36
9924.00,1.36
9923.00,1.36
9922.00,1.36
9921.00,1.36
9920.00,1.36
9919.00,1.36
9918.00,1.36
9917.00,1.36
9916.00,1.36
9915.00,1.36
9914.00,1.36
9913.00,1.36
9912.00,1.36
9911.00,1.35
9910.00,1.35
9909.00,1.35
9908.00,1.35
9907.00,1.35
9906.00,1.35
9905.00,1.35
9904.00,1.35
9903.00,1.35
9902.00,1.35
9901.00,1.35
9900.00,1.35
9899.00,1.36
9898.00,1.36
9897.00,1.36
9896.00,1.36
9895.00,1.37
9894.00,1.37
9893.00,1.37
9892.00,1.37
9891.00,1.37
9890.00,1.37
9889.00,1.37
9888.00,1.37
9887.00,1.37
9886.00,1.37
9885.00,1.37
9884.00,1.36
9883.00,1.36
9882.00,1.36
9881.00,1.35
9880.00,1.35
9879.00,1.35
9878.00,1.34
9877.00,1.34
9876.00,1.34
9875.00,1.34
9874.00,1.34
9873.00,1.34
9872.00,1.34
9871.00,1.34
9870.00,1.34
9869.00,1.34
9868.00,1.34
9867.00,1.34
9866.00,1.34
9865.00,1.34
9864.00,1.34
9863.00,1.35
9862.00,1.35
9861.00,1.35
9860.00,1.35
9859.00,1.35
9858.00,1.34
9857.00,1.34
9856.00,1.34
9855.00,1.34
9854.00,1.34
9853.00,1.34
9852.00,1.34
9851.00,1.34
9850.00,1.34
9849.00,1.35
9848.00,1.35
9847.00,1.35
9846.00,1.35
9845.00,1.35
9844.00,1.36
9843.00,1.36
9842.00,1.36
9841.00,1.36
9840.00,1.37
9839.00,1.37
9838.00,1.37
9837.00,1.37
9836.00,1.37
9835.00,1.37
9834.00,1.37
9833.00,1.37
9832.00,1.37
9831.00,1.37
9830.00,1.37
9829.00,1.37
9828.00,1.37
9827.00,1.37
9826.00,1.37
9825.00,1.37
9824.00,1.37
9823.00,1.37
9822.00,1.37
9821.00,1.37
9820.00,1.37
9819.00,1.37
9818.00,1.37
9817.00,1.37
9816.00,1.37
9815.00,1.37
9814.00,1.36
9813.00,1.36
9812.00,1.36
9811.00,1.36
9810.00,1.35
9809.00,1.35
9808.00,1.35
9807.00,1.34
9806.00,1.34
9805.00,1.34
9804.00,1.34
9803.00,1.33
9802.00,1.33
9801.00,1.33
9800.00,1.33
9799.00,1.32
9798.00,1.32
9797.00,1.32
9796.00,1.32
9795.00,1.32
9794.00,1.33
9793.00,1.33
9792.00,1.33
9791.00,1.33
9790.00,1.34
9789.00,1.34
9788.00,1.34
9787.00,1.34
9786.00,1.35
9785.00,1.35
9784.00,1.35
9783.00,1.36
9782.00,1.36
9781.00,1.36
9780.00,1.36
9779.00,1.36
9778.00,1.37
9777.00,1.37
9776.00,1.37
9775.00,1.37
9774.00,1.37
9773.00,1.37
9772.00,1.37
9771.00,1.37
9770.00,1.37
9769.00,1.37
9768.00,1.37
9767.00,1.37
9766.00,1.37
9765.00,1.37
9764.00,1.37
9763.00,1.36
9762.00,1.36
9761.00,1.36
9760.00,1.36
9759.00,1.36
9758.00,1.36
9757.00,1.36
9756.00,1.36
9755.00,1.36
9754.00,1.36
9753.00,1.36
9752.00,1.35
9751.00,1.35
9750.00,1.35
9749.00,1.35
9748.00,1.35
9747.00,1.35
9746.00,1.35
9745.00,1.35
9744.00,1.35
9743.00,1.35
9742.00,1.35
9741.00,1.35
9740.00,1.35
9739.00,1.35
9738.00,1.35
9737.00,1.35
9736.00,1.35
9735.00,1.35
9734.00,1.35
9733.00,1.35
9732.00,1.35
9731.00,1.35
9730.00,1.35
9729.00,1.35
9728.00,1.34
9727.00,1.34
9726.00,1.34
9725.00,1.34
9724.00,1.34
9723.00,1.34
9722.00,1.34
9721.00,1.33
9720.00,1.33
9719.00,1.33
9718.00,1.33
9717.00,1.34
9716.00,1.34
9715.00,1.34
9714.00,1.34
9713.00,1.34
9712.00,1.34
9711.00,1.35
9710.00,1.35
9709.00,1.35
9708.00,1.35
9707.00,1.36
9706.00,1.36
9705.00,1.36
9704.00,1.36
9703.00,1.36
9702.00,1.36
9701.00,1.36
9700.00,1.36
9699.00,1.36
9698.00,1.37
9697.00,1.37
9696.00,1.37
9695.00,1.37
9694.00,1.37
9693.00,1.37
9692.00,1.37
9691.00,1.37
9690.00,1.37
9689.00,1.37
9688.00,1.37
9687.00,1.37
9686.00,1.37
9685.00,1.37
9684.00,1.37
9683.00,1.37
9682.00,1.38
9681.00,1.38
9680.00,1.38
9679.00,1.38
9678.00,1.38
9677.00,1.38
9676.00,1.38
9675.00,1.38
9674.00,1.38
9673.00,1.38
9672.00,1.38
9671.00,1.38
9670.00,1.38
9669.00,1.38
9668.00,1.38
9667.00,1.38
9666.00,1.38
9665.00,1.38
9664.00,1.38
9663.00,1.38
9662.00,1.38
9661.00,1.38
9660.00,1.38
9659.00,1.38
9658.00,1.38
9657.00,1.38
9656.00,1.38
9655.00,1.38
9654.00,1.38
9653.00,1.38
9652.00,1.38
9651.00,1.38
9650.00,1.38
9649.00,1.38
9648.00,1.38
9647.00,1.38
9646.00,1.38
9645.00,1.38
9644.00,1.38
9643.00,1.38
9642.00,1.38
9641.00,1.38
9640.00,1.38
9639.00,1.38
9638.00,1.38
9637.00,1.38
9636.00,1.38
9635.00,1.38
9634.00,1.38
9633.00,1.38
9632.00,1.38
9631.00,1.38
9630.00,1.38
9629.00,1.38
9628.00,1.38
9627.00,1.38
9626.00,1.38
9625.00,1.37
9624.00,1.37
9623.00,1.37
9622.00,1.37
9621.00,1.37
9620.00,1.36
9619.00,1.36
9618.00,1.36
9617.00,1.36
9616.00,1.36
9615.00,1.35
9614.00,1.35
9613.00,1.35
9612.00,1.35
9611.00,1.35
9610.00,1.35
9609.00,1.35
9608.00,1.35
9607.00,1.36
9606.00,1.36
9605.00,1.36
9604.00,1.36
9603.00,1.36
9602.00,1.36
9601.00,1.36
9600.00,1.37
9599.00,1.37
9598.00,1.37
9597.00,1.37
9596.00,1.37
9595.00,1.37
9594.00,1.37
9593.00,1.37
9592.00,1.37
9591.00,1.37
9590.00,1.37
9589.00,1.37
9588.00,1.37
9587.00,1.37
9586.00,1.37
9585.00,1.36
9584.00,1.36
9583.00,1.36
9582.00,1.36
9581.00,1.36
9580.00,1.36
9579.00,1.36
9578.00,1.36
9577.00,1.36
9576.00,1.36
9575.00,1.36
9574.00,1.36
9573.00,1.36
9572.00,1.36
9571.00,1.36
9570.00,1.36
9569.00,1.36
9568.00,1.36
9567.00,1.36
9566.00,1.36
9565.00,1.36
9564.00,1.36
9563.00,1.36
9562.00,1.35
9561.00,1.35
9560.00,1.35
9559.00,1.35
9558.00,1.35
9557.00,1.35
9556.00,1.35
9555.00,1.36
9554.00,1.36
9553.00,1.36
9552.00,1.36
9551.00,1.36
9550.00,1.36
9549.00,1.36
9548.00,1.36
9547.00,1.37
9546.00,1.37
9545.00,1.37
9544.00,1.37
9543.00,1.37
9542.00,1.37
9541.00,1.37
9540.00,1.37
9539.00,1.37
9538.00,1.38
9537.00,1.38
9536.00,1.38
9535.00,1.38
9534.00,1.38
9533.00,1.38
9532.00,1.38
9531.00,1.38
9530.00,1.37
9529.00,1.37
9528.00,1.37
9527.00,1.37
9526.00,1.37
9525.00,1.37
9524.00,1.37
9523.00,1.37
9522.00,1.37
9521.00,1.37
9520.00,1.36
9519.00,1.36
9518.00,1.36
9517.00,1.36
9516.00,1.36
9515.00,1.35
9514.00,1.35
9513.00,1.35
9512.00,1.35
9511.00,1.35
9510.00,1.35
9509.00,1.35
9508.00,1.35
9507.00,1.34
9506.00,1.34
9505.00,1.34
9504.00,1.34
9503.00,1.35
9502.00,1.35
9501.00,1.35
9500.00,1.35
9499.00,1.35
9498.00,1.35
9497.00,1.35
9496.00,1.35
9495.00,1.35
9494.00,1.35
9493.00,1.35
9492.00,1.35
9491.00,1.35
9490.00,1.35
9489.00,1.36
9488.00,1.36
9487.00,1.36
9486.00,1.36
9485.00,1.36
9484.00,1.36
9483.00,1.36
9482.00,1.36
9481.00,1.36
9480.00,1.36
9479.00,1.36
9478.00,1.36
9477.00,1.36
9476.00,1.37
9475.00,1.37
9474.00,1.37
9473.00,1.37
9472.00,1.37
9471.00,1.37
9470.00,1.37
9469.00,1.37
9468.00,1.37
9467.00,1.37
9466.00,1.36
9465.00,1.36
9464.00,1.36
9463.00,1.36
9462.00,1.36
9461.00,1.35
9460.00,1.35
9459.00,1.35
9458.00,1.35
9457.00,1.35
9456.00,1.35
9455.00,1.34
9454.00,1.34
9453.00,1.34
9452.00,1.34
9451.00,1.34
9450.00,1.34
9449.00,1.34
9448.00,1.34
9447.00,1.34
9446.00,1.34
9445.00,1.35
9444.00,1.35
9443.00,1.35
9442.00,1.35
9441.00,1.35
9440.00,1.35
9439.00,1.36
9438.00,1.36
9437.00,1.36
9436.00,1.36
9435.00,1.36
9434.00,1.36
9433.00,1.37
9432.00,1.37
9431.00,1.37
9430.00,1.37
9429.00,1.37
9428.00,1.37
9427.00,1.37
9426.00,1.37
9425.00,1.37
9424.00,1.37
9423.00,1.37
9422.00,1.37
9421.00,1.36
9420.00,1.36
9419.00,1.36
9418.00,1.36
9417.00,1.36
9416.00,1.36
9415.00,1.36
9414.00,1.36
9413.00,1.36
9412.00,1.35
9411.00,1.35
9410.00,1.35
9409.00,1.35
9408.00,1.35
9407.00,1.35
9406.00,1.35
9405.00,1.35
9404.00,1.35
9403.00,1.35
9402.00,1.35
9401.00,1.35
9400.00,1.35
9399.00,1.36
9398.00,1.36
9397.00,1.36
9396.00,1.36
9395.00,1.36
9394.00,1.36
9393.00,1.36
9392.00,1.36
9391.00,1.36
9390.00,1.36
9389.00,1.37
9388.00,1.37
9387.00,1.37
9386.00,1.37
9385.00,1.37
9384.00,1.37
9383.00,1.37
9382.00,1.37
9381.00,1.37
9380.00,1.36
9379.00,1.36
9378.00,1.36
9377.00,1.36
9376.00,1.36
9375.00,1.36
9374.00,1.36
9373.00,1.36
9372.00,1.36
9371.00,1.35
9370.00,1.35
9369.00,1.35
9368.00,1.35
9367.00,1.35
9366.00,1.35
9365.00,1.35
9364.00,1.35
9363.00,1.35
9362.00,1.35
9361.00,1.35
9360.00,1.36
9359.00,1.36
9358.00,1.36
9357.00,1.36
9356.00,1.36
9355.00,1.36
9354.00,1.36
9353.00,1.36
9352.00,1.36
9351.00,1.36
9350.00,1.36
9349.00,1.36
9348.00,1.36
9347.00,1.36
9346.00,1.36
9345.00,1.36
9344.00,1.36
9343.00,1.36
9342.00,1.36
9341.00,1.36
9340.00,1.35
9339.00,1.35
9338.00,1.35
9337.00,1.35
9336.00,1.35
9335.00,1.35
9334.00,1.35
9333.00,1.35
9332.00,1.35
9331.00,1.35
9330.00,1.35
9329.00,1.35
9328.00,1.35
9327.00,1.36
9326.00,1.36
9325.00,1.36
9324.00,1.36
9323.00,1.36
9322.00,1.36
9321.00,1.36
9320.00,1.36
9319.00,1.36
9318.00,1.36
9317.00,1.36
9316.00,1.36
9315.00,1.36
9314.00,1.36
9313.00,1.36
9312.00,1.36
9311.00,1.36
9310.00,1.36
9309.00,1.36
9308.00,1.36
9307.00,1.36
9306.00,1.36
9305.00,1.36
9304.00,1.36
9303.00,1.36
9302.00,1.36
9301.00,1.36
9300.00,1.36
9299.00,1.36
9298.00,1.36
9297.00,1.37
9296.00,1.37
9295.00,1.37
9294.00,1.37
9293.00,1.37
9292.00,1.37
9291.00,1.37
9290.00,1.38
9289.00,1.38
9288.00,1.38
9287.00,1.38
9286.00,1.38
9285.00,1.38
9284.00,1.38
9283.00,1.38
9282.00,1.38
9281.00,1.38
9280.00,1.38
9279.00,1.38
9278.00,1.38
9277.00,1.38
9276.00,1.38
9275.00,1.38
9274.00,1.38
9273.00,1.38
9272.00,1.38
9271.00,1.38
9270.00,1.38
9269.00,1.37
9268.00,1.37
9267.00,1.37
9266.00,1.37
9265.00,1.37
9264.00,1.37
9263.00,1.36
9262.00,1.36
9261.00,1.36
9260.00,1.36
9259.00,1.36
9258.00,1.36
9257.00,1.36
9256.00,1.36
9255.00,1.36
9254.00,1.36
9253.00,1.36
9252.00,1.36
9251.00,1.36
9250.00,1.36
9249.00,1.36
9248.00,1.36
9247.00,1.36
9246.00,1.36
9245.00,1.35
9244.00,1.35
9243.00,1.35
9242.00,1.35
9241.00,1.35
9240.00,1.35
9239.00,1.35
9238.00,1.35
9237.00,1.35
9236.00,1.35
9235.00,1.35
9234.00,1.35
9233.00,1.35
9232.00,1.36
9231.00,1.36
9230.00,1.36
9229.00,1.36
9228.00,1.36
9227.00,1.36
9226.00,1.36
9225.00,1.36
9224.00,1.37
9223.00,1.37
9222.00,1.37
9221.00,1.37
9220.00,1.36
9219.00,1.36
9218.00,1.36
9217.00,1.36
9216.00,1.36
9215.00,1.36
9214.00,1.36
9213.00,1.36
9212.00,1.36
9211.00,1.36
9210.00,1.36
9209.00,1.35
9208.00,1.35
9207.00,1.35
9206.00,1.35
9205.00,1.36
9204.00,1.36
9203.00,1.36
9202.00,1.36
9201.00,1.36
9200.00,1.36
9199.00,1.36
9198.00,1.36
9197.00,1.36
9196.00,1.36
9195.00,1.36
9194.00,1.36
9193.00,1.36
9192.00,1.36
9191.00,1.36
9190.00,1.36
9189.00,1.36
9188.00,1.36
9187.00,1.36
9186.00,1.36
9185.00,1.36
9184.00,1.36
9183.00,1.36
9182.00,1.36
9181.00,1.36
9180.00,1.36
9179.00,1.36
9178.00,1.36
9177.00,1.37
9176.00,1.37
9175.00,1.37
9174.00,1.37
9173.00,1.37
9172.00,1.37
9171.00,1.37
9170.00,1.37
9169.00,1.37
9168.00,1.37
9167.00,1.37
9166.00,1.37
9165.00,1.37
9164.00,1.37
9163.00,1.37
9162.00,1.37
9161.00,1.37
9160.00,1.37
9159.00,1.36
9158.00,1.36
9157.00,1.36
9156.00,1.36
9155.00,1.36
9154.00,1.36
9153.00,1.36
9152.00,1.35
9151.00,1.35
9150.00,1.35
9149.00,1.35
9148.00,1.35
9147.00,1.35
9146.00,1.35
9145.00,1.35
9144.00,1.35
9143.00,1.35
9142.00,1.35
9141.00,1.35
9140.00,1.35
9139.00,1.35
9138.00,1.35
9137.00,1.36
9136.00,1.36
9135.00,1.36
9134.00,1.36
9133.00,1.36
9132.00,1.36
9131.00,1.36
9130.00,1.36
9129.00,1.36
9128.00,1.36
9127.00,1.36
9126.00,1.36
9125.00,1.36
9124.00,1.36
9123.00,1.36
9122.00,1.36
9121.00,1.36
9120.00,1.36
9119.00,1.36
9118.00,1.36
9117.00,1.36
9116.00,1.36
9115.00,1.36
9114.00,1.36
9113.00,1.36
9112.00,1.36
9111.00,1.36
9110.00,1.36
9109.00,1.36
9108.00,1.36
9107.00,1.36
9106.00,1.36
9105.00,1.36
9104.00,1.36
9103.00,1.36
9102.00,1.36
9101.00,1.36
9100.00,1.36
9099.00,1.36
9098.00,1.36
9097.00,1.36
9096.00,1.36
9095.00,1.36
9094.00,1.36
9093.00,1.36
9092.00,1.36
9091.00,1.36
9090.00,1.36
9089.00,1.36
9088.00,1.36
9087.00,1.36
9086.00,1.36
9085.00,1.36
9084.00,1.36
9083.00,1.36
9082.00,1.36
9081.00,1.36
9080.00,1.36
9079.00,1.36
9078.00,1.36
9077.00,1.36
9076.00,1.36
9075.00,1.36
9074.00,1.36
9073.00,1.36
9072.00,1.35
9071.00,1.35
9070.00,1.35
9069.00,1.35
9068.00,1.35
9067.00,1.36
9066.00,1.36
9065.00,1.36
9064.00,1.36
9063.00,1.36
9062.00,1.36
9061.00,1.37
9060.00,1.37
9059.00,1.37
9058.00,1.37
9057.00,1.38
9056.00,1.38
9055.00,1.38
9054.00,1.38
9053.00,1.38
9052.00,1.38
9051.00,1.38
9050.00,1.38
9049.00,1.38
9048.00,1.38
9047.00,1.38
9046.00,1.38
9045.00,1.38
9044.00,1.37
9043.00,1.37
9042.00,1.37
9041.00,1.37
9040.00,1.37
9039.00,1.37
9038.00,1.37
9037.00,1.36
9036.00,1.36
9035.00,1.36
9034.00,1.36
9033.00,1.36
9032.00,1.36
9031.00,1.36
9030.00,1.36
9029.00,1.37
9028.00,1.37
9027.00,1.37
9026.00,1.37
9025.00,1.37
9024.00,1.37
9023.00,1.37
9022.00,1.37
9021.00,1.37
9020.00,1.37
9019.00,1.38
9018.00,1.38
9017.00,1.38
9016.00,1.38
9015.00,1.38
9014.00,1.38
9013.00,1.38
9012.00,1.38
9011.00,1.37
9010.00,1.37
9009.00,1.37
9008.00,1.37
9007.00,1.37
9006.00,1.37
9005.00,1.37
9004.00,1.37
9003.00,1.37
9002.00,1.37
9001.00,1.37
9000.00,1.37
8999.00,1.37
8998.00,1.37
8997.00,1.37
8996.00,1.37
8995.00,1.37
8994.00,1.37
8993.00,1.37
8992.00,1.37
8991.00,1.37
8990.00,1.37
8989.00,1.37
8988.00,1.37
8987.00,1.37
8986.00,1.37
8985.00,1.37
8984.00,1.37
8983.00,1.37
8982.00,1.37
8981.00,1.38
8980.00,1.38
8979.00,1.38
8978.00,1.38
8977.00,1.38
8976.00,1.38
8975.00,1.38
8974.00,1.38
8973.00,1.38
8972.00,1.38
8971.00,1.38
8970.00,1.38
8969.00,1.38
8968.00,1.38
8967.00,1.38
8966.00,1.38
8965.00,1.38
8964.00,1.38
8963.00,1.38
8962.00,1.38
8961.00,1.38
8960.00,1.38
8959.00,1.38
8958.00,1.38
8957.00,1.38
8956.00,1.38
8955.00,1.38
8954.00,1.38
8953.00,1.38
8952.00,1.38
8951.00,1.38
8950.00,1.38
8949.00,1.38
8948.00,1.38
8947.00,1.38
8946.00,1.38
8945.00,1.37
8944.00,1.37
8943.00,1.37
8942.00,1.37
8941.00,1.37
8940.00,1.37
8939.00,1.37
8938.00,1.37
8937.00,1.37
8936.00,1.37
8935.00,1.37
8934.00,1.37
8933.00,1.37
8932.00,1.36
8931.00,1.36
8930.00,1.36
8929.00,1.36
8928.00,1.36
8927.00,1.36
8926.00,1.36
8925.00,1.36
8924.00,1.36
8923.00,1.36
8922.00,1.36
8921.00,1.36
8920.00,1.36
8919.00,1.36
8918.00,1.36
8917.00,1.36
8916.00,1.36
8915.00,1.36
8914.00,1.36
8913.00,1.36
8912.00,1.36
8911.00,1.36
8910.00,1.36
8909.00,1.37
8908.00,1.37
8907.00,1.37
8906.00,1.37
8905.00,1.37
8904.00,1.37
8903.00,1.37
8902.00,1.37
8901.00,1.37
8900.00,1.37
8899.00,1.37
8898.00,1.37
8897.00,1.37
8896.00,1.37
8895.00,1.36
8894.00,1.36
8893.00,1.36
8892.00,1.36
8891.00,1.36
8890.00,1.36
8889.00,1.36
8888.00,1.36
8887.00,1.36
8886.00,1.36
8885.00,1.37
8884.00,1.37
8883.00,1.37
8882.00,1.37
8881.00,1.37
8880.00,1.37
8879.00,1.37
8878.00,1.37
8877.00,1.37
8876.00,1.37
8875.00,1.37
8874.00,1.38
8873.00,1.38
8872.00,1.38
8871.00,1.38
8870.00,1.38
8869.00,1.38
8868.00,1.38
8867.00,1.38
8866.00,1.38
8865.00,1.38
8864.00,1.37
8863.00,1.37
8862.00,1.37
8861.00,1.37
8860.00,1.37
8859.00,1.37
8858.00,1.37
8857.00,1.36
8856.00,1.36
8855.00,1.36
8854.00,1.36
8853.00,1.36
8852.00,1.36
8851.00,1.36
8850.00,1.36
8849.00,1.36
8848.00,1.35
8847.00,1.35
8846.00,1.35
8845.00,1.35
8844.00,1.35
8843.00,1.35
8842.00,1.35
8841.00,1.35
8840.00,1.36
8839.00,1.36
8838.00,1.36
8837.00,1.36
8836.00,1.36
8835.00,1.36
8834.00,1.36
8833.00,1.36
8832.00,1.36
8831.00,1.36
8830.00,1.36
8829.00,1.36
8828.00,1.36
8827.00,1.36
8826.00,1.36
8825.00,1.36
8824.00,1.37
8823.00,1.37
8822.00,1.37
8821.00,1.37
8820.00,1.37
8819.00,1.37
8818.00,1.37
8817.00,1.37
8816.00,1.37
8815.00,1.37
8814.00,1.37
8813.00,1.37
8812.00,1.37
8811.00,1.37
8810.00,1.36
8809.00,1.36
8808.00,1.36
8807.00,1.36
8806.00,1.36
8805.00,1.36
8804.00,1.35
8803.00,1.35
8802.00,1.35
8801.00,1.35
8800.00,1.35
8799.00,1.35
8798.00,1.35
8797.00,1.35
8796.00,1.35
8795.00,1.35
8794.00,1.35
8793.00,1.35
8792.00,1.35
8791.00,1.35
8790.00,1.35
8789.00,1.35
8788.00,1.35
8787.00,1.35
8786.00,1.35
8785.00,1.35
8784.00,1.35
8783.00,1.35
8782.00,1.35
8781.00,1.35
8780.00,1.35
8779.00,1.35
8778.00,1.35
8777.00,1.35
8776.00,1.35
8775.00,1.35
8774.00,1.35
8773.00,1.35
8772.00,1.35
8771.00,1.35
8770.00,1.35
8769.00,1.35
8768.00,1.35
8767.00,1.35
8766.00,1.35
8765.00,1.35
8764.00,1.35
8763.00,1.35
8762.00,1.35
8761.00,1.35
8760.00,1.35
8759.00,1.35
8758.00,1.35
8757.00,1.35
8756.00,1.35
8755.00,1.35
8754.00,1.35
8753.00,1.35
8752.00,1.35
8751.00,1.35
8750.00,1.35
8749.00,1.35
8748.00,1.35
8747.00,1.34
8746.00,1.34
8745.00,1.34
8744.00,1.34
8743.00,1.34
8742.00,1.34
8741.00,1.33
8740.00,1.33
8739.00,1.33
8738.00,1.33
8737.00,1.33
8736.00,1.32
8735.00,1.32
8734.00,1.32
8733.00,1.32
8732.00,1.32
8731.00,1.32
8730.00,1.32
8729.00,1.32
8728.00,1.32
8727.00,1.32
8726.00,1.32
8725.00,1.32
8724.00,1.32
8723.00,1.32
8722.00,1.32
8721.00,1.32
8720.00,1.32
8719.00,1.32
8718.00,1.33
8717.00,1.33
8716.00,1.33
8715.00,1.33
8714.00,1.33
8713.00,1.33
8712.00,1.33
8711.00,1.33
8710.00,1.33
8709.00,1.33
8708.00,1.34
8707.00,1.34
8706.00,1.34
8705.00,1.34
8704.00,1.34
8703.00,1.34
8702.00,1.34
8701.00,1.34
8700.00,1.34
8699.00,1.34
8698.00,1.34
8697.00,1.34
8696.00,1.34
8695.00,1.34
8694.00,1.34
8693.00,1.34
8692.00,1.34
8691.00,1.35
8690.00,1.35
8689.00,1.35
8688.00,1.35
8687.00,1.35
8686.00,1.35
8685.00,1.35
8684.00,1.35
8683.00,1.35
8682.00,1.35
8681.00,1.35
8680.00,1.35
8679.00,1.35
8678.00,1.35
8677.00,1.35
8676.00,1.35
8675.00,1.35
8674.00,1.35
8673.00,1.35
8672.00,1.34
8671.00,1.34
8670.00,1.34
8669.00,1.34
8668.00,1.34
8667.00,1.33
8666.00,1.33
8665.00,1.33
8664.00,1.33
8663.00,1.33
8662.00,1.32
8661.00,1.32
8660.00,1.32
8659.00,1.32
8658.00,1.32
8657.00,1.32
8656.00,1.32
8655.00,1.32
8654.00,1.32
8653.00,1.32
8652.00,1.32
8651.00,1.32
8650.00,1.32
8649.00,1.32
8648.00,1.33
8647.00,1.33
8646.00,1.33
8645.00,1.33
8644.00,1.33
8643.00,1.32
8642.00,1.32
8641.00,1.32
8640.00,1.32
8639.00,1.32
8638.00,1.32
8637.00,1.32
8636.00,1.32
8635.00,1.32
8634.00,1.32
8633.00,1.32
8632.00,1.32
8631.00,1.32
8630.00,1.32
8629.00,1.32
8628.00,1.32
8627.00,1.32
8626.00,1.32
8625.00,1.33
8624.00,1.33
8623.00,1.33
8622.00,1.33
8621.00,1.33
8620.00,1.33
8619.00,1.33
8618.00,1.33
8617.00,1.33
8616.00,1.33
8615.00,1.33
8614.00,1.33
8613.00,1.33
8612.00,1.33
8611.00,1.33
8610.00,1.33
8609.00,1.33
8608.00,1.32
8607.00,1.32
8606.00,1.32
8605.00,1.32
8604.00,1.32
8603.00,1.32
8602.00,1.32
8601.00,1.32
8600.00,1.32
8599.00,1.32
8598.00,1.32
8597.00,1.31
8596.00,1.31
8595.00,1.31
8594.00,1.31
8593.00,1.31
8592.00,1.31
8591.00,1.31
8590.00,1.31
8589.00,1.31
8588.00,1.31
8587.00,1.31
8586.00,1.31
8585.00,1.31
8584.00,1.31
8583.00,1.31
8582.00,1.31
8581.00,1.32
8580.00,1.32
8579.00,1.32
8578.00,1.32
8577.00,1.32
8576.00,1.32
8575.00,1.32
8574.00,1.32
8573.00,1.32
8572.00,1.32
8571.00,1.32
8570.00,1.32
8569.00,1.32
8568.00,1.32
8567.00,1.32
8566.00,1.31
8565.00,1.31
8564.00,1.31
8563.00,1.31
8562.00,1.31
8561.00,1.30
8560.00,1.30
8559.00,1.30
8558.00,1.30
8557.00,1.30
8556.00,1.29
8555.00,1.29
8554.00,1.29
8553.00,1.29
8552.00,1.29
8551.00,1.29
8550.00,1.29
8549.00,1.29
8548.00,1.29
8547.00,1.29
8546.00,1.29
8545.00,1.29
8544.00,1.29
8543.00,1.29
8542.00,1.29
8541.00,1.29
8540.00,1.29
8539.00,1.29
8538.00,1.29
8537.00,1.29
8536.00,1.29
8535.00,1.29
8534.00,1.29
8533.00,1.29
8532.00,1.29
8531.00,1.29
8530.00,1.29
8529.00,1.29
8528.00,1.29
8527.00,1.29
8526.00,1.28
8525.00,1.28
8524.00,1.28
8523.00,1.28
8522.00,1.28
8521.00,1.28
8520.00,1.28
8519.00,1.28
8518.00,1.28
8517.00,1.28
8516.00,1.28
8515.00,1.28
8514.00,1.28
8513.00,1.28
8512.00,1.28
8511.00,1.28
8510.00,1.28
8509.00,1.28
8508.00,1.28
8507.00,1.28
8506.00,1.28
8505.00,1.28
8504.00,1.28
8503.00,1.28
8502.00,1.28
8501.00,1.28
8500.00,1.28
8499.00,1.28
8498.00,1.28
8497.00,1.28
8496.00,1.28
8495.00,1.28
8494.00,1.28
8493.00,1.28
8492.00,1.28
8491.00,1.28
8490.00,1.28
8489.00,1.28
8488.00,1.28
8487.00,1.28
8486.00,1.28
8485.00,1.28
8484.00,1.28
8483.00,1.27
8482.00,1.27
8481.00,1.27
8480.00,1.27
8479.00,1.27
8478.00,1.27
8477.00,1.27
8476.00,1.27
8475.00,1.27
8474.00,1.27
8473.00,1.27
8472.00,1.27
8471.00,1.27
8470.00,1.27
8469.00,1.27
8468.00,1.26
8467.00,1.26
8466.00,1.26
8465.00,1.26
8464.00,1.26
8463.00,1.26
8462.00,1.26
8461.00,1.26
8460.00,1.26
8459.00,1.26
8458.00,1.26
8457.00,1.26
8456.00,1.25
8455.00,1.25
8454.00,1.25
8453.00,1.25
8452.00,1.25
8451.00,1.25
8450.00,1.25
8449.00,1.25
8448.00,1.25
8447.00,1.25
8446.00,1.25
8445.00,1.25
8444.00,1.25
8443.00,1.25
8442.00,1.25
8441.00,1.25
8440.00,1.25
8439.00,1.25
8438.00,1.25
8437.00,1.25
8436.00,1.25
8435.00,1.25
8434.00,1.25
8433.00,1.25
8432.00,1.25
8431.00,1.25
8430.00,1.25
8429.00,1.25
8428.00,1.25
8427.00,1.25
8426.00,1.25
8425.00,1.25
8424.00,1.26
8423.00,1.26
8422.00,1.26
8421.00,1.26
8420.00,1.26
8419.00,1.26
8418.00,1.26
8417.00,1.26
8416.00,1.26
8415.00,1.26
8414.00,1.26
8413.00,1.26
8412.00,1.26
8411.00,1.26
8410.00,1.26
8409.00,1.26
8408.00,1.26
8407.00,1.26
8406.00,1.26
8405.00,1.26
8404.00,1.26
8403.00,1.26
8402.00,1.26
8401.00,1.26
8400.00,1.26
8399.00,1.27
8398.00,1.27
8397.00,1.27
8396.00,1.27
8395.00,1.27
8394.00,1.27
8393.00,1.27
8392.00,1.27
8391.00,1.27
8390.00,1.28
8389.00,1.28
8388.00,1.28
8387.00,1.28
8386.00,1.28
8385.00,1.28
8384.00,1.28
8383.00,1.28
8382.00,1.28
8381.00,1.28
8380.00,1.28
8379.00,1.28
8378.00,1.28
8377.00,1.28
8376.00,1.28
8375.00,1.28
8374.00,1.28
8373.00,1.28
8372.00,1.28
8371.00,1.28
8370.00,1.28
8369.00,1.28
8368.00,1.28
8367.00,1.28
8366.00,1.28
8365.00,1.28
8364.00,1.28
8363.00,1.28
8362.00,1.28
8361.00,1.28
8360.00,1.28
8359.00,1.28
8358.00,1.28
8357.00,1.28
8356.00,1.28
8355.00,1.28
8354.00,1.28
8353.00,1.28
8352.00,1.28
8351.00,1.28
8350.00,1.28
8349.00,1.28
8348.00,1.28
8347.00,1.28
8346.00,1.28
8345.00,1.28
8344.00,1.29
8343.00,1.29
8342.00,1.29
8341.00,1.29
8340.00,1.29
8339.00,1.29
8338.00,1.29
8337.00,1.29
8336.00,1.29
8335.00,1.29
8334.00,1.29
8333.00,1.29
8332.00,1.29
8331.00,1.29
8330.00,1.29
8329.00,1.29
8328.00,1.29
8327.00,1.29
8326.00,1.29
8325.00,1.29
8324.00,1.29
8323.00,1.29
8322.00,1.29
8321.00,1.29
8320.00,1.29
8319.00,1.29
8318.00,1.29
8317.00,1.29
8316.00,1.29
8315.00,1.29
8314.00,1.29
8313.00,1.29
8312.00,1.29
8311.00,1.29
8310.00,1.29
8309.00,1.29
8308.00,1.29
8307.00,1.29
8306.00,1.29
8305.00,1.29
8304.00,1.29
8303.00,1.29
8302.00,1.29
8301.00,1.29
8300.00,1.29
8299.00,1.29
8298.00,1.29
8297.00,1.29
8296.00,1.29
8295.00,1.29
8294.00,1.29
8293.00,1.29
8292.00,1.29
8291.00,1.29
8290.00,1.29
8289.00,1.29
8288.00,1.29
8287.00,1.30
8286.00,1.30
8285.00,1.30
8284.00,1.30
8283.00,1.30
8282.00,1.30
8281.00,1.30
8280.00,1.30
8279.00,1.30
8278.00,1.30
8277.00,1.30
8276.00,1.30
8275.00,1.30
8274.00,1.30
8273.00,1.30
8272.00,1.30
8271.00,1.30
8270.00,1.30
8269.00,1.30
8268.00,1.30
8267.00,1.30
8266.00,1.30
8265.00,1.30
8264.00,1.30
8263.00,1.30
8262.00,1.30
8261.00,1.30
8260.00,1.30
8259.00,1.30
8258.00,1.30
8257.00,1.30
8256.00,1.30
8255.00,1.30
8254.00,1.30
8253.00,1.30
8252.00,1.30
8251.00,1.30
8250.00,1.30
8249.00,1.30
8248.00,1.30
8247.00,1.30
8246.00,1.30
8245.00,1.30
8244.00,1.30
8243.00,1.30
8242.00,1.30
8241.00,1.30
8240.00,1.30
8239.00,1.30
8238.00,1.30
8237.00,1.30
8236.00,1.30
8235.00,1.30
8234.00,1.30
8233.00,1.30
8232.00,1.30
8231.00,1.31
8230.00,1.31
8229.00,1.31
8228.00,1.31
8227.00,1.31
8226.00,1.31
8225.00,1.31
8224.00,1.31
8223.00,1.31
8222.00,1.31
8221.00,1.31
8220.00,1.31
8219.00,1.31
8218.00,1.31
8217.00,1.31
8216.00,1.31
8215.00,1.31
8214.00,1.31
8213.00,1.31
8212.00,1.31
8211.00,1.31
8210.00,1.31
8209.00,1.31
8208.00,1.31
8207.00,1.31
8206.00,1.31
8205.00,1.31
8204.00,1.31
8203.00,1.31
8202.00,1.31
8201.00,1.31
8200.00,1.31
8199.00,1.31
8198.00,1.31
8197.00,1.31
8196.00,1.31
8195.00,1.31
8194.00,1.31
8193.00,1.31
8192.00,1.31
8191.00,1.31
8190.00,1.31
8189.00,1.31
8188.00,1.31
8187.00,1.31
8186.00,1.31
8185.00,1.31
8184.00,1.31
8183.00,1.31
8182.00,1.31
8181.00,1.31
8180.00,1.31
8179.00,1.31
8178.00,1.31
8177.00,1.31
8176.00,1.31
8175.00,1.31
8174.00,1.31
8173.00,1.31
8172.00,1.31
8171.00,1.31
8170.00,1.32
8169.00,1.32
8168.00,1.32
8167.00,1.32
8166.00,1.32
8165.00,1.32
8164.00,1.32
8163.00,1.32
8162.00,1.32
8161.00,1.32
8160.00,1.32
8159.00,1.33
8158.00,1.33
8157.00,1.33
8156.00,1.33
8155.00,1.33
8154.00,1.33
8153.00,1.33
8152.00,1.33
8151.00,1.33
8150.00,1.33
8149.00,1.33
8148.00,1.33
8147.00,1.33
8146.00,1.33
8145.00,1.33
8144.00,1.33
8143.00,1.33
8142.00,1.33
8141.00,1.33
8140.00,1.33
8139.00,1.33
8138.00,1.33
8137.00,1.33
8136.00,1.33
8135.00,1.33
8134.00,1.33
8133.00,1.33
8132.00,1.33
8131.00,1.33
8130.00,1.33
8129.00,1.33
8128.00,1.33
8127.00,1.33
8126.00,1.33
8125.00,1.33
8124.00,1.33
8123.00,1.33
8122.00,1.33
8121.00,1.33
8120.00,1.33
8119.00,1.33
8118.00,1.33
8117.00,1.33
8116.00,1.33
8115.00,1.33
8114.00,1.33
8113.00,1.33
8112.00,1.33
8111.00,1.33
8110.00,1.33
8109.00,1.33
8108.00,1.33
8107.00,1.33
8106.00,1.33
8105.00,1.33
8104.00,1.33
8103.00,1.33
8102.00,1.33
8101.00,1.34
8100.00,1.34
8099.00,1.34
8098.00,1.34
8097.00,1.34
8096.00,1.34
8095.00,1.34
8094.00,1.34
8093.00,1.34
8092.00,1.34
8091.00,1.34
8090.00,1.34
8089.00,1.34
8088.00,1.34
8087.00,1.34
8086.00,1.34
8085.00,1.34
8084.00,1.34
8083.00,1.34
8082.00,1.34
8081.00,1.34
8080.00,1.34
8079.00,1.34
8078.00,1.34
8077.00,1.34
8076.00,1.34
8075.00,1.34
8074.00,1.34
8073.00,1.34
8072.00,1.34
8071.00,1.34
8070.00,1.35
8069.00,1.35
8068.00,1.35
8067.00,1.35
8066.00,1.35
8065.00,1.35
8064.00,1.35
8063.00,1.35
8062.00,1.35
8061.00,1.35
8060.00,1.35
8059.00,1.35
8058.00,1.34
8057.00,1.34
8056.00,1.34
8055.00,1.34
8054.00,1.34
8053.00,1.34
8052.00,1.34
8051.00,1.34
8050.00,1.34
8049.00,1.34
8048.00,1.34
8047.00,1.34
8046.00,1.34
8045.00,1.34
8044.00,1.34
8043.00,1.34
8042.00,1.34
8041.00,1.34
8040.00,1.34
8039.00,1.35
8038.00,1.35
8037.00,1.35
8036.00,1.35
8035.00,1.35
8034.00,1.35
8033.00,1.35
8032.00,1.35
8031.00,1.35
8030.00,1.35
8029.00,1.35
8028.00,1.35
8027.00,1.35
8026.00,1.35
8025.00,1.35
8024.00,1.35
8023.00,1.35
8022.00,1.35
8021.00,1.35
8020.00,1.35
8019.00,1.35
8018.00,1.35
8017.00,1.35
8016.00,1.35
8015.00,1.35
8014.00,1.35
8013.00,1.35
8012.00,1.35
8011.00,1.35
8010.00,1.35
8009.00,1.35
8008.00,1.35
8007.00,1.35
8006.00,1.35
8005.00,1.35
8004.00,1.35
8003.00,1.35
8002.00,1.35
8001.00,1.35
8000.00,1.35
7999.00,1.35
7998.00,1.35
7997.00,1.35
7996.00,1.36
7995.00,1.36
7994.00,1.36
7993.00,1.36
7992.00,1.36
7991.00,1.36
7990.00,1.35
7989.00,1.35
7988.00,1.35
7987.00,1.35
7986.00,1.35
7985.00,1.35
7984.00,1.35
7983.00,1.35
7982.00,1.35
7981.00,1.35
7980.00,1.35
7979.00,1.35
7978.00,1.35
7977.00,1.35
7976.00,1.35
7975.00,1.35
7974.00,1.35
7973.00,1.35
7972.00,1.35
7971.00,1.35
7970.00,1.35
7969.00,1.35
7968.00,1.35
7967.00,1.35
7966.00,1.35
7965.00,1.35
7964.00,1.35
7963.00,1.35
7962.00,1.35
7961.00,1.36
7960.00,1.36
7959.00,1.36
7958.00,1.36
7957.00,1.36
7956.00,1.36
7955.00,1.36
7954.00,1.36
7953.00,1.36
7952.00,1.36
7951.00,1.36
7950.00,1.36
7949.00,1.36
7948.00,1.36
7947.00,1.36
7946.00,1.36
7945.00,1.36
7944.00,1.36
7943.00,1.36
7942.00,1.36
7941.00,1.36
7940.00,1.36
7939.00,1.36
7938.00,1.36
7937.00,1.36
7936.00,1.36
7935.00,1.36
7934.00,1.36
7933.00,1.36
7932.00,1.36
7931.00,1.36
7930.00,1.36
7929.00,1.36
7928.00,1.36
7927.00,1.36
7926.00,1.36
7925.00,1.36
7924.00,1.36
7923.00,1.36
7922.00,1.36
7921.00,1.36
7920.00,1.36
7919.00,1.36
7918.00,1.36
7917.00,1.36
7916.00,1.37
7915.00,1.37
7914.00,1.37
7913.00,1.37
7912.00,1.37
7911.00,1.37
7910.00,1.37
7909.00,1.37
7908.00,1.37
7907.00,1.37
7906.00,1.37
7905.00,1.37
7904.00,1.37
7903.00,1.37
7902.00,1.37
7901.00,1.37
7900.00,1.37
7899.00,1.37
7898.00,1.37
7897.00,1.37
7896.00,1.37
7895.00,1.37
7894.00,1.37
7893.00,1.37
7892.00,1.37
7891.00,1.37
7890.00,1.37
7889.00,1.37
7888.00,1.37
7887.00,1.37
7886.00,1.37
7885.00,1.37
7884.00,1.37
7883.00,1.37
7882.00,1.37
7881.00,1.37
7880.00,1.37
7879.00,1.37
7878.00,1.37
7877.00,1.37
7876.00,1.37
7875.00,1.37
7874.00,1.37
7873.00,1.37
7872.00,1.37
7871.00,1.37
7870.00,1.37
7869.00,1.37
7868.00,1.37
7867.00,1.37
7866.00,1.37
7865.00,1.37
7864.00,1.37
7863.00,1.37
7862.00,1.37
7861.00,1.37
7860.00,1.37
7859.00,1.37
7858.00,1.37
7857.00,1.37
7856.00,1.37
7855.00,1.38
7854.00,1.38
7853.00,1.38
7852.00,1.38
7851.00,1.38
7850.00,1.38
7849.00,1.38
7848.00,1.37
7847.00,1.37
7846.00,1.37
7845.00,1.37
7844.00,1.37
7843.00,1.37
7842.00,1.37
7841.00,1.37
7840.00,1.37
7839.00,1.37
7838.00,1.37
7837.00,1.37
7836.00,1.37
7835.00,1.37
7834.00,1.38
7833.00,1.38
7832.00,1.38
7831.00,1.38
7830.00,1.38
7829.00,1.38
7828.00,1.38
7827.00,1.38
7826.00,1.38
7825.00,1.38
7824.00,1.38
7823.00,1.38
7822.00,1.38
7821.00,1.38
7820.00,1.38
7819.00,1.38
7818.00,1.38
7817.00,1.38
7816.00,1.38
7815.00,1.37
7814.00,1.38
7813.00,1.38
7812.00,1.38
7811.00,1.38
7810.00,1.38
7809.00,1.38
7808.00,1.38
7807.00,1.38
7806.00,1.38
7805.00,1.38
7804.00,1.38
7803.00,1.38
7802.00,1.38
7801.00,1.38
7800.00,1.38
7799.00,1.38
7798.00,1.38
7797.00,1.38
7796.00,1.38
7795.00,1.38
7794.00,1.38
7793.00,1.38
7792.00,1.38
7791.00,1.38
7790.00,1.38
7789.00,1.38
7788.00,1.38
7787.00,1.38
7786.00,1.38
7785.00,1.38
7784.00,1.38
7783.00,1.38
7782.00,1.38
7781.00,1.38
7780.00,1.38
7779.00,1.38
7778.00,1.38
7777.00,1.38
7776.00,1.38
7775.00,1.38
7774.00,1.38
7773.00,1.38
7772.00,1.38
7771.00,1.38
7770.00,1.37
7769.00,1.37
7768.00,1.37
7767.00,1.37
7766.00,1.37
7765.00,1.37
7764.00,1.37
7763.00,1.37
7762.00,1.37
7761.00,1.37
7760.00,1.37
7759.00,1.38
7758.00,1.38
7757.00,1.38
7756.00,1.38
7755.00,1.38
7754.00,1.38
7753.00,1.38
7752.00,1.38
7751.00,1.38
7750.00,1.38
7749.00,1.38
7748.00,1.38
7747.00,1.38
7746.00,1.38
7745.00,1.38
7744.00,1.38
7743.00,1.38
7742.00,1.38
7741.00,1.38
7740.00,1.38
7739.00,1.38
7738.00,1.38
7737.00,1.38
7736.00,1.38
7735.00,1.38
7734.00,1.38
7733.00,1.38
7732.00,1.38
7731.00,1.38
7730.00,1.38
7729.00,1.38
7728.00,1.38
7727.00,1.38
7726.00,1.38
7725.00,1.38
7724.00,1.38
7723.00,1.38
7722.00,1.38
7721.00,1.38
7720.00,1.38
7719.00,1.38
7718.00,1.38
7717.00,1.38
7716.00,1.38
7715.00,1.38
7714.00,1.38
7713.00,1.38
7712.00,1.38
7711.00,1.38
7710.00,1.38
7709.00,1.38
7708.00,1.38
7707.00,1.38
7706.00,1.38
7705.00,1.38
7704.00,1.38
7703.00,1.38
7702.00,1.38
7701.00,1.38
7700.00,1.38
7699.00,1.38
7698.00,1.38
7697.00,1.38
7696.00,1.38
7695.00,1.38
7694.00,1.38
7693.00,1.38
7692.00,1.38
7691.00,1.38
7690.00,1.38
7689.00,1.38
7688.00,1.38
7687.00,1.38
7686.00,1.38
7685.00,1.38
7684.00,1.38
7683.00,1.38
7682.00,1.38
7681.00,1.38
7680.00,1.38
7679.00,1.38
7678.00,1.38
7677.00,1.38
7676.00,1.38
7675.00,1.38
7674.00,1.38
7673.00,1.38
7672.00,1.38
7671.00,1.38
7670.00,1.38
7669.00,1.38
7668.00,1.38
7667.00,1.38
7666.00,1.38
7665.00,1.38
7664.00,1.38
7663.00,1.38
7662.00,1.38
7661.00,1.38
7660.00,1.38
7659.00,1.38
7658.00,1.38
7657.00,1.38
7656.00,1.38
7655.00,1.38
7654.00,1.38
7653.00,1.38
7652.00,1.38
7651.00,1.38
7650.00,1.38
7649.00,1.38
7648.00,1.38
7647.00,1.38
7646.00,1.38
7645.00,1.38
7644.00,1.38
7643.00,1.38
7642.00,1.38
7641.00,1.38
7640.00,1.38
7639.00,1.38
7638.00,1.38
7637.00,1.38
7636.00,1.38
7635.00,1.38
7634.00,1.38
7633.00,1.38
7632.00,1.38
7631.00,1.38
7630.00,1.38
7629.00,1.38
7628.00,1.38
7627.00,1.38
7626.00,1.38
7625.00,1.38
7624.00,1.38
7623.00,1.38
7622.00,1.38
7621.00,1.38
7620.00,1.38
7619.00,1.38
7618.00,1.38
7617.00,1.38
7616.00,1.38
7615.00,1.38
7614.00,1.38
7613.00,1.38
7612.00,1.38
7611.00,1.38
7610.00,1.38
7609.00,1.38
7608.00,1.38
7607.00,1.38
7606.00,1.38
7605.00,1.38
7604.00,1.38
7603.00,1.37
7602.00,1.37
7601.00,1.37
7600.00,1.37
7599.00,1.37
7598.00,1.37
7597.00,1.37
7596.00,1.37
7595.00,1.37
7594.00,1.37
7593.00,1.37
7592.00,1.37
7591.00,1.37
7590.00,1.37
7589.00,1.37
7588.00,1.37
7587.00,1.37
7586.00,1.37
7585.00,1.37
7584.00,1.38
7583.00,1.38
7582.00,1.38
7581.00,1.38
7580.00,1.38
7579.00,1.38
7578.00,1.38
7577.00,1.38
7576.00,1.38
7575.00,1.38
7574.00,1.38
7573.00,1.38
7572.00,1.38
7571.00,1.38
7570.00,1.38
7569.00,1.38
7568.00,1.38
7567.00,1.38
7566.00,1.38
7565.00,1.38
7564.00,1.38
7563.00,1.38
7562.00,1.38
7561.00,1.38
7560.00,1.38
7559.00,1.38
7558.00,1.38
7557.00,1.38
7556.00,1.38
7555.00,1.38
7554.00,1.38
7553.00,1.38
7552.00,1.38
7551.00,1.38
7550.00,1.37
7549.00,1.37
7548.00,1.37
7547.00,1.37
7546.00,1.37
7545.00,1.37
7544.00,1.37
7543.00,1.37
7542.00,1.37
7541.00,1.37
7540.00,1.37
7539.00,1.37
7538.00,1.37
7537.00,1.37
7536.00,1.37
7535.00,1.37
7534.00,1.37
7533.00,1.37
7532.00,1.37
7531.00,1.37
7530.00,1.37
7529.00,1.37
7528.00,1.37
7527.00,1.37
7526.00,1.37
7525.00,1.37
7524.00,1.37
7523.00,1.37
7522.00,1.37
7521.00,1.37
7520.00,1.37
7519.00,1.37
7518.00,1.37
7517.00,1.37
7516.00,1.37
7515.00,1.37
7514.00,1.37
7513.00,1.37
7512.00,1.37
7511.00,1.37
7510.00,1.37
7509.00,1.37
7508.00,1.37
7507.00,1.37
7506.00,1.37
7505.00,1.37
7504.00,1.37
7503.00,1.37
7502.00,1.37
7501.00,1.36
7500.00,1.36
7499.00,1.36
7498.00,1.36
7497.00,1.36
7496.00,1.36
7495.00,1.36
7494.00,1.36
7493.00,1.35
7492.00,1.35
7491.00,1.35
7490.00,1.35
7489.00,1.35
7488.00,1.35
7487.00,1.35
7486.00,1.35
7485.00,1.35
7484.00,1.35
7483.00,1.35
7482.00,1.35
7481.00,1.35
7480.00,1.35
7479.00,1.35
7478.00,1.36
7477.00,1.36
7476.00,1.36
7475.00,1.36
7474.00,1.36
7473.00,1.36
7472.00,1.36
7471.00,1.36
7470.00,1.36
7469.00,1.36
7468.00,1.36
7467.00,1.36
7466.00,1.36
7465.00,1.36
7464.00,1.36
7463.00,1.36
7462.00,1.36
7461.00,1.36
7460.00,1.35
7459.00,1.35
7458.00,1.35
7457.00,1.35
7456.00,1.35
7455.00,1.35
7454.00,1.35
7453.00,1.35
7452.00,1.35
7451.00,1.35
7450.00,1.35
7449.00,1.35
7448.00,1.35
7447.00,1.35
7446.00,1.35
7445.00,1.35
7444.00,1.35
7443.00,1.35
7442.00,1.35
7441.00,1.35
7440.00,1.35
7439.00,1.35
7438.00,1.35
7437.00,1.35
7436.00,1.34
7435.00,1.34
7434.00,1.34
7433.00,1.34
7432.00,1.34
7431.00,1.34
7430.00,1.34
7429.00,1.34
7428.00,1.34
7427.00,1.34
7426.00,1.34
7425.00,1.34
7424.00,1.34
7423.00,1.34
7422.00,1.34
7421.00,1.34
7420.00,1.34
7419.00,1.34
7418.00,1.34
7417.00,1.34
7416.00,1.34
7415.00,1.34
7414.00,1.34
7413.00,1.34
7412.00,1.33
7411.00,1.33
7410.00,1.33
7409.00,1.33
7408.00,1.33
7407.00,1.33
7406.00,1.33
7405.00,1.33
7404.00,1.33
7403.00,1.33
7402.00,1.33
7401.00,1.33
7400.00,1.33
7399.00,1.32
7398.00,1.32
7397.00,1.32
7396.00,1.32
7395.00,1.32
7394.00,1.32
7393.00,1.32
7392.00,1.32
7391.00,1.32
7390.00,1.32
7389.00,1.32
7388.00,1.32
7387.00,1.32
7386.00,1.31
7385.00,1.31
7384.00,1.31
7383.00,1.31
7382.00,1.31
7381.00,1.31
7380.00,1.31
7379.00,1.31
7378.00,1.31
7377.00,1.31
7376.00,1.31
7375.00,1.31
7374.00,1.30
7373.00,1.30
7372.00,1.30
7371.00,1.30
7370.00,1.30
7369.00,1.30
7368.00,1.30
7367.00,1.30
7366.00,1.30
7365.00,1.30
7364.00,1.30
7363.00,1.30
7362.00,1.30
7361.00,1.30
7360.00,1.30
7359.00,1.30
7358.00,1.30
7357.00,1.30
7356.00,1.30
7355.00,1.30
7354.00,1.30
7353.00,1.30
7352.00,1.30
7351.00,1.30
7350.00,1.30
7349.00,1.30
7348.00,1.30
7347.00,1.30
7346.00,1.30
7345.00,1.30
7344.00,1.30
7343.00,1.30
7342.00,1.30
7341.00,1.30
7340.00,1.30
7339.00,1.30
7338.00,1.30
7337.00,1.30
7336.00,1.30
7335.00,1.30
7334.00,1.30
7333.00,1.30
7332.00,1.30
7331.00,1.30
7330.00,1.30
7329.00,1.30
7328.00,1.30
7327.00,1.30
7326.00,1.30
7325.00,1.30
7324.00,1.30
7323.00,1.30
7322.00,1.30
7321.00,1.30
7320.00,1.30
7319.00,1.30
7318.00,1.29
7317.00,1.29
7316.00,1.29
7315.00,1.29
7314.00,1.29
7313.00,1.29
7312.00,1.29
7311.00,1.29
7310.00,1.28
7309.00,1.28
7308.00,1.28
7307.00,1.28
7306.00,1.28
7305.00,1.28
7304.00,1.28
7303.00,1.27
7302.00,1.27
7301.00,1.27
7300.00,1.27
7299.00,1.27
7298.00,1.27
7297.00,1.27
7296.00,1.27
7295.00,1.27
7294.00,1.27
7293.00,1.27
7292.00,1.27
7291.00,1.27
7290.00,1.27
7289.00,1.27
7288.00,1.27
7287.00,1.27
7286.00,1.27
7285.00,1.27
7284.00,1.27
7283.00,1.27
7282.00,1.27
7281.00,1.27
7280.00,1.27
7279.00,1.27
7278.00,1.26
7277.00,1.26
7276.00,1.26
7275.00,1.26
7274.00,1.26
7273.00,1.26
7272.00,1.25
7271.00,1.25
7270.00,1.25
7269.00,1.25
7268.00,1.25
7267.00,1.25
7266.00,1.24
7265.00,1.24
7264.00,1.24
7263.00,1.24
7262.00,1.24
7261.00,1.24
7260.00,1.24
7259.00,1.23
7258.00,1.23
7257.00,1.23
7256.00,1.23
7255.00,1.23
7254.00,1.23
7253.00,1.23
7252.00,1.23
7251.00,1.22
7250.00,1.22
7249.00,1.22
7248.00,1.22
7247.00,1.22
7246.00,1.22
7245.00,1.22
7244.00,1.21
7243.00,1.21
7242.00,1.21
7241.00,1.21
7240.00,1.21
7239.00,1.20
7238.00,1.20
7237.00,1.20
7236.00,1.20
7235.00,1.20
7234.00,1.19
7233.00,1.19
7232.00,1.19
7231.00,1.19
7230.00,1.19
7229.00,1.18
7228.00,1.18
7227.00,1.18
7226.00,1.18
7225.00,1.17
7224.00,1.17
7223.00,1.17
7222.00,1.17
7221.00,1.16
7220.00,1.16
7219.00,1.16
7218.00,1.16
7217.00,1.15
7216.00,1.15
7215.00,1.15
7214.00,1.15
7213.00,1.14
7212.00,1.14
7211.00,1.14
7210.00,1.14
7209.00,1.13
7208.00,1.13
7207.00,1.13
7206.00,1.13
7205.00,1.12
7204.00,1.12
7203.00,1.12
7202.00,1.11
7201.00,1.11
7200.00,1.11
7199.00,1.10
7198.00,1.10
7197.00,1.10
7196.00,1.10
7195.00,1.09
7194.00,1.09
7193.00,1.09
7192.00,1.08
7191.00,1.08
7190.00,1.08
7189.00,1.08
7188.00,1.08
7187.00,1.07
7186.00,1.07
7185.00,1.07
7184.00,1.07
7183.00,1.06
7182.00,1.06
7181.00,1.06
7180.00,1.06
7179.00,1.06
7178.00,1.05
7177.00,1.05
7176.00,1.05
7175.00,1.05
7174.00,1.05
7173.00,1.04
7172.00,1.04
7171.00,1.04
7170.00,1.04
7169.00,1.04
7168.00,1.03
7167.00,1.03
7166.00,1.03
7165.00,1.03
7164.00,1.03
7163.00,1.02
7162.00,1.02
7161.00,1.02
7160.00,1.02
7159.00,1.01
7158.00,1.01
7157.00,1.01
7156.00,1.01
7155.00,1.00
7154.00,1.00
7153.00,1.00
7152.00,1.00
7151.00,0.99
7150.00,0.99
7149.00,0.99
7148.00,0.98
7147.00,0.98
7146.00,0.98
7145.00,0.98
7144.00,0.97
7143.00,0.97
7142.00,0.97
7141.00,0.96
7140.00,0.96
7139.00,0.96
7138.00,0.96
7137.00,0.96
7136.00,0.95
7135.00,0.95
7134.00,0.95
7133.00,0.95
7132.00,0.95
7131.00,0.94
7130.00,0.94
7129.00,0.94
7128.00,0.94
7127.00,0.94
7126.00,0.93
7125.00,0.93
7124.00,0.93
7123.00,0.93
7122.00,0.93
7121.00,0.92
7120.00,0.92
7119.00,0.92
7118.00,0.92
7117.00,0.92
7116.00,0.91
7115.00,0.91
7114.00,0.91
7113.00,0.91
7112.00,0.91
7111.00,0.90
7110.00,0.90
7109.00,0.90
7108.00,0.90
7107.00,0.90
7106.00,0.89
7105.00,0.89
7104.00,0.89
7103.00,0.89
7102.00,0.89
7101.00,0.88
7100.00,0.88
7099.00,0.88
7098.00,0.88
7097.00,0.88
7096.00,0.87
7095.00,0.87
7094.00,0.87
7093.00,0.87
7092.00,0.87
7091.00,0.86
7090.00,0.86
7089.00,0.86
7088.00,0.86
7087.00,0.86
7086.00,0.86
7085.00,0.86
7084.00,0.85
7083.00,0.85
7082.00,0.85
7081.00,0.85
7080.00,0.85
7079.00,0.85
7078.00,0.85
7077.00,0.85
7076.00,0.85
7075.00,0.84
7074.00,0.84
7073.00,0.84
7072.00,0.84
7071.00,0.84
7070.00,0.84
7069.00,0.84
7068.00,0.84
7067.00,0.83
7066.00,0.83
7065.00,0.83
7064.00,0.83
7063.00,0.83
7062.00,0.82
7061.00,0.82
7060.00,0.82
7059.00,0.82
7058.00,0.82
7057.00,0.82
7056.00,0.81
7055.00,0.81
7054.00,0.81
7053.00,0.81
7052.00,0.81
7051.00,0.81
7050.00,0.81
7049.00,0.81
7048.00,0.80
7047.00,0.80
7046.00,0.80
7045.00,0.80
7044.00,0.80
7043.00,0.80
7042.00,0.80
7041.00,0.80
7040.00,0.80
7039.00,0.80
7038.00,0.79
7037.00,0.79
7036.00,0.79
7035.00,0.79
7034.00,0.79
7033.00,0.79
7032.00,0.79
7031.00,0.79
7030.00,0.78
7029.00,0.78
7028.00,0.78
7027.00,0.78
7026.00,0.78
7025.00,0.78
7024.00,0.78
7023.00,0.78
7022.00,0.77
7021.00,0.77
7020.00,0.77
7019.00,0.77
7018.00,0.77
7017.00,0.77
7016.00,0.77
7015.00,0.77
7014.00,0.77
7013.00,0.77
7012.00,0.77
7011.00,0.77
7010.00,0.77
7009.00,0.76
7008.00,0.76
7007.00,0.76
7006.00,0.76
7005.00,0.76
7004.00,0.76
7003.00,0.76
7002.00,0.76
7001.00,0.76
7000.00,0.76
6999.00,0.76
6998.00,0.76
6997.00,0.76
6996.00,0.76
6995.00,0.76
6994.00,0.76
6993.00,0.76
6992.00,0.76
6991.00,0.76
6990.00,0.76
6989.00,0.76
6988.00,0.76
6987.00,0.76
6986.00,0.76
6985.00,0.76
6984.00,0.76
6983.00,0.75
6982.00,0.75
6981.00,0.75
6980.00,0.75
6979.00,0.75
6978.00,0.75
6977.00,0.75
6976.00,0.75
6975.00,0.74
6974.00,0.74
6973.00,0.74
6972.00,0.74
6971.00,0.74
6970.00,0.74
6969.00,0.74
6968.00,0.74
6967.00,0.74
6966.00,0.74
6965.00,0.74
6964.00,0.74
6963.00,0.74
6962.00,0.74
6961.00,0.74
6960.00,0.74
6959.00,0.74
6958.00,0.74
6957.00,0.74
6956.00,0.74
6955.00,0.74
6954.00,0.74
6953.00,0.74
6952.00,0.74
6951.00,0.73
6950.00,0.73
6949.00,0.73
6948.00,0.73
6947.00,0.73
6946.00,0.73
6945.00,0.73
6944.00,0.73
6943.00,0.73
6942.00,0.73
6941.00,0.73
6940.00,0.73
6939.00,0.73
6938.00,0.73
6937.00,0.73
6936.00,0.73
6935.00,0.73
6934.00,0.73
6933.00,0.73
6932.00,0.73
6931.00,0.73
6930.00,0.73
6929.00,0.73
6928.00,0.73
6927.00,0.73
6926.00,0.73
6925.00,0.73
6924.00,0.73
6923.00,0.73
6922.00,0.73
6921.00,0.73
6920.00,0.73
6919.00,0.73
6918.00,0.72
6917.00,0.72
6916.00,0.72
6915.00,0.72
6914.00,0.72
6913.00,0.72
6912.00,0.72
6911.00,0.72
6910.00,0.72
6909.00,0.72
6908.00,0.72
6907.00,0.72
6906.00,0.72
6905.00,0.72
6904.00,0.72
6903.00,0.72
6902.00,0.72
6901.00,0.72
6900.00,0.72
6899.00,0.72
6898.00,0.72
6897.00,0.72
6896.00,0.72
6895.00,0.72
6894.00,0.72
6893.00,0.72
6892.00,0.72
6891.00,0.72
6890.00,0.72
6889.00,0.72
6888.00,0.72
6887.00,0.72
6886.00,0.72
6885.00,0.72
6884.00,0.72
6883.00,0.72
6882.00,0.72
6881.00,0.72
6880.00,0.72
6879.00,0.72
6878.00,0.72
6877.00,0.72
6876.00,0.72
6875.00,0.72
6874.00,0.72
6873.00,0.72
6872.00,0.72
6871.00,0.72
6870.00,0.72
6869.00,0.72
6868.00,0.72
6867.00,0.72
6866.00,0.72
6865.00,0.72
6864.00,0.72
6863.00,0.72
6862.00,0.72
6861.00,0.72
6860.00,0.72
6859.00,0.72
6858.00,0.72
6857.00,0.72
6856.00,0.72
6855.00,0.72
6854.00,0.72
6853.00,0.72
6852.00,0.72
6851.00,0.72
6850.00,0.72
6849.00,0.72
6848.00,0.72
6847.00,0.72
6846.00,0.72
6845.00,0.72
6844.00,0.72
6843.00,0.72
6842.00,0.72
6841.00,0.72
6840.00,0.72
6839.00,0.72
6838.00,0.72
6837.00,0.72
6836.00,0.72
6835.00,0.72
6834.00,0.72
6833.00,0.72
6832.00,0.72
6831.00,0.72
6830.00,0.72
6829.00,0.72
6828.00,0.72
6827.00,0.72
6826.00,0.72
6825.00,0.72
6824.00,0.72
6823.00,0.72
6822.00,0.73
6821.00,0.73
6820.00,0.73
6819.00,0.73
6818.00,0.73
6817.00,0.73
6816.00,0.73
6815.00,0.73
6814.00,0.73
6813.00,0.73
6812.00,0.73
6811.00,0.73
6810.00,0.73
6809.00,0.73
6808.00,0.73
6807.00,0.73
6806.00,0.73
6805.00,0.73
6804.00,0.73
6803.00,0.73
6802.00,0.73
6801.00,0.73
6800.00,0.73
6799.00,0.73
6798.00,0.73
6797.00,0.73
6796.00,0.73
6795.00,0.73
6794.00,0.73
6793.00,0.73
6792.00,0.73
6791.00,0.74
6790.00,0.74
6789.00,0.74
6788.00,0.74
6787.00,0.74
6786.00,0.74
6785.00,0.74
6784.00,0.74
6783.00,0.74
6782.00,0.74
6781.00,0.74
6780.00,0.74
6779.00,0.74
6778.00,0.74
6777.00,0.74
6776.00,0.74
6775.00,0.74
6774.00,0.74
6773.00,0.74
6772.00,0.74
6771.00,0.74
6770.00,0.74
6769.00,0.74
6768.00,0.75
6767.00,0.75
6766.00,0.75
6765.00,0.75
6764.00,0.75
6763.00,0.75
6762.00,0.75
6761.00,0.75
6760.00,0.75
6759.00,0.75
6758.00,0.75
6757.00,0.75
6756.00,0.75
6755.00,0.75
6754.00,0.75
6753.00,0.75
6752.00,0.75
6751.00,0.75
6750.00,0.75
6749.00,0.75
6748.00,0.75
6747.00,0.76
6746.00,0.76
6745.00,0.76
6744.00,0.76
6743.00,0.76
6742.00,0.76
6741.00,0.76
6740.00,0.76
6739.00,0.76
6738.00,0.76
6737.00,0.76
6736.00,0.76
6735.00,0.76
6734.00,0.76
6733.00,0.76
6732.00,0.77
6731.00,0.77
6730.00,0.77
6729.00,0.77
6728.00,0.77
6727.00,0.77
6726.00,0.77
6725.00,0.77
6724.00,0.77
6723.00,0.77
6722.00,0.77
6721.00,0.77
6720.00,0.77
6719.00,0.77
6718.00,0.77
6717.00,0.77
6716.00,0.77
6715.00,0.77
6714.00,0.78
6713.00,0.78
6712.00,0.78
6711.00,0.78
6710.00,0.78
6709.00,0.78
6708.00,0.78
6707.00,0.78
6706.00,0.78
6705.00,0.78
6704.00,0.78
6703.00,0.78
6702.00,0.78
6701.00,0.78
6700.00,0.78
6699.00,0.78
6698.00,0.78
6697.00,0.79
6696.00,0.79
6695.00,0.79
6694.00,0.79
6693.00,0.79
6692.00,0.79
6691.00,0.79
6690.00,0.79
6689.00,0.79
6688.00,0.79
6687.00,0.80
6686.00,0.80
6685.00,0.80
6684.00,0.80
6683.00,0.80
6682.00,0.80
6681.00,0.81
6680.00,0.81
6679.00,0.81
6678.00,0.81
6677.00,0.81
6676.00,0.81
6675.00,0.81
6674.00,0.82
6673.00,0.82
6672.00,0.82
6671.00,0.82
6670.00,0.82
6669.00,0.82
6668.00,0.82
6667.00,0.82
6666.00,0.82
6665.00,0.82
6664.00,0.82
6663.00,0.82
6662.00,0.82
6661.00,0.82
6660.00,0.82
6659.00,0.82
6658.00,0.82
6657.00,0.82
6656.00,0.82
6655.00,0.82
6654.00,0.82
6653.00,0.82
6652.00,0.82
6651.00,0.82
6650.00,0.82
6649.00,0.82
6648.00,0.82
6647.00,0.83
6646.00,0.83
6645.00,0.83
6644.00,0.83
6643.00,0.83
6642.00,0.83
6641.00,0.83
6640.00,0.83
6639.00,0.83
6638.00,0.83
6637.00,0.84
6636.00,0.84
6635.00,0.84
6634.00,0.84
6633.00,0.84
6632.00,0.84
6631.00,0.84
6630.00,0.85
6629.00,0.85
6628.00,0.85
6627.00,0.85
6626.00,0.85
6625.00,0.85
6624.00,0.85
6623.00,0.86
6622.00,0.86
6621.00,0.86
6620.00,0.86
6619.00,0.86
6618.00,0.86
6617.00,0.86
6616.00,0.86
6615.00,0.86
6614.00,0.86
6613.00,0.86
6612.00,0.87
6611.00,0.87
6610.00,0.87
6609.00,0.87
6608.00,0.87
6607.00,0.87
6606.00,0.87
6605.00,0.87
6604.00,0.87
6603.00,0.87
6602.00,0.87
6601.00,0.87
6600.00,0.87
6599.00,0.87
6598.00,0.87
6597.00,0.88
6596.00,0.88
6595.00,0.88
6594.00,0.88
6593.00,0.88
6592.00,0.88
6591.00,0.88
6590.00,0.88
6589.00,0.88
6588.00,0.88
6587.00,0.88
6586.00,0.88
6585.00,0.88
6584.00,0.89
6583.00,0.89
6582.00,0.89
6581.00,0.89
6580.00,0.89
6579.00,0.89
6578.00,0.89
6577.00,0.89
6576.00,0.89
6575.00,0.89
6574.00,0.89
6573.00,0.89
6572.00,0.89
6571.00,0.89
6570.00,0.89
6569.00,0.89
6568.00,0.89
6567.00,0.90
6566.00,0.90
6565.00,0.90
6564.00,0.90
6563.00,0.90
6562.00,0.90
6561.00,0.90
6560.00,0.90
6559.00,0.90
6558.00,0.91
6557.00,0.91
6556.00,0.91
6555.00,0.91
6554.00,0.91
6553.00,0.91
6552.00,0.91
6551.00,0.91
6550.00,0.91
6549.00,0.92
6548.00,0.92
6547.00,0.92
6546.00,0.92
6545.00,0.92
6544.00,0.92
6543.00,0.92
6542.00,0.92
6541.00,0.92
6540.00,0.92
6539.00,0.92
6538.00,0.93
6537.00,0.93
6536.00,0.93
6535.00,0.93
6534.00,0.93
6533.00,0.93
6532.00,0.93
6531.00,0.93
6530.00,0.93
6529.00,0.93
6528.00,0.93
6527.00,0.93
6526.00,0.93
6525.00,0.93
6524.00,0.93
6523.00,0.93
6522.00,0.93
6521.00,0.93
6520.00,0.93
6519.00,0.93
6518.00,0.93
6517.00,0.94
6516.00,0.94
6515.00,0.94
6514.00,0.94
6513.00,0.94
6512.00,0.94
6511.00,0.94
6510.00,0.94
6509.00,0.94
6508.00,0.94
6507.00,0.94
6506.00,0.94
6505.00,0.94
6504.00,0.94
6503.00,0.94
6502.00,0.94
6501.00,0.94
6500.00,0.94
6499.00,0.94
6498.00,0.94
6497.00,0.95
6496.00,0.95
6495.00,0.95
6494.00,0.95
6493.00,0.95
6492.00,0.95
6491.00,0.95
6490.00,0.95
6489.00,0.95
6488.00,0.95
6487.00,0.95
6486.00,0.95
6485.00,0.95
6484.00,0.95
6483.00,0.95
6482.00,0.95
6481.00,0.96
6480.00,0.96
6479.00,0.96
6478.00,0.96
6477.00,0.96
6476.00,0.96
6475.00,0.96
6474.00,0.96
6473.00,0.96
6472.00,0.96
6471.00,0.96
6470.00,0.96
6469.00,0.96
6468.00,0.96
6467.00,0.96
6466.00,0.96
6465.00,0.97
6464.00,0.97
6463.00,0.97
6462.00,0.97
6461.00,0.97
6460.00,0.97
6459.00,0.97
6458.00,0.97
6457.00,0.97
6456.00,0.97
6455.00,0.97
6454.00,0.98
6453.00,0.98
6452.00,0.98
6451.00,0.98
6450.00,0.98
6449.00,0.98
6448.00,0.98
6447.00,0.98
6446.00,0.98
6445.00,0.98
6444.00,0.98
6443.00,0.98
6442.00,0.98
6441.00,0.98
6440.00,0.98
6439.00,0.98
6438.00,0.98
6437.00,0.98
6436.00,0.98
6435.00,0.98
6434.00,0.98
6433.00,0.98
6432.00,0.98
6431.00,0.98
6430.00,0.98
6429.00,0.98
6428.00,0.98
6427.00,0.98
6426.00,0.98
6425.00,0.98
6424.00,0.98
6423.00,0.98
6422.00,0.98
6421.00,0.98
6420.00,0.98
6419.00,0.99
6418.00,0.99
6417.00,0.99
6416.00,0.99
6415.00,0.99
6414.00,0.99
6413.00,0.99
6412.00,0.99
6411.00,0.99
6410.00,0.99
6409.00,0.99
6408.00,0.99
6407.00,0.99
6406.00,1.00
6405.00,1.00
6404.00,1.00
6403.00,1.00
6402.00,1.00
6401.00,1.00
6400.00,1.00
6399.00,1.00
6398.00,1.00
6397.00,1.00
6396.00,1.00
6395.00,1.00
6394.00,1.00
6393.00,1.00
6392.00,1.00
6391.00,1.00
6390.00,1.00
6389.00,1.00
6388.00,1.00
6387.00,1.00
6386.00,1.00
6385.00,1.01
6384.00,1.01
6383.00,1.01
6382.00,1.01
6381.00,1.01
6380.00,1.01
6379.00,1.01
6378.00,1.01
6377.00,1.01
6376.00,1.01
6375.00,1.01
6374.00,1.01
6373.00,1.01
6372.00,1.01
6371.00,1.01
6370.00,1.01
6369.00,1.01
6368.00,1.01
6367.00,1.01
6366.00,1.02
6365.00,1.02
6364.00,1.02
6363.00,1.02
6362.00,1.02
6361.00,1.02
6360.00,1.02
6359.00,1.02
6358.00,1.02
6357.00,1.02
6356.00,1.02
6355.00,1.03
6354.00,1.03
6353.00,1.03
6352.00,1.03
6351.00,1.03
6350.00,1.03
6349.00,1.03
6348.00,1.03
6347.00,1.03
6346.00,1.03
6345.00,1.03
6344.00,1.03
6343.00,1.03
6342.00,1.03
6341.00,1.04
6340.00,1.04
6339.00,1.04
6338.00,1.04
6337.00,1.04
6336.00,1.04
6335.00,1.04
6334.00,1.04
6333.00,1.04
6332.00,1.04
6331.00,1.04
6330.00,1.04
6329.00,1.04
6328.00,1.04
6327.00,1.05
6326.00,1.05
6325.00,1.05
6324.00,1.05
6323.00,1.05
6322.00,1.05
6321.00,1.05
6320.00,1.05
6319.00,1.05
6318.00,1.05
6317.00,1.05
6316.00,1.05
6315.00,1.05
6314.00,1.05
6313.00,1.06
6312.00,1.06
6311.00,1.06
6310.00,1.06
6309.00,1.06
6308.00,1.06
6307.00,1.06
6306.00,1.06
6305.00,1.06
6304.00,1.06
6303.00,1.06
6302.00,1.07
6301.00,1.07
6300.00,1.07
6299.00,1.07
6298.00,1.07
6297.00,1.07
6296.00,1.07
6295.00,1.07
6294.00,1.07
6293.00,1.07
6292.00,1.07
6291.00,1.07
6290.00,1.07
6289.00,1.08
6288.00,1.08
6287.00,1.08
6286.00,1.08
6285.00,1.08
6284.00,1.08
6283.00,1.08
6282.00,1.08
6281.00,1.08
6280.00,1.09
6279.00,1.09
6278.00,1.09
6277.00,1.09
6276.00,1.09
6275.00,1.09
6274.00,1.09
6273.00,1.09
6272.00,1.09
6271.00,1.09
6270.00,1.09
6269.00,1.09
6268.00,1.10
6267.00,1.10
6266.00,1.10
6265.00,1.10
6264.00,1.10
6263.00,1.10
6262.00,1.10
6261.00,1.10
6260.00,1.10
6259.00,1.10
6258.00,1.10
6257.00,1.10
6256.00,1.10
6255.00,1.10
6254.00,1.10
6253.00,1.11
6252.00,1.11
6251.00,1.11
6250.00,1.11
6249.00,1.11
6248.00,1.11
6247.00,1.11
6246.00,1.11
6245.00,1.11
6244.00,1.11
6243.00,1.11
6242.00,1.12
6241.00,1.12
6240.00,1.12
6239.00,1.12
6238.00,1.12
6237.00,1.12
6236.00,1.12
6235.00,1.12
6234.00,1.13
6233.00,1.13
6232.00,1.13
6231.00,1.13
6230.00,1.13
6229.00,1.13
6228.00,1.13
6227.00,1.14
6226.00,1.14
6225.00,1.14
6224.00,1.14
6223.00,1.14
6222.00,1.14
6221.00,1.14
6220.00,1.14
6219.00,1.14
6218.00,1.14
6217.00,1.14
6216.00,1.15
6215.00,1.15
6214.00,1.15
6213.00,1.15
6212.00,1.15
6211.00,1.15
6210.00,1.15
6209.00,1.15
6208.00,1.15
6207.00,1.15
6206.00,1.15
6205.00,1.15
6204.00,1.16
6203.00,1.16
6202.00,1.16
6201.00,1.16
6200.00,1.16
6199.00,1.16
6198.00,1.16
6197.00,1.16
6196.00,1.17
6195.00,1.17
6194.00,1.17
6193.00,1.17
6192.00,1.17
6191.00,1.17
6190.00,1.17
6189.00,1.17
6188.00,1.17
6187.00,1.18
6186.00,1.18
6185.00,1.18
6184.00,1.18
6183.00,1.18
6182.00,1.18
6181.00,1.18
6180.00,1.18
6179.00,1.18
6178.00,1.18
6177.00,1.18
6176.00,1.18
6175.00,1.18
6174.00,1.18
6173.00,1.18
6172.00,1.18
6171.00,1.19
6170.00,1.19
6169.00,1.19
6168.00,1.19
6167.00,1.19
6166.00,1.19
6165.00,1.19
6164.00,1.19
6163.00,1.19
6162.00,1.20
6161.00,1.20
6160.00,1.20
6159.00,1.20
6158.00,1.20
6157.00,1.20
6156.00,1.20
6155.00,1.20
6154.00,1.21
6153.00,1.21
6152.00,1.21
6151.00,1.21
6150.00,1.21
6149.00,1.21
6148.00,1.22
6147.00,1.22
6146.00,1.22
6145.00,1.22
6144.00,1.22
6143.00,1.22
6142.00,1.22
6141.00,1.23
6140.00,1.23
6139.00,1.23
6138.00,1.23
6137.00,1.23
6136.00,1.23
6135.00,1.23
6134.00,1.23
6133.00,1.23
6132.00,1.24
6131.00,1.24
6130.00,1.24
6129.00,1.24
6128.00,1.24
6127.00,1.24
6126.00,1.24
6125.00,1.24
6124.00,1.24
6123.00,1.24
6122.00,1.24
6121.00,1.24
6120.00,1.25
6119.00,1.25
6118.00,1.25
6117.00,1.25
6116.00,1.25
6115.00,1.25
6114.00,1.25
6113.00,1.25
6112.00,1.25
6111.00,1.25
6110.00,1.26
6109.00,1.26
6108.00,1.26
6107.00,1.26
6106.00,1.26
6105.00,1.26
6104.00,1.26
6103.00,1.26
6102.00,1.26
6101.00,1.26
6100.00,1.26
6099.00,1.26
6098.00,1.27
6097.00,1.27
6096.00,1.27
6095.00,1.27
6094.00,1.27
6093.00,1.27
6092.00,1.27
6091.00,1.27
6090.00,1.27
6089.00,1.28
6088.00,1.28
6087.00,1.28
6086.00,1.28
6085.00,1.28
6084.00,1.28
6083.00,1.28
6082.00,1.28
6081.00,1.29
6080.00,1.29
6079.00,1.29
6078.00,1.29
6077.00,1.29
6076.00,1.29
6075.00,1.29
6074.00,1.29
6073.00,1.29
6072.00,1.29
6071.00,1.29
6070.00,1.29
6069.00,1.29
6068.00,1.29
6067.00,1.30
6066.00,1.30
6065.00,1.30
6064.00,1.30
6063.00,1.30
6062.00,1.30
6061.00,1.30
6060.00,1.30
6059.00,1.30
6058.00,1.30
6057.00,1.30
6056.00,1.30
6055.00,1.30
6054.00,1.30
6053.00,1.30
6052.00,1.30
6051.00,1.30
6050.00,1.30
6049.00,1.30
6048.00,1.30
6047.00,1.30
6046.00,1.30
6045.00,1.30
6044.00,1.30
6043.00,1.30
6042.00,1.30
6041.00,1.30
6040.00,1.30
6039.00,1.30
6038.00,1.30
6037.00,1.31
6036.00,1.31
6035.00,1.31
6034.00,1.31
6033.00,1.31
6032.00,1.31
6031.00,1.31
6030.00,1.31
6029.00,1.31
6028.00,1.31
6027.00,1.31
6026.00,1.32
6025.00,1.32
6024.00,1.32
6023.00,1.32
6022.00,1.32
6021.00,1.32
6020.00,1.32
6019.00,1.32
6018.00,1.32
6017.00,1.32
6016.00,1.32
6015.00,1.32
6014.00,1.32
6013.00,1.32
6012.00,1.32
6011.00,1.32
6010.00,1.32
6009.00,1.32
6008.00,1.32
6007.00,1.32
6006.00,1.32
6005.00,1.32
6004.00,1.32
6003.00,1.32
6002.00,1.32
6001.00,1.32
6000.00,1.32
5999.00,1.32
5998.00,1.32
5997.00,1.31
5996.00,1.31
5995.00,1.31
5994.00,1.31
5993.00,1.31
5992.00,1.31
5991.00,1.31
5990.00,1.31
5989.00,1.31
5988.00,1.31
5987.00,1.30
5986.00,1.30
5985.00,1.30
5984.00,1.30
5983.00,1.30
5982.00,1.30
5981.00,1.29
5980.00,1.29
5979.00,1.29
5978.00,1.29
5977.00,1.28
5976.00,1.28
5975.00,1.28
5974.00,1.27
5973.00,1.27
5972.00,1.26
5971.00,1.26
5970.00,1.26
5969.00,1.25
5968.00,1.25
5967.00,1.24
5966.00,1.24
5965.00,1.23
5964.00,1.23
5963.00,1.22
5962.00,1.22
5961.00,1.21
5960.00,1.21
5959.00,1.20
5958.00,1.19
5957.00,1.19
5956.00,1.18
5955.00,1.18
5954.00,1.17
5953.00,1.17
5952.00,1.16
5951.00,1.16
5950.00,1.15
5949.00,1.15
5948.00,1.15
5947.00,1.14
5946.00,1.14
5945.00,1.14
5944.00,1.13
5943.00,1.13
5942.00,1.13
5941.00,1.13
5940.00,1.13
5939.00,1.13
5938.00,1.13
5937.00,1.13
5936.00,1.13
5935.00,1.13
5934.00,1.13
5933.00,1.13
5932.00,1.13
5931.00,1.12
5930.00,1.12
5929.00,1.12
5928.00,1.12
5927.00,1.12
5926.00,1.12
5925.00,1.12
5924.00,1.12
5923.00,1.12
5922.00,1.12
5921.00,1.11
5920.00,1.11
5919.00,1.11
5918.00,1.11
5917.00,1.11
5916.00,1.10
5915.00,1.10
5914.00,1.10
5913.00,1.10
5912.00,1.09
5911.00,1.09
5910.00,1.09
5909.00,1.09
5908.00,1.09
5907.00,1.08
5906.00,1.08
5905.00,1.08
5904.00,1.08
5903.00,1.08
5902.00,1.08
5901.00,1.08
5900.00,1.08
5899.00,1.08
5898.00,1.08
5897.00,1.08
5896.00,1.08
5895.00,1.08
5894.00,1.09
5893.00,1.09
5892.00,1.09
5891.00,1.09
5890.00,1.09
5889.00,1.10
5888.00,1.10
5887.00,1.10
5886.00,1.10
5885.00,1.10
5884.00,1.11
5883.00,1.11
5882.00,1.11
5881.00,1.11
5880.00,1.12
5879.00,1.12
5878.00,1.12
5877.00,1.12
5876.00,1.13
5875.00,1.13
5874.00,1.13
5873.00,1.13
5872.00,1.13
5871.00,1.14
5870.00,1.14
5869.00,1.14
5868.00,1.14
5867.00,1.14
5866.00,1.14
5865.00,1.14
5864.00,1.15
5863.00,1.15
5862.00,1.15
5861.00,1.15
5860.00,1.15
5859.00,1.15
5858.00,1.15
5857.00,1.15
5856.00,1.15
5855.00,1.15
5854.00,1.16
5853.00,1.16
5852.00,1.16
5851.00,1.16
5850.00,1.16
5849.00,1.16
5848.00,1.16
5847.00,1.16
5846.00,1.16
5845.00,1.16
5844.00,1.16
5843.00,1.16
5842.00,1.16
5841.00,1.16
5840.00,1.16
5839.00,1.16
5838.00,1.16
5837.00,1.16
5836.00,1.16
5835.00,1.16
5834.00,1.16
5833.00,1.16
5832.00,1.16
5831.00,1.16
5830.00,1.16
5829.00,1.16
5828.00,1.16
5827.00,1.16
5826.00,1.16
5825.00,1.16
5824.00,1.16
5823.00,1.16
5822.00,1.16
5821.00,1.16
5820.00,1.16
5819.00,1.16
5818.00,1.16
5817.00,1.16
5816.00,1.16
5815.00,1.16
5814.00,1.16
5813.00,1.16
5812.00,1.16
5811.00,1.16
5810.00,1.16
5809.00,1.16
5808.00,1.16
5807.00,1.16
5806.00,1.16
5805.00,1.16
5804.00,1.16
5803.00,1.16
5802.00,1.16
5801.00,1.16
5800.00,1.16
5799.00,1.15
5798.00,1.15
5797.00,1.15
5796.00,1.15
5795.00,1.15
5794.00,1.15
5793.00,1.14
5792.00,1.14
5791.00,1.14
5790.00,1.14
5789.00,1.14
5788.00,1.14
5787.00,1.13
5786.00,1.13
5785.00,1.13
5784.00,1.13
5783.00,1.13
5782.00,1.13
5781.00,1.13
5780.00,1.12
5779.00,1.12
5778.00,1.12
5777.00,1.12
5776.00,1.12
5775.00,1.12
5774.00,1.12
5773.00,1.12
5772.00,1.12
5771.00,1.12
5770.00,1.12
5769.00,1.12
5768.00,1.12
5767.00,1.12
5766.00,1.13
5765.00,1.13
5764.00,1.13
5763.00,1.13
5762.00,1.13
5761.00,1.13
5760.00,1.13
5759.00,1.14
5758.00,1.14
5757.00,1.14
5756.00,1.14
5755.00,1.14
5754.00,1.15
5753.00,1.15
5752.00,1.15
5751.00,1.15
5750.00,1.16
5749.00,1.16
5748.00,1.16
5747.00,1.17
5746.00,1.17
5745.00,1.17
5744.00,1.17
5743.00,1.18
5742.00,1.18
5741.00,1.18
5740.00,1.18
5739.00,1.19
5738.00,1.19
5737.00,1.19
5736.00,1.19
5735.00,1.19
5734.00,1.20
5733.00,1.20
5732.00,1.20
5731.00,1.20
5730.00,1.20
5729.00,1.20
5728.00,1.20
5727.00,1.20
5726.00,1.20
5725.00,1.21
5724.00,1.21
5723.00,1.21
5722.00,1.21
5721.00,1.21
5720.00,1.21
5719.00,1.21
5718.00,1.21
5717.00,1.21
5716.00,1.21
5715.00,1.21
5714.00,1.21
5713.00,1.21
5712.00,1.21
5711.00,1.21
5710.00,1.21
5709.00,1.20
5708.00,1.20
5707.00,1.20
5706.00,1.20
5705.00,1.20
5704.00,1.20
5703.00,1.20
5702.00,1.20
5701.00,1.20
5700.00,1.20
5699.00,1.20
5698.00,1.19
5697.00,1.19
5696.00,1.19
5695.00,1.19
5694.00,1.19
5693.00,1.19
5692.00,1.19
5691.00,1.19
5690.00,1.19
5689.00,1.19
5688.00,1.18
5687.00,1.18
5686.00,1.18
5685.00,1.18
5684.00,1.18
5683.00,1.18
5682.00,1.18
5681.00,1.18
5680.00,1.18
5679.00,1.18
5678.00,1.18
5677.00,1.17
5676.00,1.17
5675.00,1.17
5674.00,1.17
5673.00,1.17
5672.00,1.17
5671.00,1.17
5670.00,1.17
5669.00,1.17
5668.00,1.17
5667.00,1.17
5666.00,1.17
5665.00,1.17
5664.00,1.17
5663.00,1.18
5662.00,1.18
5661.00,1.18
5660.00,1.18
5659.00,1.18
5658.00,1.18
5657.00,1.18
5656.00,1.18
5655.00,1.18
5654.00,1.18
5653.00,1.19
5652.00,1.19
5651.00,1.19
5650.00,1.19
5649.00,1.19
5648.00,1.19
5647.00,1.20
5646.00,1.20
5645.00,1.20
5644.00,1.20
5643.00,1.20
5642.00,1.20
5641.00,1.21
5640.00,1.21
5639.00,1.21
5638.00,1.21
5637.00,1.21
5636.00,1.21
5635.00,1.21
5634.00,1.22
5633.00,1.22
5632.00,1.22
5631.00,1.22
5630.00,1.22
5629.00,1.22
5628.00,1.22
5627.00,1.22
5626.00,1.23
5625.00,1.23
5624.00,1.23
5623.00,1.23
5622.00,1.23
5621.00,1.23
5620.00,1.23
5619.00,1.24
5618.00,1.24
5617.00,1.24
5616.00,1.24
5615.00,1.24
5614.00,1.24
5613.00,1.24
5612.00,1.25
5611.00,1.25
5610.00,1.25
5609.00,1.25
5608.00,1.25
5607.00,1.25
5606.00,1.25
5605.00,1.25
5604.00,1.26
5603.00,1.26
5602.00,1.26
5601.00,1.26
5600.00,1.26
5599.00,1.26
5598.00,1.26
5597.00,1.26
5596.00,1.27
5595.00,1.27
5594.00,1.27
5593.00,1.27
5592.00,1.27
5591.00,1.27
5590.00,1.27
5589.00,1.27
5588.00,1.27
5587.00,1.27
5586.00,1.28
5585.00,1.28
5584.00,1.28
5583.00,1.28
5582.00,1.28
5581.00,1.28
5580.00,1.28
5579.00,1.28
5578.00,1.28
5577.00,1.28
5576.00,1.28
5575.00,1.29
5574.00,1.29
5573.00,1.29
5572.00,1.29
5571.00,1.29
5570.00,1.29
5569.00,1.29
5568.00,1.29
5567.00,1.29
5566.00,1.29
5565.00,1.29
5564.00,1.30
5563.00,1.30
5562.00,1.30
5561.00,1.30
5560.00,1.30
5559.00,1.30
5558.00,1.30
5557.00,1.30
5556.00,1.31
5555.00,1.31
5554.00,1.31
5553.00,1.31
5552.00,1.31
5551.00,1.31
5550.00,1.31
5549.00,1.31
5548.00,1.32
5547.00,1.32
5546.00,1.32
5545.00,1.32
5544.00,1.32
5543.00,1.32
5542.00,1.32
5541.00,1.32
5540.00,1.32
5539.00,1.32
5538.00,1.32
5537.00,1.32
5536.00,1.32
5535.00,1.32
5534.00,1.32
5533.00,1.33
5532.00,1.33
5531.00,1.33
5530.00,1.33
5529.00,1.33
5528.00,1.33
5527.00,1.33
5526.00,1.33
5525.00,1.33
5524.00,1.33
5523.00,1.33
5522.00,1.33
5521.00,1.33
5520.00,1.33
5519.00,1.34
5518.00,1.34
5517.00,1.34
5516.00,1.34
5515.00,1.34
5514.00,1.34
5513.00,1.34
5512.00,1.34
5511.00,1.34
5510.00,1.34
5509.00,1.34
5508.00,1.34
5507.00,1.34
5506.00,1.34
5505.00,1.34
5504.00,1.34
5503.00,1.34
5502.00,1.34
5501.00,1.34
5500.00,1.34
5499.00,1.34
5498.00,1.34
5497.00,1.34
5496.00,1.35
5495.00,1.35
5494.00,1.35
5493.00,1.35
5492.00,1.35
5491.00,1.35
5490.00,1.35
5489.00,1.35
5488.00,1.35
5487.00,1.35
5486.00,1.35
5485.00,1.35
5484.00,1.36
5483.00,1.36
5482.00,1.36
5481.00,1.36
5480.00,1.36
5479.00,1.36
5478.00,1.36
5477.00,1.36
5476.00,1.36
5475.00,1.36
5474.00,1.37
5473.00,1.37
5472.00,1.37
5471.00,1.37
5470.00,1.37
5469.00,1.37
5468.00,1.37
5467.00,1.37
5466.00,1.37
5465.00,1.37
5464.00,1.37
5463.00,1.37
5462.00,1.38
5461.00,1.38
5460.00,1.38
5459.00,1.38
5458.00,1.38
5457.00,1.38
5456.00,1.38
5455.00,1.38
5454.00,1.38
5453.00,1.38
5452.00,1.38
5451.00,1.38
5450.00,1.38
5449.00,1.38
5448.00,1.38
5447.00,1.38
5446.00,1.38
5445.00,1.38
5444.00,1.38
5443.00,1.38
5442.00,1.38
5441.00,1.38
5440.00,1.38
5439.00,1.38
5438.00,1.38
5437.00,1.38
5436.00,1.38
5435.00,1.38
5434.00,1.38
5433.00,1.38
5432.00,1.38
5431.00,1.38
5430.00,1.38
5429.00,1.38
5428.00,1.38
5427.00,1.38
5426.00,1.38
5425.00,1.38
5424.00,1.38
5423.00,1.38
5422.00,1.38
5421.00,1.38
5420.00,1.38
5419.00,1.38
5418.00,1.38
5417.00,1.38
5416.00,1.38
5415.00,1.38
5414.00,1.38
5413.00,1.38
5412.00,1.38
5411.00,1.38
5410.00,1.38
5409.00,1.38
5408.00,1.38
5407.00,1.38
5406.00,1.38
5405.00,1.38
5404.00,1.38
5403.00,1.38
5402.00,1.38
5401.00,1.38
5400.00,1.38
5399.00,1.38
5398.00,1.38
5397.00,1.38
5396.00,1.38
5395.00,1.38
5394.00,1.38
5393.00,1.38
5392.00,1.38
5391.00,1.37
5390.00,1.37
5389.00,1.37
5388.00,1.37
5387.00,1.37
5386.00,1.37
5385.00,1.36
5384.00,1.36
5383.00,1.36
5382.00,1.36
5381.00,1.36
5380.00,1.35
5379.00,1.35
5378.00,1.35
5377.00,1.35
5376.00,1.34
5375.00,1.34
5374.00,1.34
5373.00,1.33
5372.00,1.33
5371.00,1.33
5370.00,1.32
5369.00,1.32
5368.00,1.32
5367.00,1.31
5366.00,1.31
5365.00,1.30
5364.00,1.30
5363.00,1.29
5362.00,1.29
5361.00,1.28
5360.00,1.28
5359.00,1.27
5358.00,1.27
5357.00,1.26
5356.00,1.26
5355.00,1.25
5354.00,1.24
5353.00,1.24
5352.00,1.23
5351.00,1.22
5350.00,1.22
5349.00,1.21
5348.00,1.20
5347.00,1.19
5346.00,1.19
5345.00,1.18
5344.00,1.17
5343.00,1.16
5342.00,1.15
5341.00,1.15
5340.00,1.14
5339.00,1.13
5338.00,1.12
5337.00,1.11
5336.00,1.11
5335.00,1.10
5334.00,1.09
5333.00,1.08
5332.00,1.07
5331.00,1.07
5330.00,1.06
5329.00,1.05
5328.00,1.04
5327.00,1.03
5326.00,1.02
5325.00,1.02
5324.00,1.01
5323.00,1.00
5322.00,0.99
5321.00,0.98
5320.00,0.97
5319.00,0.97
5318.00,0.96
5317.00,0.95
5316.00,0.94
5315.00,0.93
5314.00,0.92
5313.00,0.92
5312.00,0.91
5311.00,0.90
5310.00,0.89
5309.00,0.89
5308.00,0.88
5307.00,0.87
5306.00,0.87
5305.00,0.86
5304.00,0.85
5303.00,0.85
5302.00,0.84
5301.00,0.84
5300.00,0.83
5299.00,0.83
5298.00,0.82
5297.00,0.82
5296.00,0.82
5295.00,0.81
5294.00,0.81
5293.00,0.81
5292.00,0.80
5291.00,0.80
5290.00,0.80
5289.00,0.80
5288.00,0.79
5287.00,0.79
5286.00,0.79
5285.00,0.79
5284.00,0.79
5283.00,0.78
5282.00,0.78
5281.00,0.78
5280.00,0.78
5279.00,0.78
5278.00,0.78
5277.00,0.78
5276.00,0.77
5275.00,0.77
5274.00,0.77
5273.00,0.77
5272.00,0.77
5271.00,0.77
5270.00,0.77
5269.00,0.77
5268.00,0.77
5267.00,0.77
5266.00,0.77
5265.00,0.77
5264.00,0.77
5263.00,0.76
5262.00,0.76
5261.00,0.76
5260.00,0.76
5259.00,0.76
5258.00,0.76
5257.00,0.76
5256.00,0.76
5255.00,0.76
5254.00,0.76
5253.00,0.76
5252.00,0.76
5251.00,0.75
5250.00,0.75
5249.00,0.75
5248.00,0.75
5247.00,0.75
5246.00,0.75
5245.00,0.75
5244.00,0.75
5243.00,0.76
5242.00,0.76
5241.00,0.76
5240.00,0.76
5239.00,0.76
5238.00,0.76
5237.00,0.76
5236.00,0.76
5235.00,0.76
5234.00,0.76
5233.00,0.76
5232.00,0.76
5231.00,0.76
5230.00,0.76
5229.00,0.76
5228.00,0.76
5227.00,0.76
5226.00,0.76
5225.00,0.76
5224.00,0.76
5223.00,0.76
5222.00,0.76
5221.00,0.76
5220.00,0.76
5219.00,0.76
5218.00,0.76
5217.00,0.76
5216.00,0.76
5215.00,0.76
5214.00,0.76
5213.00,0.76
5212.00,0.76
5211.00,0.76
5210.00,0.76
5209.00,0.76
5208.00,0.76
5207.00,0.76
5206.00,0.76
5205.00,0.76
5204.00,0.76
5203.00,0.76
5202.00,0.76
5201.00,0.76
5200.00,0.76
5199.00,0.76
5198.00,0.76
5197.00,0.76
5196.00,0.76
5195.00,0.77
5194.00,0.77
5193.00,0.77
5192.00,0.77
5191.00,0.77
5190.00,0.77
5189.00,0.77
5188.00,0.77
5187.00,0.77
5186.00,0.77
5185.00,0.77
5184.00,0.77
5183.00,0.77
5182.00,0.77
5181.00,0.77
5180.00,0.77
5179.00,0.77
5178.00,0.77
5177.00,0.77
5176.00,0.77
5175.00,0.77
5174.00,0.77
5173.00,0.77
5172.00,0.77
5171.00,0.78
5170.00,0.78
5169.00,0.78
5168.00,0.78
5167.00,0.78
5166.00,0.78
5165.00,0.78
5164.00,0.78
5163.00,0.78
5162.00,0.78
5161.00,0.78
5160.00,0.78
5159.00,0.78
5158.00,0.78
5157.00,0.78
5156.00,0.78
5155.00,0.78
5154.00,0.78
5153.00,0.79
5152.00,0.79
5151.00,0.79
5150.00,0.79
5149.00,0.79
5148.00,0.79
5147.00,0.79
5146.00,0.79
5145.00,0.79
5144.00,0.79
5143.00,0.79
5142.00,0.79
5141.00,0.79
5140.00,0.79
5139.00,0.79
5138.00,0.79
5137.00,0.79
5136.00,0.79
5135.00,0.79
5134.00,0.79
5133.00,0.79
5132.00,0.79
5131.00,0.80
5130.00,0.80
5129.00,0.80
5128.00,0.80
5127.00,0.80
5126.00,0.80
5125.00,0.80
5124.00,0.80
5123.00,0.80
5122.00,0.80
5121.00,0.80
5120.00,0.80
5119.00,0.80
5118.00,0.80
5117.00,0.80
5116.00,0.80
5115.00,0.80
5114.00,0.80
5113.00,0.80
5112.00,0.80
5111.00,0.80
5110.00,0.80
5109.00,0.81
5108.00,0.81
5107.00,0.81
5106.00,0.81
5105.00,0.81
5104.00,0.81
5103.00,0.81
5102.00,0.81
5101.00,0.81
5100.00,0.81
5099.00,0.81
5098.00,0.81
5097.00,0.81
5096.00,0.81
5095.00,0.81
5094.00,0.81
5093.00,0.81
5092.00,0.81
5091.00,0.81
5090.00,0.81
5089.00,0.81
5088.00,0.81
5087.00,0.81
5086.00,0.81
5085.00,0.81
5084.00,0.82
5083.00,0.82
5082.00,0.82
5081.00,0.82
5080.00,0.82
5079.00,0.82
5078.00,0.82
5077.00,0.82
5076.00,0.82
5075.00,0.82
5074.00,0.82
5073.00,0.82
5072.00,0.82
5071.00,0.82
5070.00,0.82
5069.00,0.83
5068.00,0.83
5067.00,0.83
5066.00,0.83
5065.00,0.83
5064.00,0.83
5063.00,0.83
5062.00,0.83
5061.00,0.83
5060.00,0.83
5059.00,0.83
5058.00,0.83
5057.00,0.83
5056.00,0.83
5055.00,0.83
5054.00,0.83
5053.00,0.83
5052.00,0.83
5051.00,0.84
5050.00,0.84
5049.00,0.84
5048.00,0.84
5047.00,0.84
5046.00,0.84
5045.00,0.84
5044.00,0.84
5043.00,0.84
5042.00,0.84
5041.00,0.84
5040.00,0.84
5039.00,0.84
5038.00,0.84
5037.00,0.85
5036.00,0.85
5035.00,0.85
5034.00,0.85
5033.00,0.85
5032.00,0.85
5031.00,0.85
5030.00,0.85
5029.00,0.85
5028.00,0.85
5027.00,0.85
5026.00,0.85
5025.00,0.85
5024.00,0.85
5023.00,0.86
5022.00,0.86
5021.00,0.86
5020.00,0.86
5019.00,0.86
5018.00,0.86
5017.00,0.86
5016.00,0.86
5015.00,0.86
5014.00,0.86
5013.00,0.86
5012.00,0.86
5011.00,0.87
5010.00,0.87
5009.00,0.87
5008.00,0.87
5007.00,0.87
5006.00,0.87
5005.00,0.87
5004.00,0.87
5003.00,0.87
5002.00,0.87
5001.00,0.87
5000.00,0.87
4999.00,0.87
4998.00,0.87
4997.00,0.87
4996.00,0.87
4995.00,0.88
4994.00,0.88
4993.00,0.88
4992.00,0.88
4991.00,0.88
4990.00,0.88
4989.00,0.88
4988.00,0.88
4987.00,0.88
4986.00,0.88
4985.00,0.88
4984.00,0.88
4983.00,0.89
4982.00,0.89
4981.00,0.89
4980.00,0.89
4979.00,0.89
4978.00,0.89
4977.00,0.89
4976.00,0.90
4975.00,0.90
4974.00,0.90
4973.00,0.90
4972.00,0.90
4971.00,0.90
4970.00,0.90
4969.00,0.90
4968.00,0.91
4967.00,0.91
4966.00,0.91
4965.00,0.91
4964.00,0.91
4963.00,0.91
4962.00,0.91
4961.00,0.91
4960.00,0.91
4959.00,0.91
4958.00,0.91
4957.00,0.91
4956.00,0.91
4955.00,0.91
4954.00,0.91
4953.00,0.91
4952.00,0.91
4951.00,0.92
4950.00,0.92
4949.00,0.92
4948.00,0.92
4947.00,0.92
4946.00,0.92
4945.00,0.92
4944.00,0.92
4943.00,0.92
4942.00,0.92
4941.00,0.92
4940.00,0.93
4939.00,0.93
4938.00,0.93
4937.00,0.93
4936.00,0.93
4935.00,0.93
4934.00,0.93
4933.00,0.93
4932.00,0.93
4931.00,0.93
4930.00,0.93
4929.00,0.93
4928.00,0.93
4927.00,0.94
4926.00,0.94
4925.00,0.94
4924.00,0.94
4923.00,0.94
4922.00,0.94
4921.00,0.94
4920.00,0.94
4919.00,0.94
4918.00,0.94
4917.00,0.94
4916.00,0.94
4915.00,0.94
4914.00,0.94
4913.00,0.94
4912.00,0.95
4911.00,0.95
4910.00,0.95
4909.00,0.95
4908.00,0.95
4907.00,0.95
4906.00,0.95
4905.00,0.95
4904.00,0.95
4903.00,0.95
4902.00,0.95
4901.00,0.95
4900.00,0.95
4899.00,0.95
4898.00,0.95
4897.00,0.95
4896.00,0.95
4895.00,0.95
4894.00,0.95
4893.00,0.95
4892.00,0.95
4891.00,0.95
4890.00,0.95
4889.00,0.95
4888.00,0.95
4887.00,0.95
4886.00,0.96
4885.00,0.96
4884.00,0.96
4883.00,0.96
4882.00,0.96
4881.00,0.96
4880.00,0.96
4879.00,0.96
4878.00,0.96
4877.00,0.96
4876.00,0.96
4875.00,0.96
4874.00,0.96
4873.00,0.96
4872.00,0.96
4871.00,0.97
4870.00,0.97
4869.00,0.97
4868.00,0.97
4867.00,0.97
4866.00,0.97
4865.00,0.97
4864.00,0.97
4863.00,0.98
4862.00,0.98
4861.00,0.98
4860.00,0.98
4859.00,0.98
4858.00,0.98
4857.00,0.98
4856.00,0.98
4855.00,0.98
4854.00,0.98
4853.00,0.99
4852.00,0.99
4851.00,0.99
4850.00,0.99
4849.00,0.99
4848.00,0.99
4847.00,0.99
4846.00,0.99
4845.00,0.99
4844.00,0.99
4843.00,0.99
4842.00,0.99
4841.00,0.99
4840.00,0.99
4839.00,0.99
4838.00,0.99
4837.00,0.99
4836.00,0.99
4835.00,0.99
4834.00,0.99
4833.00,0.99
4832.00,1.00
4831.00,1.00
4830.00,1.00
4829.00,1.00
4828.00,1.00
4827.00,1.00
4826.00,1.00
4825.00,1.00
4824.00,1.00
4823.00,1.01
4822.00,1.01
4821.00,1.01
4820.00,1.01
4819.00,1.01
4818.00,1.01
4817.00,1.01
4816.00,1.01
4815.00,1.01
4814.00,1.01
4813.00,1.01
4812.00,1.01
4811.00,1.01
4810.00,1.01
4809.00,1.01
4808.00,1.01
4807.00,1.01
4806.00,1.01
4805.00,1.01
4804.00,1.01
4803.00,1.01
4802.00,1.02
4801.00,1.02
4800.00,1.02
4799.00,1.02
4798.00,1.02
4797.00,1.02
4796.00,1.02
4795.00,1.02
4794.00,1.02
4793.00,1.03
4792.00,1.03
4791.00,1.03
4790.00,1.03
4789.00,1.03
4788.00,1.03
4787.00,1.03
4786.00,1.04
4785.00,1.04
4784.00,1.04
4783.00,1.04
4782.00,1.04
4781.00,1.04
4780.00,1.04
4779.00,1.04
4778.00,1.04
4777.00,1.05
4776.00,1.05
4775.00,1.05
4774.00,1.05
4773.00,1.05
4772.00,1.05
4771.00,1.05
4770.00,1.06
4769.00,1.06
4768.00,1.06
4767.00,1.06
4766.00,1.06
4765.00,1.06
4764.00,1.07
4763.00,1.07
4762.00,1.07
4761.00,1.07
4760.00,1.07
4759.00,1.07
4758.00,1.08
4757.00,1.08
4756.00,1.08
4755.00,1.08
4754.00,1.08
4753.00,1.08
4752.00,1.08
4751.00,1.09
4750.00,1.09
4749.00,1.09
4748.00,1.09
4747.00,1.09
4746.00,1.09
4745.00,1.09
4744.00,1.09
4743.00,1.09
4742.00,1.09
4741.00,1.09
4740.00,1.10
4739.00,1.10
4738.00,1.10
4737.00,1.10
4736.00,1.10
4735.00,1.10
4734.00,1.10
4733.00,1.11
4732.00,1.11
4731.00,1.11
4730.00,1.11
4729.00,1.12
4728.00,1.12
4727.00,1.12
4726.00,1.12
4725.00,1.12
4724.00,1.13
4723.00,1.13
4722.00,1.13
4721.00,1.13
4720.00,1.13
4719.00,1.14
4718.00,1.14
4717.00,1.14
4716.00,1.14
4715.00,1.14
4714.00,1.14
4713.00,1.14
4712.00,1.15
4711.00,1.15
4710.00,1.15
4709.00,1.15
4708.00,1.15
4707.00,1.15
4706.00,1.15
4705.00,1.15
4704.00,1.15
4703.00,1.15
4702.00,1.16
4701.00,1.16
4700.00,1.16
4699.00,1.16
4698.00,1.16
4697.00,1.16
4696.00,1.16
4695.00,1.17
4694.00,1.17
4693.00,1.17
4692.00,1.17
4691.00,1.17
4690.00,1.17
4689.00,1.18
4688.00,1.18
4687.00,1.18
4686.00,1.18
4685.00,1.18
4684.00,1.19
4683.00,1.19
4682.00,1.19
4681.00,1.19
4680.00,1.19
4679.00,1.19
4678.00,1.19
4677.00,1.20
4676.00,1.20
4675.00,1.20
4674.00,1.20
4673.00,1.20
4672.00,1.20
4671.00,1.20
4670.00,1.20
4669.00,1.20
4668.00,1.20
4667.00,1.21
4666.00,1.21
4665.00,1.21
4664.00,1.21
4663.00,1.21
4662.00,1.21
4661.00,1.21
4660.00,1.21
4659.00,1.22
4658.00,1.22
4657.00,1.22
4656.00,1.22
4655.00,1.22
4654.00,1.22
4653.00,1.22
4652.00,1.23
4651.00,1.23
4650.00,1.23
4649.00,1.23
4648.00,1.23
4647.00,1.23
4646.00,1.23
4645.00,1.23
4644.00,1.23
4643.00,1.24
4642.00,1.24
4641.00,1.24
4640.00,1.24
4639.00,1.24
4638.00,1.24
4637.00,1.24
4636.00,1.24
4635.00,1.24
4634.00,1.25
4633.00,1.25
4632.00,1.25
4631.00,1.25
4630.00,1.25
4629.00,1.25
4628.00,1.25
4627.00,1.25
4626.00,1.26
4625.00,1.26
4624.00,1.26
4623.00,1.26
4622.00,1.26
4621.00,1.26
4620.00,1.26
4619.00,1.26
4618.00,1.26
4617.00,1.26
4616.00,1.26
4615.00,1.26
4614.00,1.26
4613.00,1.26
4612.00,1.27
4611.00,1.27
4610.00,1.27
4609.00,1.27
4608.00,1.27
4607.00,1.27
4606.00,1.27
4605.00,1.27
4604.00,1.27
4603.00,1.27
4602.00,1.27
4601.00,1.27
4600.00,1.27
4599.00,1.27
4598.00,1.27
4597.00,1.27
4596.00,1.27
4595.00,1.28
4594.00,1.28
4593.00,1.28
4592.00,1.28
4591.00,1.28
4590.00,1.28
4589.00,1.28
4588.00,1.28
4587.00,1.28
4586.00,1.28
4585.00,1.29
4584.00,1.29
4583.00,1.29
4582.00,1.29
4581.00,1.29
4580.00,1.29
4579.00,1.29
4578.00,1.29
4577.00,1.29
4576.00,1.29
4575.00,1.30
4574.00,1.30
4573.00,1.30
4572.00,1.30
4571.00,1.30
4570.00,1.30
4569.00,1.31
4568.00,1.31
4567.00,1.31
4566.00,1.31
4565.00,1.31
4564.00,1.31
4563.00,1.32
4562.00,1.32
4561.00,1.32
4560.00,1.32
4559.00,1.32
4558.00,1.32
4557.00,1.32
4556.00,1.32
4555.00,1.33
4554.00,1.33
4553.00,1.33
4552.00,1.33
4551.00,1.33
4550.00,1.33
4549.00,1.33
4548.00,1.33
4547.00,1.33
4546.00,1.33
4545.00,1.33
4544.00,1.33
4543.00,1.33
4542.00,1.33
4541.00,1.33
4540.00,1.33
4539.00,1.33
4538.00,1.33
4537.00,1.33
4536.00,1.33
4535.00,1.33
4534.00,1.33
4533.00,1.33
4532.00,1.33
4531.00,1.33
4530.00,1.33
4529.00,1.33
4528.00,1.34
4527.00,1.34
4526.00,1.34
4525.00,1.34
4524.00,1.34
4523.00,1.34
4522.00,1.34
4521.00,1.34
4520.00,1.34
4519.00,1.34
4518.00,1.34
4517.00,1.34
4516.00,1.34
4515.00,1.35
4514.00,1.35
4513.00,1.35
4512.00,1.35
4511.00,1.35
4510.00,1.35
4509.00,1.35
4508.00,1.35
4507.00,1.35
4506.00,1.35
4505.00,1.34
4504.00,1.34
4503.00,1.34
4502.00,1.34
4501.00,1.34
4500.00,1.34
4499.00,1.34
4498.00,1.34
4497.00,1.34
4496.00,1.34
4495.00,1.34
4494.00,1.34
4493.00,1.34
4492.00,1.34
4491.00,1.34
4490.00,1.33
4489.00,1.33
4488.00,1.33
4487.00,1.33
4486.00,1.33
4485.00,1.33
4484.00,1.33
4483.00,1.32
4482.00,1.32
4481.00,1.32
4480.00,1.32
4479.00,1.32
4478.00,1.31
4477.00,1.31
4476.00,1.31
4475.00,1.31
4474.00,1.31
4473.00,1.30
4472.00,1.30
4471.00,1.30
4470.00,1.30
4469.00,1.29
4468.00,1.29
4467.00,1.29
4466.00,1.29
4465.00,1.29
4464.00,1.29
4463.00,1.28
4462.00,1.28
4461.00,1.28
4460.00,1.28
4459.00,1.28
4458.00,1.27
4457.00,1.27
4456.00,1.27
4455.00,1.26
4454.00,1.26
4453.00,1.26
4452.00,1.25
4451.00,1.25
4450.00,1.25
4449.00,1.24
4448.00,1.24
4447.00,1.23
4446.00,1.23
4445.00,1.22
4444.00,1.22
4443.00,1.21
4442.00,1.21
4441.00,1.20
4440.00,1.20
4439.00,1.19
4438.00,1.19
4437.00,1.19
4436.00,1.18
4435.00,1.18
4434.00,1.17
4433.00,1.17
4432.00,1.17
4431.00,1.16
4430.00,1.16
4429.00,1.16
4428.00,1.16
4427.00,1.15
4426.00,1.15
4425.00,1.15
4424.00,1.15
4423.00,1.15
4422.00,1.14
4421.00,1.14
4420.00,1.14
4419.00,1.14
4418.00,1.14
4417.00,1.14
4416.00,1.14
4415.00,1.14
4414.00,1.14
4413.00,1.14
4412.00,1.14
4411.00,1.14
4410.00,1.14
4409.00,1.14
4408.00,1.14
4407.00,1.14
4406.00,1.14
4405.00,1.15
4404.00,1.15
4403.00,1.15
4402.00,1.15
4401.00,1.15
4400.00,1.15
4399.00,1.15
4398.00,1.15
4397.00,1.15
4396.00,1.15
4395.00,1.16
4394.00,1.16
4393.00,1.16
4392.00,1.16
4391.00,1.16
4390.00,1.16
4389.00,1.17
4388.00,1.17
4387.00,1.17
4386.00,1.17
4385.00,1.17
4384.00,1.17
4383.00,1.17
4382.00,1.18
4381.00,1.18
4380.00,1.18
4379.00,1.18
4378.00,1.18
4377.00,1.18
4376.00,1.18
4375.00,1.18
4374.00,1.18
4373.00,1.18
4372.00,1.18
4371.00,1.18
4370.00,1.18
4369.00,1.18
4368.00,1.18
4367.00,1.18
4366.00,1.18
4365.00,1.18
4364.00,1.18
4363.00,1.18
4362.00,1.18
4361.00,1.18
4360.00,1.18
4359.00,1.18
4358.00,1.18
4357.00,1.18
4356.00,1.18
4355.00,1.18
4354.00,1.18
4353.00,1.18
4352.00,1.18
4351.00,1.18
4350.00,1.18
4349.00,1.17
4348.00,1.17
4347.00,1.17
4346.00,1.17
4345.00,1.17
4344.00,1.17
4343.00,1.17
4342.00,1.17
4341.00,1.17
4340.00,1.17
4339.00,1.17
4338.00,1.18
4337.00,1.18
4336.00,1.18
4335.00,1.18
4334.00,1.18
4333.00,1.18
4332.00,1.18
4331.00,1.19
4330.00,1.19
4329.00,1.19
4328.00,1.19
4327.00,1.19
4326.00,1.19
4325.00,1.19
4324.00,1.20
4323.00,1.20
4322.00,1.20
4321.00,1.20
4320.00,1.20
4319.00,1.20
4318.00,1.20
4317.00,1.21
4316.00,1.21
4315.00,1.21
4314.00,1.21
4313.00,1.21
4312.00,1.21
4311.00,1.21
4310.00,1.22
4309.00,1.22
4308.00,1.22
4307.00,1.22
4306.00,1.22
4305.00,1.23
4304.00,1.23
4303.00,1.23
4302.00,1.23
4301.00,1.24
4300.00,1.24
4299.00,1.24
4298.00,1.24
4297.00,1.25
4296.00,1.25
4295.00,1.25
4294.00,1.25
4293.00,1.25
4292.00,1.26
4291.00,1.26
4290.00,1.26
4289.00,1.26
4288.00,1.26
4287.00,1.26
4286.00,1.26
4285.00,1.26
4284.00,1.26
4283.00,1.26
4282.00,1.26
4281.00,1.26
4280.00,1.26
4279.00,1.26
4278.00,1.26
4277.00,1.26
4276.00,1.26
4275.00,1.26
4274.00,1.26
4273.00,1.26
4272.00,1.26
4271.00,1.25
4270.00,1.25
4269.00,1.25
4268.00,1.25
4267.00,1.25
4266.00,1.25
4265.00,1.25
4264.00,1.25
4263.00,1.25
4262.00,1.25
4261.00,1.25
4260.00,1.25
4259.00,1.25
4258.00,1.25
4257.00,1.25
4256.00,1.25
4255.00,1.25
4254.00,1.25
4253.00,1.25
4252.00,1.25
4251.00,1.25
4250.00,1.25
4249.00,1.26
4248.00,1.26
4247.00,1.26
4246.00,1.26
4245.00,1.26
4244.00,1.26
4243.00,1.26
4242.00,1.26
4241.00,1.26
4240.00,1.27
4239.00,1.27
4238.00,1.27
4237.00,1.27
4236.00,1.27
4235.00,1.27
4234.00,1.27
4233.00,1.27
4232.00,1.27
4231.00,1.27
4230.00,1.27
4229.00,1.27
4228.00,1.27
4227.00,1.27
4226.00,1.28
4225.00,1.28
4224.00,1.28
4223.00,1.28
4222.00,1.28
4221.00,1.28
4220.00,1.28
4219.00,1.28
4218.00,1.28
4217.00,1.28
4216.00,1.29
4215.00,1.29
4214.00,1.29
4213.00,1.29
4212.00,1.29
4211.00,1.29
4210.00,1.29
4209.00,1.29
4208.00,1.29
4207.00,1.29
4206.00,1.29
4205.00,1.29
4204.00,1.29
4203.00,1.29
4202.00,1.29
4201.00,1.29
4200.00,1.29
4199.00,1.29
4198.00,1.29
4197.00,1.29
4196.00,1.29
4195.00,1.29
4194.00,1.29
4193.00,1.29
4192.00,1.29
4191.00,1.29
4190.00,1.29
4189.00,1.30
4188.00,1.30
4187.00,1.30
4186.00,1.30
4185.00,1.30
4184.00,1.30
4183.00,1.30
4182.00,1.30
4181.00,1.30
4180.00,1.30
4179.00,1.31
4178.00,1.31
4177.00,1.31
4176.00,1.31
4175.00,1.31
4174.00,1.31
4173.00,1.31
4172.00,1.31
4171.00,1.31
4170.00,1.31
4169.00,1.31
4168.00,1.31
4167.00,1.31
4166.00,1.31
4165.00,1.31
4164.00,1.31
4163.00,1.31
4162.00,1.31
4161.00,1.31
4160.00,1.31
4159.00,1.31
4158.00,1.31
4157.00,1.31
4156.00,1.31
4155.00,1.31
4154.00,1.31
4153.00,1.31
4152.00,1.31
4151.00,1.31
4150.00,1.31
4149.00,1.31
4148.00,1.31
4147.00,1.31
4146.00,1.31
4145.00,1.31
4144.00,1.31
4143.00,1.31
4142.00,1.31
4141.00,1.31
4140.00,1.31
4139.00,1.31
4138.00,1.31
4137.00,1.31
4136.00,1.31
4135.00,1.31
4134.00,1.31
4133.00,1.31
4132.00,1.32
4131.00,1.32
4130.00,1.32
4129.00,1.32
4128.00,1.32
4127.00,1.32
4126.00,1.32
4125.00,1.32
4124.00,1.33
4123.00,1.33
4122.00,1.33
4121.00,1.33
4120.00,1.33
4119.00,1.33
4118.00,1.33
4117.00,1.33
4116.00,1.34
4115.00,1.34
4114.00,1.34
4113.00,1.34
4112.00,1.34
4111.00,1.34
4110.00,1.34
4109.00,1.34
4108.00,1.34
4107.00,1.34
4106.00,1.34
4105.00,1.34
4104.00,1.34
4103.00,1.34
4102.00,1.33
4101.00,1.33
4100.00,1.34
4099.00,1.34
4098.00,1.34
4097.00,1.34
4096.00,1.34
4095.00,1.34
4094.00,1.34
4093.00,1.34
4092.00,1.34
4091.00,1.34
4090.00,1.34
4089.00,1.34
4088.00,1.34
4087.00,1.34
4086.00,1.34
4085.00,1.34
4084.00,1.34
4083.00,1.34
4082.00,1.34
4081.00,1.33
4080.00,1.33
4079.00,1.33
4078.00,1.33
4077.00,1.33
4076.00,1.33
4075.00,1.33
4074.00,1.33
4073.00,1.33
4072.00,1.33
4071.00,1.33
4070.00,1.33
4069.00,1.33
4068.00,1.34
4067.00,1.34
4066.00,1.34
4065.00,1.34
4064.00,1.34
4063.00,1.34
4062.00,1.34
4061.00,1.34
4060.00,1.34
4059.00,1.34
4058.00,1.34
4057.00,1.34
4056.00,1.34
4055.00,1.34
4054.00,1.34
4053.00,1.34
4052.00,1.34
4051.00,1.35
4050.00,1.35
4049.00,1.35
4048.00,1.35
4047.00,1.35
4046.00,1.35
4045.00,1.35
4044.00,1.35
4043.00,1.35
4042.00,1.35
4041.00,1.35
4040.00,1.35
4039.00,1.35
4038.00,1.35
4037.00,1.35
4036.00,1.35
4035.00,1.35
4034.00,1.35
4033.00,1.35
4032.00,1.35
4031.00,1.35
4030.00,1.35
4029.00,1.35
4028.00,1.35
4027.00,1.35
4026.00,1.35
4025.00,1.35
4024.00,1.35
4023.00,1.35
4022.00,1.35
4021.00,1.35
4020.00,1.35
4019.00,1.35
4018.00,1.35
4017.00,1.35
4016.00,1.35
4015.00,1.36
4014.00,1.36
4013.00,1.36
4012.00,1.36
4011.00,1.36
4010.00,1.37
4009.00,1.37
4008.00,1.37
4007.00,1.37
4006.00,1.37
4005.00,1.38
4004.00,1.38
4003.00,1.38
4002.00,1.38
4001.00,1.38
4000.00,1.39
