创建为新数据集,样品 001 用户 Administrator 日期 星期二, 十月 31 2017
cm-1,%T
10000.00,1.36
9999.00,1.35
9998.00,1.35
9997.00,1.35
9996.00,1.35
9995.00,1.35
9994.00,1.35
9993.00,1.35
9992.00,1.35
9991.00,1.35
9990.00,1.34
9989.00,1.34
9988.00,1.34
9987.00,1.34
9986.00,1.34
9985.00,1.34
9984.00,1.34
9983.00,1.34
9982.00,1.34
9981.00,1.34
9980.00,1.34
9979.00,1.35
9978.00,1.35
9977.00,1.35
9976.00,1.35
9975.00,1.35
9974.00,1.35
9973.00,1.35
9972.00,1.35
9971.00,1.35
9970.00,1.35
9969.00,1.35
9968.00,1.35
9967.00,1.35
9966.00,1.35
9965.00,1.35
9964.00,1.35
9963.00,1.35
9962.00,1.34
9961.00,1.34
9960.00,1.34
9959.00,1.33
9958.00,1.33
9957.00,1.33
9956.00,1.33
9955.00,1.32
9954.00,1.32
9953.00,1.32
9952.00,1.32
9951.00,1.32
9950.00,1.32
9949.00,1.33
9948.00,1.33
9947.00,1.33
9946.00,1.33
9945.00,1.33
9944.00,1.33
9943.00,1.34
9942.00,1.34
9941.00,1.34
9940.00,1.34
9939.00,1.34
9938.00,1.34
9937.00,1.34
9936.00,1.34
9935.00,1.34
9934.00,1.34
9933.00,1.33
9932.00,1.33
9931.00,1.33
9930.00,1.33
9929.00,1.33
9928.00,1.33
9927.00,1.33
9926.00,1.34
9925.00,1.34
9924.00,1.34
9923.00,1.34
9922.00,1.34
9921.00,1.34
9920.00,1.34
9919.00,1.34
9918.00,1.35
9917.00,1.35
9916.00,1.35
9915.00,1.35
9914.00,1.35
9913.00,1.35
9912.00,1.35
9911.00,1.35
9910.00,1.35
9909.00,1.35
9908.00,1.35
9907.00,1.35
9906.00,1.35
9905.00,1.35
9904.00,1.35
9903.00,1.35
9902.00,1.35
9901.00,1.35
9900.00,1.35
9899.00,1.35
9898.00,1.35
9897.00,1.35
9896.00,1.35
9895.00,1.35
9894.00,1.35
9893.00,1.35
9892.00,1.35
9891.00,1.35
9890.00,1.35
9889.00,1.35
9888.00,1.35
9887.00,1.35
9886.00,1.34
9885.00,1.34
9884.00,1.34
9883.00,1.34
9882.00,1.34
9881.00,1.33
9880.00,1.33
9879.00,1.33
9878.00,1.33
9877.00,1.33
9876.00,1.32
9875.00,1.32
9874.00,1.32
9873.00,1.32
9872.00,1.32
9871.00,1.32
9870.00,1.32
9869.00,1.32
9868.00,1.32
9867.00,1.32
9866.00,1.32
9865.00,1.32
9864.00,1.32
9863.00,1.32
9862.00,1.32
9861.00,1.32
9860.00,1.32
9859.00,1.32
9858.00,1.32
9857.00,1.32
9856.00,1.32
9855.00,1.32
9854.00,1.32
9853.00,1.32
9852.00,1.32
9851.00,1.32
9850.00,1.32
9849.00,1.33
9848.00,1.33
9847.00,1.33
9846.00,1.33
9845.00,1.33
9844.00,1.33
9843.00,1.34
9842.00,1.34
9841.00,1.34
9840.00,1.34
9839.00,1.34
9838.00,1.34
9837.00,1.34
9836.00,1.34
9835.00,1.34
9834.00,1.34
9833.00,1.34
9832.00,1.34
9831.00,1.34
9830.00,1.34
9829.00,1.34
9828.00,1.33
9827.00,1.33
9826.00,1.33
9825.00,1.33
9824.00,1.33
9823.00,1.33
9822.00,1.32
9821.00,1.32
9820.00,1.32
9819.00,1.32
9818.00,1.32
9817.00,1.32
9816.00,1.32
9815.00,1.32
9814.00,1.32
9813.00,1.32
9812.00,1.32
9811.00,1.32
9810.00,1.32
9809.00,1.31
9808.00,1.31
9807.00,1.31
9806.00,1.31
9805.00,1.31
9804.00,1.31
9803.00,1.31
9802.00,1.31
9801.00,1.31
9800.00,1.31
9799.00,1.31
9798.00,1.32
9797.00,1.32
9796.00,1.32
9795.00,1.32
9794.00,1.32
9793.00,1.33
9792.00,1.33
9791.00,1.33
9790.00,1.34
9789.00,1.34
9788.00,1.34
9787.00,1.34
9786.00,1.35
9785.00,1.35
9784.00,1.35
9783.00,1.35
9782.00,1.35
9781.00,1.35
9780.00,1.35
9779.00,1.35
9778.00,1.35
9777.00,1.35
9776.00,1.35
9775.00,1.35
9774.00,1.35
9773.00,1.34
9772.00,1.34
9771.00,1.34
9770.00,1.34
9769.00,1.34
9768.00,1.34
9767.00,1.34
9766.00,1.34
9765.00,1.34
9764.00,1.34
9763.00,1.34
9762.00,1.35
9761.00,1.35
9760.00,1.34
9759.00,1.34
9758.00,1.34
9757.00,1.34
9756.00,1.34
9755.00,1.34
9754.00,1.34
9753.00,1.34
9752.00,1.34
9751.00,1.33
9750.00,1.33
9749.00,1.33
9748.00,1.33
9747.00,1.33
9746.00,1.33
9745.00,1.33
9744.00,1.34
9743.00,1.34
9742.00,1.34
9741.00,1.34
9740.00,1.34
9739.00,1.34
9738.00,1.35
9737.00,1.35
9736.00,1.35
9735.00,1.35
9734.00,1.35
9733.00,1.35
9732.00,1.35
9731.00,1.35
9730.00,1.35
9729.00,1.35
9728.00,1.35
9727.00,1.35
9726.00,1.35
9725.00,1.34
9724.00,1.34
9723.00,1.34
9722.00,1.34
9721.00,1.34
9720.00,1.34
9719.00,1.34
9718.00,1.34
9717.00,1.34
9716.00,1.34
9715.00,1.34
9714.00,1.34
9713.00,1.34
9712.00,1.34
9711.00,1.34
9710.00,1.34
9709.00,1.34
9708.00,1.34
9707.00,1.34
9706.00,1.34
9705.00,1.33
9704.00,1.33
9703.00,1.33
9702.00,1.33
9701.00,1.33
9700.00,1.33
9699.00,1.33
9698.00,1.33
9697.00,1.33
9696.00,1.33
9695.00,1.33
9694.00,1.33
9693.00,1.33
9692.00,1.32
9691.00,1.32
9690.00,1.32
9689.00,1.32
9688.00,1.32
9687.00,1.32
9686.00,1.32
9685.00,1.32
9684.00,1.33
9683.00,1.33
9682.00,1.33
9681.00,1.33
9680.00,1.33
9679.00,1.33
9678.00,1.33
9677.00,1.33
9676.00,1.34
9675.00,1.34
9674.00,1.34
9673.00,1.34
9672.00,1.34
9671.00,1.34
9670.00,1.35
9669.00,1.35
9668.00,1.35
9667.00,1.35
9666.00,1.35
9665.00,1.35
9664.00,1.35
9663.00,1.34
9662.00,1.34
9661.00,1.34
9660.00,1.34
9659.00,1.33
9658.00,1.33
9657.00,1.33
9656.00,1.33
9655.00,1.33
9654.00,1.32
9653.00,1.32
9652.00,1.32
9651.00,1.32
9650.00,1.32
9649.00,1.32
9648.00,1.32
9647.00,1.32
9646.00,1.33
9645.00,1.33
9644.00,1.33
9643.00,1.33
9642.00,1.33
9641.00,1.33
9640.00,1.33
9639.00,1.33
9638.00,1.33
9637.00,1.33
9636.00,1.33
9635.00,1.33
9634.00,1.33
9633.00,1.33
9632.00,1.33
9631.00,1.32
9630.00,1.32
9629.00,1.32
9628.00,1.32
9627.00,1.32
9626.00,1.32
9625.00,1.31
9624.00,1.31
9623.00,1.31
9622.00,1.31
9621.00,1.31
9620.00,1.31
9619.00,1.31
9618.00,1.31
9617.00,1.31
9616.00,1.31
9615.00,1.31
9614.00,1.32
9613.00,1.32
9612.00,1.32
9611.00,1.32
9610.00,1.32
9609.00,1.32
9608.00,1.32
9607.00,1.32
9606.00,1.32
9605.00,1.32
9604.00,1.32
9603.00,1.32
9602.00,1.32
9601.00,1.32
9600.00,1.32
9599.00,1.32
9598.00,1.32
9597.00,1.32
9596.00,1.32
9595.00,1.32
9594.00,1.32
9593.00,1.32
9592.00,1.32
9591.00,1.32
9590.00,1.32
9589.00,1.32
9588.00,1.32
9587.00,1.32
9586.00,1.33
9585.00,1.33
9584.00,1.33
9583.00,1.33
9582.00,1.33
9581.00,1.33
9580.00,1.33
9579.00,1.33
9578.00,1.33
9577.00,1.33
9576.00,1.33
9575.00,1.33
9574.00,1.33
9573.00,1.33
9572.00,1.33
9571.00,1.33
9570.00,1.33
9569.00,1.33
9568.00,1.33
9567.00,1.33
9566.00,1.33
9565.00,1.33
9564.00,1.33
9563.00,1.33
9562.00,1.33
9561.00,1.32
9560.00,1.32
9559.00,1.32
9558.00,1.32
9557.00,1.32
9556.00,1.32
9555.00,1.32
9554.00,1.32
9553.00,1.32
9552.00,1.32
9551.00,1.33
9550.00,1.33
9549.00,1.33
9548.00,1.33
9547.00,1.33
9546.00,1.33
9545.00,1.33
9544.00,1.33
9543.00,1.33
9542.00,1.33
9541.00,1.34
9540.00,1.34
9539.00,1.34
9538.00,1.34
9537.00,1.34
9536.00,1.34
9535.00,1.34
9534.00,1.34
9533.00,1.34
9532.00,1.35
9531.00,1.35
9530.00,1.35
9529.00,1.35
9528.00,1.35
9527.00,1.35
9526.00,1.35
9525.00,1.35
9524.00,1.35
9523.00,1.35
9522.00,1.35
9521.00,1.35
9520.00,1.35
9519.00,1.35
9518.00,1.34
9517.00,1.34
9516.00,1.34
9515.00,1.34
9514.00,1.34
9513.00,1.34
9512.00,1.34
9511.00,1.34
9510.00,1.34
9509.00,1.34
9508.00,1.34
9507.00,1.34
9506.00,1.34
9505.00,1.34
9504.00,1.34
9503.00,1.34
9502.00,1.34
9501.00,1.34
9500.00,1.34
9499.00,1.33
9498.00,1.33
9497.00,1.33
9496.00,1.33
9495.00,1.33
9494.00,1.33
9493.00,1.33
9492.00,1.33
9491.00,1.33
9490.00,1.33
9489.00,1.33
9488.00,1.33
9487.00,1.33
9486.00,1.33
9485.00,1.33
9484.00,1.33
9483.00,1.32
9482.00,1.32
9481.00,1.32
9480.00,1.32
9479.00,1.32
9478.00,1.32
9477.00,1.32
9476.00,1.32
9475.00,1.32
9474.00,1.31
9473.00,1.31
9472.00,1.31
9471.00,1.31
9470.00,1.31
9469.00,1.30
9468.00,1.30
9467.00,1.30
9466.00,1.30
9465.00,1.30
9464.00,1.30
9463.00,1.30
9462.00,1.30
9461.00,1.30
9460.00,1.30
9459.00,1.29
9458.00,1.30
9457.00,1.30
9456.00,1.30
9455.00,1.30
9454.00,1.30
9453.00,1.30
9452.00,1.30
9451.00,1.30
9450.00,1.30
9449.00,1.30
9448.00,1.31
9447.00,1.31
9446.00,1.31
9445.00,1.31
9444.00,1.31
9443.00,1.31
9442.00,1.32
9441.00,1.32
9440.00,1.32
9439.00,1.32
9438.00,1.32
9437.00,1.32
9436.00,1.32
9435.00,1.32
9434.00,1.32
9433.00,1.32
9432.00,1.32
9431.00,1.32
9430.00,1.32
9429.00,1.32
9428.00,1.32
9427.00,1.32
9426.00,1.32
9425.00,1.32
9424.00,1.32
9423.00,1.32
9422.00,1.32
9421.00,1.32
9420.00,1.32
9419.00,1.32
9418.00,1.32
9417.00,1.32
9416.00,1.32
9415.00,1.32
9414.00,1.32
9413.00,1.32
9412.00,1.32
9411.00,1.32
9410.00,1.32
9409.00,1.32
9408.00,1.32
9407.00,1.32
9406.00,1.32
9405.00,1.32
9404.00,1.32
9403.00,1.32
9402.00,1.32
9401.00,1.32
9400.00,1.32
9399.00,1.32
9398.00,1.32
9397.00,1.32
9396.00,1.32
9395.00,1.32
9394.00,1.32
9393.00,1.32
9392.00,1.32
9391.00,1.32
9390.00,1.32
9389.00,1.32
9388.00,1.32
9387.00,1.32
9386.00,1.32
9385.00,1.32
9384.00,1.32
9383.00,1.32
9382.00,1.32
9381.00,1.32
9380.00,1.32
9379.00,1.33
9378.00,1.33
9377.00,1.33
9376.00,1.32
9375.00,1.32
9374.00,1.32
9373.00,1.32
9372.00,1.32
9371.00,1.32
9370.00,1.32
9369.00,1.32
9368.00,1.32
9367.00,1.32
9366.00,1.32
9365.00,1.32
9364.00,1.32
9363.00,1.32
9362.00,1.32
9361.00,1.32
9360.00,1.32
9359.00,1.32
9358.00,1.33
9357.00,1.33
9356.00,1.33
9355.00,1.33
9354.00,1.33
9353.00,1.34
9352.00,1.34
9351.00,1.34
9350.00,1.34
9349.00,1.34
9348.00,1.35
9347.00,1.35
9346.00,1.35
9345.00,1.35
9344.00,1.35
9343.00,1.35
9342.00,1.35
9341.00,1.35
9340.00,1.35
9339.00,1.35
9338.00,1.35
9337.00,1.35
9336.00,1.35
9335.00,1.34
9334.00,1.34
9333.00,1.34
9332.00,1.34
9331.00,1.33
9330.00,1.33
9329.00,1.33
9328.00,1.33
9327.00,1.32
9326.00,1.32
9325.00,1.32
9324.00,1.32
9323.00,1.32
9322.00,1.32
9321.00,1.32
9320.00,1.32
9319.00,1.32
9318.00,1.32
9317.00,1.32
9316.00,1.32
9315.00,1.32
9314.00,1.32
9313.00,1.32
9312.00,1.32
9311.00,1.32
9310.00,1.32
9309.00,1.33
9308.00,1.33
9307.00,1.33
9306.00,1.33
9305.00,1.33
9304.00,1.33
9303.00,1.33
9302.00,1.33
9301.00,1.33
9300.00,1.32
9299.00,1.32
9298.00,1.32
9297.00,1.32
9296.00,1.32
9295.00,1.32
9294.00,1.32
9293.00,1.31
9292.00,1.31
9291.00,1.31
9290.00,1.31
9289.00,1.31
9288.00,1.31
9287.00,1.31
9286.00,1.31
9285.00,1.32
9284.00,1.32
9283.00,1.32
9282.00,1.32
9281.00,1.32
9280.00,1.33
9279.00,1.33
9278.00,1.33
9277.00,1.33
9276.00,1.33
9275.00,1.33
9274.00,1.33
9273.00,1.33
9272.00,1.33
9271.00,1.33
9270.00,1.33
9269.00,1.33
9268.00,1.33
9267.00,1.33
9266.00,1.33
9265.00,1.33
9264.00,1.33
9263.00,1.33
9262.00,1.33
9261.00,1.33
9260.00,1.33
9259.00,1.33
9258.00,1.33
9257.00,1.33
9256.00,1.33
9255.00,1.33
9254.00,1.33
9253.00,1.33
9252.00,1.33
9251.00,1.34
9250.00,1.34
9249.00,1.34
9248.00,1.34
9247.00,1.34
9246.00,1.35
9245.00,1.35
9244.00,1.35
9243.00,1.35
9242.00,1.35
9241.00,1.35
9240.00,1.35
9239.00,1.35
9238.00,1.35
9237.00,1.35
9236.00,1.35
9235.00,1.35
9234.00,1.35
9233.00,1.35
9232.00,1.34
9231.00,1.34
9230.00,1.34
9229.00,1.34
9228.00,1.33
9227.00,1.33
9226.00,1.33
9225.00,1.33
9224.00,1.33
9223.00,1.33
9222.00,1.32
9221.00,1.32
9220.00,1.32
9219.00,1.32
9218.00,1.32
9217.00,1.32
9216.00,1.32
9215.00,1.32
9214.00,1.31
9213.00,1.31
9212.00,1.31
9211.00,1.31
9210.00,1.31
9209.00,1.31
9208.00,1.31
9207.00,1.31
9206.00,1.30
9205.00,1.30
9204.00,1.30
9203.00,1.30
9202.00,1.30
9201.00,1.30
9200.00,1.30
9199.00,1.30
9198.00,1.31
9197.00,1.31
9196.00,1.31
9195.00,1.31
9194.00,1.31
9193.00,1.32
9192.00,1.32
9191.00,1.32
9190.00,1.32
9189.00,1.33
9188.00,1.33
9187.00,1.33
9186.00,1.33
9185.00,1.33
9184.00,1.34
9183.00,1.34
9182.00,1.34
9181.00,1.34
9180.00,1.34
9179.00,1.34
9178.00,1.34
9177.00,1.34
9176.00,1.34
9175.00,1.34
9174.00,1.34
9173.00,1.34
9172.00,1.34
9171.00,1.34
9170.00,1.34
9169.00,1.34
9168.00,1.34
9167.00,1.34
9166.00,1.34
9165.00,1.34
9164.00,1.34
9163.00,1.34
9162.00,1.34
9161.00,1.34
9160.00,1.34
9159.00,1.34
9158.00,1.34
9157.00,1.34
9156.00,1.34
9155.00,1.33
9154.00,1.33
9153.00,1.33
9152.00,1.33
9151.00,1.33
9150.00,1.32
9149.00,1.32
9148.00,1.32
9147.00,1.32
9146.00,1.31
9145.00,1.31
9144.00,1.31
9143.00,1.31
9142.00,1.31
9141.00,1.31
9140.00,1.30
9139.00,1.30
9138.00,1.30
9137.00,1.30
9136.00,1.30
9135.00,1.31
9134.00,1.31
9133.00,1.31
9132.00,1.31
9131.00,1.31
9130.00,1.31
9129.00,1.31
9128.00,1.32
9127.00,1.32
9126.00,1.32
9125.00,1.32
9124.00,1.32
9123.00,1.33
9122.00,1.33
9121.00,1.33
9120.00,1.33
9119.00,1.33
9118.00,1.34
9117.00,1.34
9116.00,1.34
9115.00,1.34
9114.00,1.34
9113.00,1.34
9112.00,1.35
9111.00,1.35
9110.00,1.35
9109.00,1.35
9108.00,1.35
9107.00,1.35
9106.00,1.35
9105.00,1.35
9104.00,1.35
9103.00,1.35
9102.00,1.34
9101.00,1.34
9100.00,1.34
9099.00,1.34
9098.00,1.34
9097.00,1.33
9096.00,1.33
9095.00,1.33
9094.00,1.33
9093.00,1.32
9092.00,1.32
9091.00,1.32
9090.00,1.32
9089.00,1.32
9088.00,1.31
9087.00,1.31
9086.00,1.31
9085.00,1.31
9084.00,1.31
9083.00,1.31
9082.00,1.31
9081.00,1.31
9080.00,1.31
9079.00,1.31
9078.00,1.31
9077.00,1.31
9076.00,1.31
9075.00,1.31
9074.00,1.31
9073.00,1.32
9072.00,1.32
9071.00,1.32
9070.00,1.32
9069.00,1.32
9068.00,1.32
9067.00,1.32
9066.00,1.32
9065.00,1.32
9064.00,1.32
9063.00,1.32
9062.00,1.32
9061.00,1.32
9060.00,1.32
9059.00,1.32
9058.00,1.32
9057.00,1.33
9056.00,1.33
9055.00,1.33
9054.00,1.33
9053.00,1.33
9052.00,1.33
9051.00,1.33
9050.00,1.33
9049.00,1.33
9048.00,1.33
9047.00,1.33
9046.00,1.33
9045.00,1.33
9044.00,1.33
9043.00,1.33
9042.00,1.33
9041.00,1.33
9040.00,1.33
9039.00,1.33
9038.00,1.33
9037.00,1.33
9036.00,1.33
9035.00,1.33
9034.00,1.33
9033.00,1.33
9032.00,1.33
9031.00,1.33
9030.00,1.33
9029.00,1.33
9028.00,1.33
9027.00,1.33
9026.00,1.33
9025.00,1.33
9024.00,1.33
9023.00,1.32
9022.00,1.32
9021.00,1.32
9020.00,1.32
9019.00,1.32
9018.00,1.32
9017.00,1.32
9016.00,1.32
9015.00,1.32
9014.00,1.32
9013.00,1.32
9012.00,1.32
9011.00,1.33
9010.00,1.33
9009.00,1.33
9008.00,1.33
9007.00,1.33
9006.00,1.33
9005.00,1.33
9004.00,1.33
9003.00,1.33
9002.00,1.33
9001.00,1.33
9000.00,1.33
8999.00,1.33
8998.00,1.33
8997.00,1.33
8996.00,1.33
8995.00,1.33
8994.00,1.33
8993.00,1.33
8992.00,1.33
8991.00,1.33
8990.00,1.32
8989.00,1.32
8988.00,1.32
8987.00,1.32
8986.00,1.33
8985.00,1.33
8984.00,1.33
8983.00,1.33
8982.00,1.33
8981.00,1.33
8980.00,1.33
8979.00,1.33
8978.00,1.34
8977.00,1.34
8976.00,1.34
8975.00,1.34
8974.00,1.34
8973.00,1.34
8972.00,1.35
8971.00,1.35
8970.00,1.35
8969.00,1.35
8968.00,1.35
8967.00,1.35
8966.00,1.35
8965.00,1.35
8964.00,1.35
8963.00,1.35
8962.00,1.35
8961.00,1.35
8960.00,1.35
8959.00,1.35
8958.00,1.35
8957.00,1.35
8956.00,1.35
8955.00,1.35
8954.00,1.35
8953.00,1.35
8952.00,1.35
8951.00,1.35
8950.00,1.35
8949.00,1.35
8948.00,1.35
8947.00,1.34
8946.00,1.34
8945.00,1.34
8944.00,1.34
8943.00,1.34
8942.00,1.34
8941.00,1.34
8940.00,1.34
8939.00,1.34
8938.00,1.34
8937.00,1.34
8936.00,1.34
8935.00,1.34
8934.00,1.34
8933.00,1.34
8932.00,1.34
8931.00,1.34
8930.00,1.34
8929.00,1.34
8928.00,1.34
8927.00,1.34
8926.00,1.34
8925.00,1.34
8924.00,1.34
8923.00,1.34
8922.00,1.34
8921.00,1.34
8920.00,1.34
8919.00,1.34
8918.00,1.34
8917.00,1.34
8916.00,1.34
8915.00,1.34
8914.00,1.34
8913.00,1.34
8912.00,1.34
8911.00,1.33
8910.00,1.33
8909.00,1.33
8908.00,1.33
8907.00,1.33
8906.00,1.33
8905.00,1.33
8904.00,1.33
8903.00,1.33
8902.00,1.33
8901.00,1.33
8900.00,1.33
8899.00,1.33
8898.00,1.33
8897.00,1.33
8896.00,1.33
8895.00,1.33
8894.00,1.33
8893.00,1.33
8892.00,1.33
8891.00,1.33
8890.00,1.33
8889.00,1.33
8888.00,1.33
8887.00,1.33
8886.00,1.33
8885.00,1.33
8884.00,1.33
8883.00,1.33
8882.00,1.33
8881.00,1.33
8880.00,1.33
8879.00,1.33
8878.00,1.33
8877.00,1.33
8876.00,1.32
8875.00,1.32
8874.00,1.32
8873.00,1.32
8872.00,1.32
8871.00,1.32
8870.00,1.32
8869.00,1.32
8868.00,1.32
8867.00,1.32
8866.00,1.32
8865.00,1.32
8864.00,1.32
8863.00,1.32
8862.00,1.32
8861.00,1.32
8860.00,1.32
8859.00,1.32
8858.00,1.32
8857.00,1.32
8856.00,1.32
8855.00,1.32
8854.00,1.32
8853.00,1.32
8852.00,1.33
8851.00,1.33
8850.00,1.33
8849.00,1.33
8848.00,1.33
8847.00,1.33
8846.00,1.34
8845.00,1.34
8844.00,1.34
8843.00,1.34
8842.00,1.34
8841.00,1.34
8840.00,1.34
8839.00,1.34
8838.00,1.34
8837.00,1.34
8836.00,1.34
8835.00,1.34
8834.00,1.34
8833.00,1.34
8832.00,1.34
8831.00,1.34
8830.00,1.34
8829.00,1.34
8828.00,1.34
8827.00,1.34
8826.00,1.34
8825.00,1.34
8824.00,1.34
8823.00,1.34
8822.00,1.34
8821.00,1.34
8820.00,1.34
8819.00,1.34
8818.00,1.34
8817.00,1.34
8816.00,1.34
8815.00,1.34
8814.00,1.34
8813.00,1.34
8812.00,1.33
8811.00,1.33
8810.00,1.33
8809.00,1.33
8808.00,1.33
8807.00,1.33
8806.00,1.33
8805.00,1.33
8804.00,1.32
8803.00,1.32
8802.00,1.32
8801.00,1.32
8800.00,1.32
8799.00,1.32
8798.00,1.32
8797.00,1.32
8796.00,1.32
8795.00,1.32
8794.00,1.32
8793.00,1.32
8792.00,1.32
8791.00,1.32
8790.00,1.32
8789.00,1.32
8788.00,1.32
8787.00,1.32
8786.00,1.32
8785.00,1.31
8784.00,1.31
8783.00,1.31
8782.00,1.31
8781.00,1.31
8780.00,1.31
8779.00,1.31
8778.00,1.31
8777.00,1.30
8776.00,1.30
8775.00,1.30
8774.00,1.30
8773.00,1.30
8772.00,1.30
8771.00,1.30
8770.00,1.30
8769.00,1.30
8768.00,1.30
8767.00,1.29
8766.00,1.29
8765.00,1.29
8764.00,1.29
8763.00,1.29
8762.00,1.29
8761.00,1.29
8760.00,1.29
8759.00,1.29
8758.00,1.29
8757.00,1.28
8756.00,1.28
8755.00,1.28
8754.00,1.28
8753.00,1.28
8752.00,1.28
8751.00,1.28
8750.00,1.28
8749.00,1.28
8748.00,1.28
8747.00,1.28
8746.00,1.28
8745.00,1.28
8744.00,1.29
8743.00,1.29
8742.00,1.29
8741.00,1.29
8740.00,1.29
8739.00,1.29
8738.00,1.29
8737.00,1.29
8736.00,1.29
8735.00,1.30
8734.00,1.30
8733.00,1.30
8732.00,1.30
8731.00,1.30
8730.00,1.30
8729.00,1.30
8728.00,1.30
8727.00,1.30
8726.00,1.30
8725.00,1.30
8724.00,1.30
8723.00,1.30
8722.00,1.30
8721.00,1.30
8720.00,1.30
8719.00,1.30
8718.00,1.30
8717.00,1.29
8716.00,1.29
8715.00,1.29
8714.00,1.29
8713.00,1.29
8712.00,1.29
8711.00,1.29
8710.00,1.29
8709.00,1.29
8708.00,1.29
8707.00,1.29
8706.00,1.29
8705.00,1.29
8704.00,1.29
8703.00,1.28
8702.00,1.28
8701.00,1.28
8700.00,1.28
8699.00,1.28
8698.00,1.28
8697.00,1.28
8696.00,1.28
8695.00,1.28
8694.00,1.28
8693.00,1.28
8692.00,1.28
8691.00,1.28
8690.00,1.28
8689.00,1.28
8688.00,1.28
8687.00,1.28
8686.00,1.28
8685.00,1.28
8684.00,1.28
8683.00,1.28
8682.00,1.28
8681.00,1.28
8680.00,1.28
8679.00,1.28
8678.00,1.28
8677.00,1.28
8676.00,1.28
8675.00,1.28
8674.00,1.28
8673.00,1.28
8672.00,1.28
8671.00,1.28
8670.00,1.28
8669.00,1.28
8668.00,1.28
8667.00,1.28
8666.00,1.28
8665.00,1.28
8664.00,1.28
8663.00,1.28
8662.00,1.28
8661.00,1.28
8660.00,1.28
8659.00,1.28
8658.00,1.28
8657.00,1.28
8656.00,1.28
8655.00,1.28
8654.00,1.27
8653.00,1.27
8652.00,1.27
8651.00,1.27
8650.00,1.27
8649.00,1.27
8648.00,1.27
8647.00,1.27
8646.00,1.27
8645.00,1.27
8644.00,1.26
8643.00,1.26
8642.00,1.26
8641.00,1.26
8640.00,1.26
8639.00,1.26
8638.00,1.26
8637.00,1.26
8636.00,1.27
8635.00,1.27
8634.00,1.27
8633.00,1.27
8632.00,1.27
8631.00,1.27
8630.00,1.27
8629.00,1.27
8628.00,1.27
8627.00,1.27
8626.00,1.27
8625.00,1.27
8624.00,1.27
8623.00,1.27
8622.00,1.27
8621.00,1.26
8620.00,1.26
8619.00,1.26
8618.00,1.26
8617.00,1.26
8616.00,1.26
8615.00,1.26
8614.00,1.26
8613.00,1.26
8612.00,1.26
8611.00,1.26
8610.00,1.26
8609.00,1.26
8608.00,1.26
8607.00,1.26
8606.00,1.26
8605.00,1.26
8604.00,1.26
8603.00,1.26
8602.00,1.26
8601.00,1.26
8600.00,1.26
8599.00,1.26
8598.00,1.26
8597.00,1.26
8596.00,1.26
8595.00,1.26
8594.00,1.26
8593.00,1.26
8592.00,1.25
8591.00,1.25
8590.00,1.25
8589.00,1.25
8588.00,1.25
8587.00,1.25
8586.00,1.25
8585.00,1.25
8584.00,1.25
8583.00,1.25
8582.00,1.25
8581.00,1.25
8580.00,1.25
8579.00,1.25
8578.00,1.25
8577.00,1.25
8576.00,1.25
8575.00,1.25
8574.00,1.26
8573.00,1.26
8572.00,1.26
8571.00,1.26
8570.00,1.26
8569.00,1.26
8568.00,1.26
8567.00,1.26
8566.00,1.26
8565.00,1.26
8564.00,1.26
8563.00,1.26
8562.00,1.26
8561.00,1.25
8560.00,1.25
8559.00,1.25
8558.00,1.25
8557.00,1.25
8556.00,1.25
8555.00,1.25
8554.00,1.25
8553.00,1.25
8552.00,1.25
8551.00,1.25
8550.00,1.25
8549.00,1.25
8548.00,1.25
8547.00,1.25
8546.00,1.25
8545.00,1.25
8544.00,1.25
8543.00,1.25
8542.00,1.25
8541.00,1.25
8540.00,1.25
8539.00,1.25
8538.00,1.24
8537.00,1.24
8536.00,1.24
8535.00,1.24
8534.00,1.24
8533.00,1.24
8532.00,1.24
8531.00,1.24
8530.00,1.23
8529.00,1.23
8528.00,1.23
8527.00,1.23
8526.00,1.23
8525.00,1.23
8524.00,1.23
8523.00,1.23
8522.00,1.23
8521.00,1.23
8520.00,1.23
8519.00,1.23
8518.00,1.23
8517.00,1.23
8516.00,1.23
8515.00,1.23
8514.00,1.23
8513.00,1.23
8512.00,1.23
8511.00,1.23
8510.00,1.23
8509.00,1.23
8508.00,1.23
8507.00,1.23
8506.00,1.23
8505.00,1.23
8504.00,1.23
8503.00,1.23
8502.00,1.23
8501.00,1.23
8500.00,1.23
8499.00,1.23
8498.00,1.23
8497.00,1.23
8496.00,1.23
8495.00,1.23
8494.00,1.23
8493.00,1.23
8492.00,1.23
8491.00,1.23
8490.00,1.23
8489.00,1.23
8488.00,1.22
8487.00,1.22
8486.00,1.22
8485.00,1.22
8484.00,1.22
8483.00,1.22
8482.00,1.22
8481.00,1.22
8480.00,1.21
8479.00,1.21
8478.00,1.21
8477.00,1.21
8476.00,1.21
8475.00,1.21
8474.00,1.21
8473.00,1.21
8472.00,1.21
8471.00,1.21
8470.00,1.21
8469.00,1.21
8468.00,1.21
8467.00,1.21
8466.00,1.21
8465.00,1.21
8464.00,1.21
8463.00,1.21
8462.00,1.21
8461.00,1.21
8460.00,1.21
8459.00,1.20
8458.00,1.20
8457.00,1.20
8456.00,1.20
8455.00,1.20
8454.00,1.20
8453.00,1.20
8452.00,1.20
8451.00,1.20
8450.00,1.20
8449.00,1.20
8448.00,1.20
8447.00,1.20
8446.00,1.19
8445.00,1.19
8444.00,1.19
8443.00,1.19
8442.00,1.19
8441.00,1.19
8440.00,1.19
8439.00,1.19
8438.00,1.19
8437.00,1.19
8436.00,1.18
8435.00,1.18
8434.00,1.18
8433.00,1.18
8432.00,1.18
8431.00,1.18
8430.00,1.18
8429.00,1.18
8428.00,1.18
8427.00,1.18
8426.00,1.18
8425.00,1.18
8424.00,1.18
8423.00,1.18
8422.00,1.18
8421.00,1.18
8420.00,1.19
8419.00,1.19
8418.00,1.19
8417.00,1.19
8416.00,1.19
8415.00,1.19
8414.00,1.19
8413.00,1.19
8412.00,1.19
8411.00,1.19
8410.00,1.19
8409.00,1.19
8408.00,1.19
8407.00,1.19
8406.00,1.19
8405.00,1.19
8404.00,1.19
8403.00,1.19
8402.00,1.19
8401.00,1.19
8400.00,1.19
8399.00,1.19
8398.00,1.19
8397.00,1.19
8396.00,1.19
8395.00,1.19
8394.00,1.19
8393.00,1.20
8392.00,1.20
8391.00,1.20
8390.00,1.20
8389.00,1.20
8388.00,1.20
8387.00,1.20
8386.00,1.20
8385.00,1.21
8384.00,1.21
8383.00,1.21
8382.00,1.21
8381.00,1.21
8380.00,1.21
8379.00,1.21
8378.00,1.21
8377.00,1.21
8376.00,1.21
8375.00,1.22
8374.00,1.22
8373.00,1.22
8372.00,1.22
8371.00,1.22
8370.00,1.22
8369.00,1.23
8368.00,1.23
8367.00,1.23
8366.00,1.23
8365.00,1.24
8364.00,1.24
8363.00,1.24
8362.00,1.24
8361.00,1.24
8360.00,1.25
8359.00,1.25
8358.00,1.25
8357.00,1.25
8356.00,1.25
8355.00,1.25
8354.00,1.25
8353.00,1.25
8352.00,1.25
8351.00,1.24
8350.00,1.24
8349.00,1.24
8348.00,1.24
8347.00,1.24
8346.00,1.24
8345.00,1.23
8344.00,1.23
8343.00,1.23
8342.00,1.23
8341.00,1.23
8340.00,1.23
8339.00,1.23
8338.00,1.23
8337.00,1.22
8336.00,1.22
8335.00,1.22
8334.00,1.22
8333.00,1.22
8332.00,1.22
8331.00,1.22
8330.00,1.22
8329.00,1.22
8328.00,1.22
8327.00,1.22
8326.00,1.22
8325.00,1.22
8324.00,1.22
8323.00,1.22
8322.00,1.22
8321.00,1.22
8320.00,1.22
8319.00,1.22
8318.00,1.23
8317.00,1.23
8316.00,1.23
8315.00,1.23
8314.00,1.23
8313.00,1.23
8312.00,1.23
8311.00,1.23
8310.00,1.23
8309.00,1.23
8308.00,1.23
8307.00,1.23
8306.00,1.23
8305.00,1.23
8304.00,1.23
8303.00,1.23
8302.00,1.24
8301.00,1.24
8300.00,1.24
8299.00,1.24
8298.00,1.24
8297.00,1.24
8296.00,1.23
8295.00,1.23
8294.00,1.23
8293.00,1.23
8292.00,1.23
8291.00,1.23
8290.00,1.23
8289.00,1.23
8288.00,1.23
8287.00,1.23
8286.00,1.23
8285.00,1.23
8284.00,1.23
8283.00,1.23
8282.00,1.23
8281.00,1.23
8280.00,1.23
8279.00,1.23
8278.00,1.23
8277.00,1.23
8276.00,1.23
8275.00,1.23
8274.00,1.23
8273.00,1.23
8272.00,1.23
8271.00,1.23
8270.00,1.24
8269.00,1.24
8268.00,1.24
8267.00,1.24
8266.00,1.24
8265.00,1.24
8264.00,1.24
8263.00,1.24
8262.00,1.24
8261.00,1.24
8260.00,1.24
8259.00,1.24
8258.00,1.25
8257.00,1.25
8256.00,1.25
8255.00,1.25
8254.00,1.25
8253.00,1.25
8252.00,1.25
8251.00,1.25
8250.00,1.25
8249.00,1.25
8248.00,1.25
8247.00,1.25
8246.00,1.25
8245.00,1.25
8244.00,1.25
8243.00,1.25
8242.00,1.25
8241.00,1.25
8240.00,1.25
8239.00,1.25
8238.00,1.25
8237.00,1.24
8236.00,1.24
8235.00,1.24
8234.00,1.24
8233.00,1.24
8232.00,1.24
8231.00,1.24
8230.00,1.24
8229.00,1.24
8228.00,1.24
8227.00,1.24
8226.00,1.24
8225.00,1.24
8224.00,1.24
8223.00,1.24
8222.00,1.24
8221.00,1.24
8220.00,1.24
8219.00,1.24
8218.00,1.25
8217.00,1.25
8216.00,1.25
8215.00,1.25
8214.00,1.25
8213.00,1.26
8212.00,1.26
8211.00,1.26
8210.00,1.26
8209.00,1.26
8208.00,1.26
8207.00,1.27
8206.00,1.27
8205.00,1.27
8204.00,1.27
8203.00,1.27
8202.00,1.27
8201.00,1.27
8200.00,1.27
8199.00,1.27
8198.00,1.27
8197.00,1.27
8196.00,1.27
8195.00,1.27
8194.00,1.27
8193.00,1.27
8192.00,1.27
8191.00,1.27
8190.00,1.27
8189.00,1.27
8188.00,1.27
8187.00,1.27
8186.00,1.27
8185.00,1.27
8184.00,1.27
8183.00,1.27
8182.00,1.27
8181.00,1.27
8180.00,1.27
8179.00,1.27
8178.00,1.27
8177.00,1.27
8176.00,1.27
8175.00,1.27
8174.00,1.27
8173.00,1.27
8172.00,1.27
8171.00,1.27
8170.00,1.27
8169.00,1.27
8168.00,1.27
8167.00,1.27
8166.00,1.27
8165.00,1.27
8164.00,1.27
8163.00,1.28
8162.00,1.28
8161.00,1.28
8160.00,1.28
8159.00,1.28
8158.00,1.28
8157.00,1.28
8156.00,1.28
8155.00,1.28
8154.00,1.28
8153.00,1.28
8152.00,1.28
8151.00,1.28
8150.00,1.29
8149.00,1.29
8148.00,1.29
8147.00,1.29
8146.00,1.29
8145.00,1.29
8144.00,1.29
8143.00,1.29
8142.00,1.29
8141.00,1.28
8140.00,1.28
8139.00,1.28
8138.00,1.28
8137.00,1.28
8136.00,1.28
8135.00,1.29
8134.00,1.29
8133.00,1.29
8132.00,1.29
8131.00,1.29
8130.00,1.29
8129.00,1.29
8128.00,1.29
8127.00,1.29
8126.00,1.29
8125.00,1.29
8124.00,1.29
8123.00,1.29
8122.00,1.29
8121.00,1.29
8120.00,1.29
8119.00,1.29
8118.00,1.29
8117.00,1.29
8116.00,1.29
8115.00,1.29
8114.00,1.29
8113.00,1.29
8112.00,1.29
8111.00,1.30
8110.00,1.30
8109.00,1.30
8108.00,1.30
8107.00,1.30
8106.00,1.30
8105.00,1.30
8104.00,1.30
8103.00,1.30
8102.00,1.30
8101.00,1.30
8100.00,1.30
8099.00,1.30
8098.00,1.29
8097.00,1.29
8096.00,1.29
8095.00,1.29
8094.00,1.29
8093.00,1.29
8092.00,1.29
8091.00,1.29
8090.00,1.29
8089.00,1.29
8088.00,1.29
8087.00,1.29
8086.00,1.29
8085.00,1.29
8084.00,1.29
8083.00,1.29
8082.00,1.30
8081.00,1.30
8080.00,1.30
8079.00,1.30
8078.00,1.30
8077.00,1.30
8076.00,1.30
8075.00,1.30
8074.00,1.30
8073.00,1.30
8072.00,1.30
8071.00,1.30
8070.00,1.30
8069.00,1.30
8068.00,1.30
8067.00,1.30
8066.00,1.30
8065.00,1.30
8064.00,1.30
8063.00,1.30
8062.00,1.30
8061.00,1.30
8060.00,1.29
8059.00,1.29
8058.00,1.29
8057.00,1.29
8056.00,1.29
8055.00,1.29
8054.00,1.29
8053.00,1.29
8052.00,1.29
8051.00,1.30
8050.00,1.30
8049.00,1.30
8048.00,1.30
8047.00,1.30
8046.00,1.30
8045.00,1.30
8044.00,1.30
8043.00,1.30
8042.00,1.30
8041.00,1.30
8040.00,1.30
8039.00,1.31
8038.00,1.31
8037.00,1.31
8036.00,1.31
8035.00,1.31
8034.00,1.31
8033.00,1.31
8032.00,1.31
8031.00,1.31
8030.00,1.31
8029.00,1.31
8028.00,1.31
8027.00,1.32
8026.00,1.32
8025.00,1.32
8024.00,1.32
8023.00,1.32
8022.00,1.32
8021.00,1.32
8020.00,1.32
8019.00,1.32
8018.00,1.32
8017.00,1.32
8016.00,1.32
8015.00,1.32
8014.00,1.32
8013.00,1.32
8012.00,1.32
8011.00,1.31
8010.00,1.31
8009.00,1.31
8008.00,1.31
8007.00,1.31
8006.00,1.31
8005.00,1.31
8004.00,1.31
8003.00,1.31
8002.00,1.31
8001.00,1.31
8000.00,1.31
7999.00,1.31
7998.00,1.31
7997.00,1.31
7996.00,1.31
7995.00,1.31
7994.00,1.31
7993.00,1.31
7992.00,1.31
7991.00,1.31
7990.00,1.31
7989.00,1.31
7988.00,1.31
7987.00,1.31
7986.00,1.31
7985.00,1.32
7984.00,1.32
7983.00,1.32
7982.00,1.32
7981.00,1.32
7980.00,1.33
7979.00,1.33
7978.00,1.33
7977.00,1.33
7976.00,1.33
7975.00,1.33
7974.00,1.33
7973.00,1.33
7972.00,1.33
7971.00,1.33
7970.00,1.33
7969.00,1.33
7968.00,1.32
7967.00,1.32
7966.00,1.32
7965.00,1.32
7964.00,1.32
7963.00,1.32
7962.00,1.31
7961.00,1.31
7960.00,1.31
7959.00,1.31
7958.00,1.31
7957.00,1.31
7956.00,1.31
7955.00,1.31
7954.00,1.31
7953.00,1.31
7952.00,1.31
7951.00,1.32
7950.00,1.32
7949.00,1.32
7948.00,1.32
7947.00,1.32
7946.00,1.32
7945.00,1.32
7944.00,1.32
7943.00,1.32
7942.00,1.32
7941.00,1.32
7940.00,1.32
7939.00,1.32
7938.00,1.32
7937.00,1.32
7936.00,1.33
7935.00,1.33
7934.00,1.33
7933.00,1.33
7932.00,1.33
7931.00,1.33
7930.00,1.33
7929.00,1.33
7928.00,1.33
7927.00,1.33
7926.00,1.33
7925.00,1.33
7924.00,1.33
7923.00,1.33
7922.00,1.33
7921.00,1.33
7920.00,1.33
7919.00,1.33
7918.00,1.33
7917.00,1.33
7916.00,1.33
7915.00,1.33
7914.00,1.33
7913.00,1.33
7912.00,1.33
7911.00,1.33
7910.00,1.33
7909.00,1.33
7908.00,1.33
7907.00,1.33
7906.00,1.33
7905.00,1.33
7904.00,1.33
7903.00,1.33
7902.00,1.33
7901.00,1.33
7900.00,1.33
7899.00,1.33
7898.00,1.33
7897.00,1.33
7896.00,1.33
7895.00,1.33
7894.00,1.33
7893.00,1.33
7892.00,1.33
7891.00,1.33
7890.00,1.33
7889.00,1.33
7888.00,1.33
7887.00,1.33
7886.00,1.33
7885.00,1.33
7884.00,1.33
7883.00,1.33
7882.00,1.33
7881.00,1.33
7880.00,1.33
7879.00,1.33
7878.00,1.33
7877.00,1.33
7876.00,1.33
7875.00,1.33
7874.00,1.33
7873.00,1.33
7872.00,1.33
7871.00,1.33
7870.00,1.33
7869.00,1.33
7868.00,1.33
7867.00,1.33
7866.00,1.33
7865.00,1.33
7864.00,1.33
7863.00,1.33
7862.00,1.33
7861.00,1.33
7860.00,1.33
7859.00,1.33
7858.00,1.33
7857.00,1.33
7856.00,1.33
7855.00,1.33
7854.00,1.33
7853.00,1.33
7852.00,1.33
7851.00,1.33
7850.00,1.33
7849.00,1.33
7848.00,1.33
7847.00,1.33
7846.00,1.33
7845.00,1.33
7844.00,1.33
7843.00,1.33
7842.00,1.33
7841.00,1.34
7840.00,1.34
7839.00,1.34
7838.00,1.34
7837.00,1.34
7836.00,1.34
7835.00,1.34
7834.00,1.34
7833.00,1.34
7832.00,1.33
7831.00,1.33
7830.00,1.33
7829.00,1.33
7828.00,1.33
7827.00,1.33
7826.00,1.33
7825.00,1.33
7824.00,1.33
7823.00,1.33
7822.00,1.33
7821.00,1.33
7820.00,1.33
7819.00,1.33
7818.00,1.33
7817.00,1.33
7816.00,1.33
7815.00,1.33
7814.00,1.33
7813.00,1.33
7812.00,1.34
7811.00,1.34
7810.00,1.34
7809.00,1.34
7808.00,1.34
7807.00,1.34
7806.00,1.34
7805.00,1.34
7804.00,1.34
7803.00,1.34
7802.00,1.34
7801.00,1.34
7800.00,1.34
7799.00,1.34
7798.00,1.34
7797.00,1.34
7796.00,1.34
7795.00,1.34
7794.00,1.34
7793.00,1.34
7792.00,1.34
7791.00,1.34
7790.00,1.34
7789.00,1.34
7788.00,1.34
7787.00,1.34
7786.00,1.34
7785.00,1.34
7784.00,1.34
7783.00,1.34
7782.00,1.34
7781.00,1.34
7780.00,1.34
7779.00,1.34
7778.00,1.34
7777.00,1.34
7776.00,1.34
7775.00,1.34
7774.00,1.34
7773.00,1.34
7772.00,1.34
7771.00,1.34
7770.00,1.34
7769.00,1.34
7768.00,1.34
7767.00,1.34
7766.00,1.34
7765.00,1.34
7764.00,1.34
7763.00,1.34
7762.00,1.34
7761.00,1.34
7760.00,1.34
7759.00,1.34
7758.00,1.34
7757.00,1.34
7756.00,1.34
7755.00,1.34
7754.00,1.34
7753.00,1.34
7752.00,1.34
7751.00,1.34
7750.00,1.34
7749.00,1.34
7748.00,1.34
7747.00,1.34
7746.00,1.34
7745.00,1.34
7744.00,1.34
7743.00,1.34
7742.00,1.34
7741.00,1.34
7740.00,1.34
7739.00,1.34
7738.00,1.34
7737.00,1.34
7736.00,1.35
7735.00,1.35
7734.00,1.35
7733.00,1.35
7732.00,1.35
7731.00,1.35
7730.00,1.35
7729.00,1.35
7728.00,1.35
7727.00,1.35
7726.00,1.35
7725.00,1.35
7724.00,1.35
7723.00,1.35
7722.00,1.35
7721.00,1.35
7720.00,1.35
7719.00,1.35
7718.00,1.35
7717.00,1.35
7716.00,1.35
7715.00,1.35
7714.00,1.35
7713.00,1.35
7712.00,1.35
7711.00,1.34
7710.00,1.34
7709.00,1.34
7708.00,1.34
7707.00,1.34
7706.00,1.34
7705.00,1.34
7704.00,1.34
7703.00,1.34
7702.00,1.34
7701.00,1.34
7700.00,1.34
7699.00,1.34
7698.00,1.34
7697.00,1.34
7696.00,1.34
7695.00,1.34
7694.00,1.34
7693.00,1.34
7692.00,1.34
7691.00,1.34
7690.00,1.34
7689.00,1.34
7688.00,1.34
7687.00,1.34
7686.00,1.34
7685.00,1.34
7684.00,1.34
7683.00,1.34
7682.00,1.34
7681.00,1.34
7680.00,1.34
7679.00,1.34
7678.00,1.34
7677.00,1.34
7676.00,1.34
7675.00,1.34
7674.00,1.34
7673.00,1.34
7672.00,1.34
7671.00,1.34
7670.00,1.34
7669.00,1.34
7668.00,1.34
7667.00,1.34
7666.00,1.34
7665.00,1.34
7664.00,1.34
7663.00,1.34
7662.00,1.34
7661.00,1.34
7660.00,1.34
7659.00,1.34
7658.00,1.34
7657.00,1.34
7656.00,1.34
7655.00,1.34
7654.00,1.34
7653.00,1.34
7652.00,1.34
7651.00,1.34
7650.00,1.34
7649.00,1.34
7648.00,1.34
7647.00,1.34
7646.00,1.34
7645.00,1.35
7644.00,1.35
7643.00,1.35
7642.00,1.35
7641.00,1.35
7640.00,1.35
7639.00,1.35
7638.00,1.35
7637.00,1.35
7636.00,1.35
7635.00,1.35
7634.00,1.35
7633.00,1.35
7632.00,1.35
7631.00,1.35
7630.00,1.35
7629.00,1.35
7628.00,1.35
7627.00,1.35
7626.00,1.35
7625.00,1.35
7624.00,1.35
7623.00,1.34
7622.00,1.34
7621.00,1.34
7620.00,1.34
7619.00,1.34
7618.00,1.34
7617.00,1.34
7616.00,1.34
7615.00,1.34
7614.00,1.34
7613.00,1.34
7612.00,1.34
7611.00,1.34
7610.00,1.34
7609.00,1.34
7608.00,1.34
7607.00,1.35
7606.00,1.35
7605.00,1.35
7604.00,1.35
7603.00,1.35
7602.00,1.35
7601.00,1.35
7600.00,1.35
7599.00,1.35
7598.00,1.35
7597.00,1.35
7596.00,1.35
7595.00,1.35
7594.00,1.35
7593.00,1.35
7592.00,1.35
7591.00,1.35
7590.00,1.34
7589.00,1.34
7588.00,1.34
7587.00,1.34
7586.00,1.34
7585.00,1.34
7584.00,1.34
7583.00,1.34
7582.00,1.34
7581.00,1.34
7580.00,1.34
7579.00,1.34
7578.00,1.34
7577.00,1.34
7576.00,1.34
7575.00,1.34
7574.00,1.34
7573.00,1.34
7572.00,1.33
7571.00,1.33
7570.00,1.33
7569.00,1.33
7568.00,1.33
7567.00,1.33
7566.00,1.34
7565.00,1.34
7564.00,1.34
7563.00,1.34
7562.00,1.34
7561.00,1.34
7560.00,1.34
7559.00,1.34
7558.00,1.34
7557.00,1.34
7556.00,1.34
7555.00,1.34
7554.00,1.34
7553.00,1.34
7552.00,1.34
7551.00,1.34
7550.00,1.34
7549.00,1.34
7548.00,1.33
7547.00,1.33
7546.00,1.33
7545.00,1.33
7544.00,1.33
7543.00,1.33
7542.00,1.33
7541.00,1.33
7540.00,1.33
7539.00,1.33
7538.00,1.33
7537.00,1.33
7536.00,1.33
7535.00,1.33
7534.00,1.33
7533.00,1.33
7532.00,1.33
7531.00,1.33
7530.00,1.33
7529.00,1.33
7528.00,1.33
7527.00,1.33
7526.00,1.33
7525.00,1.33
7524.00,1.33
7523.00,1.33
7522.00,1.33
7521.00,1.33
7520.00,1.33
7519.00,1.33
7518.00,1.33
7517.00,1.33
7516.00,1.33
7515.00,1.33
7514.00,1.33
7513.00,1.33
7512.00,1.33
7511.00,1.33
7510.00,1.33
7509.00,1.33
7508.00,1.33
7507.00,1.33
7506.00,1.33
7505.00,1.33
7504.00,1.33
7503.00,1.33
7502.00,1.33
7501.00,1.33
7500.00,1.33
7499.00,1.33
7498.00,1.33
7497.00,1.33
7496.00,1.32
7495.00,1.32
7494.00,1.32
7493.00,1.32
7492.00,1.32
7491.00,1.32
7490.00,1.32
7489.00,1.32
7488.00,1.32
7487.00,1.32
7486.00,1.32
7485.00,1.32
7484.00,1.32
7483.00,1.32
7482.00,1.32
7481.00,1.32
7480.00,1.32
7479.00,1.32
7478.00,1.32
7477.00,1.32
7476.00,1.32
7475.00,1.32
7474.00,1.32
7473.00,1.32
7472.00,1.32
7471.00,1.32
7470.00,1.32
7469.00,1.32
7468.00,1.32
7467.00,1.32
7466.00,1.32
7465.00,1.32
7464.00,1.32
7463.00,1.32
7462.00,1.32
7461.00,1.32
7460.00,1.32
7459.00,1.32
7458.00,1.31
7457.00,1.31
7456.00,1.31
7455.00,1.31
7454.00,1.31
7453.00,1.31
7452.00,1.31
7451.00,1.31
7450.00,1.31
7449.00,1.31
7448.00,1.31
7447.00,1.31
7446.00,1.31
7445.00,1.31
7444.00,1.31
7443.00,1.31
7442.00,1.31
7441.00,1.31
7440.00,1.31
7439.00,1.31
7438.00,1.31
7437.00,1.30
7436.00,1.30
7435.00,1.30
7434.00,1.30
7433.00,1.30
7432.00,1.30
7431.00,1.30
7430.00,1.30
7429.00,1.30
7428.00,1.29
7427.00,1.29
7426.00,1.29
7425.00,1.29
7424.00,1.29
7423.00,1.29
7422.00,1.29
7421.00,1.29
7420.00,1.29
7419.00,1.29
7418.00,1.29
7417.00,1.29
7416.00,1.29
7415.00,1.29
7414.00,1.29
7413.00,1.29
7412.00,1.28
7411.00,1.28
7410.00,1.28
7409.00,1.28
7408.00,1.28
7407.00,1.28
7406.00,1.28
7405.00,1.27
7404.00,1.27
7403.00,1.27
7402.00,1.27
7401.00,1.27
7400.00,1.27
7399.00,1.27
7398.00,1.26
7397.00,1.26
7396.00,1.26
7395.00,1.26
7394.00,1.26
7393.00,1.26
7392.00,1.26
7391.00,1.26
7390.00,1.26
7389.00,1.25
7388.00,1.25
7387.00,1.25
7386.00,1.25
7385.00,1.25
7384.00,1.25
7383.00,1.25
7382.00,1.25
7381.00,1.25
7380.00,1.25
7379.00,1.25
7378.00,1.25
7377.00,1.25
7376.00,1.25
7375.00,1.25
7374.00,1.25
7373.00,1.25
7372.00,1.25
7371.00,1.25
7370.00,1.25
7369.00,1.25
7368.00,1.25
7367.00,1.25
7366.00,1.25
7365.00,1.25
7364.00,1.25
7363.00,1.25
7362.00,1.25
7361.00,1.25
7360.00,1.25
7359.00,1.25
7358.00,1.25
7357.00,1.25
7356.00,1.25
7355.00,1.25
7354.00,1.25
7353.00,1.25
7352.00,1.25
7351.00,1.25
7350.00,1.25
7349.00,1.25
7348.00,1.25
7347.00,1.24
7346.00,1.24
7345.00,1.24
7344.00,1.24
7343.00,1.24
7342.00,1.24
7341.00,1.25
7340.00,1.25
7339.00,1.25
7338.00,1.25
7337.00,1.25
7336.00,1.25
7335.00,1.25
7334.00,1.24
7333.00,1.24
7332.00,1.24
7331.00,1.24
7330.00,1.24
7329.00,1.24
7328.00,1.24
7327.00,1.24
7326.00,1.24
7325.00,1.24
7324.00,1.24
7323.00,1.23
7322.00,1.23
7321.00,1.23
7320.00,1.23
7319.00,1.23
7318.00,1.23
7317.00,1.23
7316.00,1.23
7315.00,1.23
7314.00,1.23
7313.00,1.23
7312.00,1.23
7311.00,1.23
7310.00,1.22
7309.00,1.22
7308.00,1.22
7307.00,1.22
7306.00,1.22
7305.00,1.22
7304.00,1.22
7303.00,1.22
7302.00,1.22
7301.00,1.22
7300.00,1.21
7299.00,1.21
7298.00,1.21
7297.00,1.21
7296.00,1.21
7295.00,1.21
7294.00,1.21
7293.00,1.21
7292.00,1.21
7291.00,1.21
7290.00,1.21
7289.00,1.21
7288.00,1.20
7287.00,1.20
7286.00,1.20
7285.00,1.20
7284.00,1.20
7283.00,1.20
7282.00,1.20
7281.00,1.20
7280.00,1.20
7279.00,1.20
7278.00,1.20
7277.00,1.20
7276.00,1.20
7275.00,1.20
7274.00,1.19
7273.00,1.19
7272.00,1.19
7271.00,1.19
7270.00,1.19
7269.00,1.19
7268.00,1.19
7267.00,1.19
7266.00,1.19
7265.00,1.19
7264.00,1.19
7263.00,1.18
7262.00,1.18
7261.00,1.18
7260.00,1.18
7259.00,1.18
7258.00,1.18
7257.00,1.18
7256.00,1.17
7255.00,1.17
7254.00,1.17
7253.00,1.17
7252.00,1.16
7251.00,1.16
7250.00,1.16
7249.00,1.16
7248.00,1.15
7247.00,1.15
7246.00,1.15
7245.00,1.15
7244.00,1.14
7243.00,1.14
7242.00,1.14
7241.00,1.14
7240.00,1.14
7239.00,1.14
7238.00,1.14
7237.00,1.13
7236.00,1.13
7235.00,1.13
7234.00,1.13
7233.00,1.13
7232.00,1.13
7231.00,1.12
7230.00,1.12
7229.00,1.12
7228.00,1.12
7227.00,1.11
7226.00,1.11
7225.00,1.11
7224.00,1.11
7223.00,1.10
7222.00,1.10
7221.00,1.10
7220.00,1.09
7219.00,1.09
7218.00,1.09
7217.00,1.08
7216.00,1.08
7215.00,1.08
7214.00,1.07
7213.00,1.07
7212.00,1.07
7211.00,1.06
7210.00,1.06
7209.00,1.05
7208.00,1.05
7207.00,1.05
7206.00,1.04
7205.00,1.04
7204.00,1.04
7203.00,1.03
7202.00,1.03
7201.00,1.03
7200.00,1.02
7199.00,1.02
7198.00,1.02
7197.00,1.01
7196.00,1.01
7195.00,1.01
7194.00,1.01
7193.00,1.00
7192.00,1.00
7191.00,1.00
7190.00,1.00
7189.00,0.99
7188.00,0.99
7187.00,0.99
7186.00,0.98
7185.00,0.98
7184.00,0.98
7183.00,0.97
7182.00,0.97
7181.00,0.96
7180.00,0.96
7179.00,0.96
7178.00,0.95
7177.00,0.95
7176.00,0.94
7175.00,0.94
7174.00,0.94
7173.00,0.93
7172.00,0.93
7171.00,0.93
7170.00,0.92
7169.00,0.92
7168.00,0.92
7167.00,0.92
7166.00,0.91
7165.00,0.91
7164.00,0.91
7163.00,0.91
7162.00,0.91
7161.00,0.90
7160.00,0.90
7159.00,0.90
7158.00,0.90
7157.00,0.90
7156.00,0.89
7155.00,0.89
7154.00,0.89
7153.00,0.89
7152.00,0.89
7151.00,0.88
7150.00,0.88
7149.00,0.88
7148.00,0.87
7147.00,0.87
7146.00,0.87
7145.00,0.87
7144.00,0.86
7143.00,0.86
7142.00,0.86
7141.00,0.85
7140.00,0.85
7139.00,0.85
7138.00,0.85
7137.00,0.85
7136.00,0.84
7135.00,0.84
7134.00,0.84
7133.00,0.84
7132.00,0.83
7131.00,0.83
7130.00,0.83
7129.00,0.83
7128.00,0.82
7127.00,0.82
7126.00,0.82
7125.00,0.82
7124.00,0.81
7123.00,0.81
7122.00,0.81
7121.00,0.81
7120.00,0.80
7119.00,0.80
7118.00,0.80
7117.00,0.80
7116.00,0.79
7115.00,0.79
7114.00,0.79
7113.00,0.79
7112.00,0.78
7111.00,0.78
7110.00,0.78
7109.00,0.77
7108.00,0.77
7107.00,0.77
7106.00,0.77
7105.00,0.76
7104.00,0.76
7103.00,0.76
7102.00,0.76
7101.00,0.75
7100.00,0.75
7099.00,0.75
7098.00,0.75
7097.00,0.75
7096.00,0.74
7095.00,0.74
7094.00,0.74
7093.00,0.74
7092.00,0.74
7091.00,0.73
7090.00,0.73
7089.00,0.73
7088.00,0.73
7087.00,0.73
7086.00,0.73
7085.00,0.73
7084.00,0.72
7083.00,0.72
7082.00,0.72
7081.00,0.72
7080.00,0.72
7079.00,0.72
7078.00,0.72
7077.00,0.71
7076.00,0.71
7075.00,0.71
7074.00,0.71
7073.00,0.71
7072.00,0.71
7071.00,0.71
7070.00,0.70
7069.00,0.70
7068.00,0.70
7067.00,0.70
7066.00,0.70
7065.00,0.70
7064.00,0.69
7063.00,0.69
7062.00,0.69
7061.00,0.69
7060.00,0.69
7059.00,0.69
7058.00,0.69
7057.00,0.68
7056.00,0.68
7055.00,0.68
7054.00,0.68
7053.00,0.68
7052.00,0.68
7051.00,0.68
7050.00,0.68
7049.00,0.68
7048.00,0.67
7047.00,0.67
7046.00,0.67
7045.00,0.67
7044.00,0.67
7043.00,0.67
7042.00,0.67
7041.00,0.67
7040.00,0.67
7039.00,0.66
7038.00,0.66
7037.00,0.66
7036.00,0.66
7035.00,0.66
7034.00,0.66
7033.00,0.66
7032.00,0.65
7031.00,0.65
7030.00,0.65
7029.00,0.65
7028.00,0.65
7027.00,0.65
7026.00,0.65
7025.00,0.65
7024.00,0.64
7023.00,0.64
7022.00,0.64
7021.00,0.64
7020.00,0.64
7019.00,0.64
7018.00,0.64
7017.00,0.64
7016.00,0.64
7015.00,0.64
7014.00,0.64
7013.00,0.64
7012.00,0.64
7011.00,0.64
7010.00,0.64
7009.00,0.64
7008.00,0.63
7007.00,0.63
7006.00,0.63
7005.00,0.63
7004.00,0.63
7003.00,0.63
7002.00,0.63
7001.00,0.63
7000.00,0.63
6999.00,0.63
6998.00,0.63
6997.00,0.63
6996.00,0.63
6995.00,0.63
6994.00,0.63
6993.00,0.63
6992.00,0.63
6991.00,0.63
6990.00,0.63
6989.00,0.63
6988.00,0.63
6987.00,0.63
6986.00,0.63
6985.00,0.63
6984.00,0.63
6983.00,0.63
6982.00,0.62
6981.00,0.62
6980.00,0.62
6979.00,0.62
6978.00,0.62
6977.00,0.62
6976.00,0.62
6975.00,0.62
6974.00,0.62
6973.00,0.62
6972.00,0.62
6971.00,0.62
6970.00,0.62
6969.00,0.62
6968.00,0.62
6967.00,0.61
6966.00,0.61
6965.00,0.61
6964.00,0.61
6963.00,0.61
6962.00,0.61
6961.00,0.60
6960.00,0.60
6959.00,0.60
6958.00,0.60
6957.00,0.60
6956.00,0.60
6955.00,0.60
6954.00,0.60
6953.00,0.60
6952.00,0.59
6951.00,0.59
6950.00,0.59
6949.00,0.59
6948.00,0.59
6947.00,0.59
6946.00,0.59
6945.00,0.59
6944.00,0.59
6943.00,0.59
6942.00,0.59
6941.00,0.59
6940.00,0.59
6939.00,0.60
6938.00,0.60
6937.00,0.60
6936.00,0.60
6935.00,0.60
6934.00,0.60
6933.00,0.60
6932.00,0.60
6931.00,0.60
6930.00,0.60
6929.00,0.60
6928.00,0.60
6927.00,0.60
6926.00,0.60
6925.00,0.60
6924.00,0.60
6923.00,0.60
6922.00,0.60
6921.00,0.60
6920.00,0.60
6919.00,0.60
6918.00,0.60
6917.00,0.60
6916.00,0.60
6915.00,0.59
6914.00,0.59
6913.00,0.59
6912.00,0.59
6911.00,0.59
6910.00,0.59
6909.00,0.59
6908.00,0.59
6907.00,0.59
6906.00,0.59
6905.00,0.59
6904.00,0.59
6903.00,0.59
6902.00,0.59
6901.00,0.58
6900.00,0.58
6899.00,0.58
6898.00,0.58
6897.00,0.58
6896.00,0.58
6895.00,0.58
6894.00,0.58
6893.00,0.58
6892.00,0.58
6891.00,0.58
6890.00,0.58
6889.00,0.58
6888.00,0.58
6887.00,0.58
6886.00,0.58
6885.00,0.58
6884.00,0.59
6883.00,0.59
6882.00,0.59
6881.00,0.59
6880.00,0.59
6879.00,0.59
6878.00,0.59
6877.00,0.59
6876.00,0.59
6875.00,0.59
6874.00,0.59
6873.00,0.59
6872.00,0.59
6871.00,0.59
6870.00,0.59
6869.00,0.59
6868.00,0.59
6867.00,0.59
6866.00,0.59
6865.00,0.59
6864.00,0.59
6863.00,0.59
6862.00,0.59
6861.00,0.59
6860.00,0.59
6859.00,0.59
6858.00,0.59
6857.00,0.59
6856.00,0.59
6855.00,0.59
6854.00,0.59
6853.00,0.59
6852.00,0.59
6851.00,0.59
6850.00,0.59
6849.00,0.59
6848.00,0.59
6847.00,0.59
6846.00,0.59
6845.00,0.59
6844.00,0.59
6843.00,0.59
6842.00,0.59
6841.00,0.59
6840.00,0.59
6839.00,0.59
6838.00,0.59
6837.00,0.59
6836.00,0.58
6835.00,0.58
6834.00,0.58
6833.00,0.59
6832.00,0.59
6831.00,0.59
6830.00,0.59
6829.00,0.59
6828.00,0.59
6827.00,0.59
6826.00,0.59
6825.00,0.59
6824.00,0.59
6823.00,0.59
6822.00,0.59
6821.00,0.59
6820.00,0.59
6819.00,0.59
6818.00,0.60
6817.00,0.60
6816.00,0.60
6815.00,0.60
6814.00,0.60
6813.00,0.60
6812.00,0.60
6811.00,0.60
6810.00,0.60
6809.00,0.60
6808.00,0.60
6807.00,0.60
6806.00,0.60
6805.00,0.60
6804.00,0.60
6803.00,0.60
6802.00,0.60
6801.00,0.60
6800.00,0.61
6799.00,0.61
6798.00,0.61
6797.00,0.61
6796.00,0.61
6795.00,0.61
6794.00,0.61
6793.00,0.61
6792.00,0.61
6791.00,0.61
6790.00,0.61
6789.00,0.61
6788.00,0.61
6787.00,0.61
6786.00,0.61
6785.00,0.61
6784.00,0.61
6783.00,0.61
6782.00,0.61
6781.00,0.61
6780.00,0.61
6779.00,0.61
6778.00,0.61
6777.00,0.61
6776.00,0.61
6775.00,0.61
6774.00,0.61
6773.00,0.61
6772.00,0.61
6771.00,0.61
6770.00,0.61
6769.00,0.61
6768.00,0.62
6767.00,0.62
6766.00,0.62
6765.00,0.62
6764.00,0.62
6763.00,0.62
6762.00,0.62
6761.00,0.62
6760.00,0.62
6759.00,0.62
6758.00,0.62
6757.00,0.62
6756.00,0.62
6755.00,0.62
6754.00,0.62
6753.00,0.63
6752.00,0.63
6751.00,0.63
6750.00,0.63
6749.00,0.63
6748.00,0.63
6747.00,0.63
6746.00,0.63
6745.00,0.63
6744.00,0.63
6743.00,0.63
6742.00,0.63
6741.00,0.64
6740.00,0.64
6739.00,0.64
6738.00,0.64
6737.00,0.64
6736.00,0.64
6735.00,0.64
6734.00,0.64
6733.00,0.64
6732.00,0.64
6731.00,0.64
6730.00,0.64
6729.00,0.64
6728.00,0.64
6727.00,0.64
6726.00,0.64
6725.00,0.65
6724.00,0.65
6723.00,0.65
6722.00,0.65
6721.00,0.65
6720.00,0.65
6719.00,0.65
6718.00,0.65
6717.00,0.65
6716.00,0.65
6715.00,0.65
6714.00,0.65
6713.00,0.65
6712.00,0.65
6711.00,0.65
6710.00,0.66
6709.00,0.66
6708.00,0.66
6707.00,0.66
6706.00,0.66
6705.00,0.66
6704.00,0.66
6703.00,0.66
6702.00,0.66
6701.00,0.66
6700.00,0.66
6699.00,0.67
6698.00,0.67
6697.00,0.67
6696.00,0.67
6695.00,0.67
6694.00,0.67
6693.00,0.67
6692.00,0.67
6691.00,0.67
6690.00,0.67
6689.00,0.67
6688.00,0.67
6687.00,0.67
6686.00,0.67
6685.00,0.67
6684.00,0.68
6683.00,0.68
6682.00,0.68
6681.00,0.68
6680.00,0.68
6679.00,0.68
6678.00,0.68
6677.00,0.68
6676.00,0.68
6675.00,0.68
6674.00,0.68
6673.00,0.68
6672.00,0.68
6671.00,0.68
6670.00,0.68
6669.00,0.69
6668.00,0.69
6667.00,0.69
6666.00,0.69
6665.00,0.69
6664.00,0.69
6663.00,0.69
6662.00,0.69
6661.00,0.69
6660.00,0.69
6659.00,0.70
6658.00,0.70
6657.00,0.70
6656.00,0.70
6655.00,0.70
6654.00,0.70
6653.00,0.70
6652.00,0.70
6651.00,0.70
6650.00,0.70
6649.00,0.70
6648.00,0.70
6647.00,0.70
6646.00,0.70
6645.00,0.70
6644.00,0.70
6643.00,0.70
6642.00,0.70
6641.00,0.70
6640.00,0.70
6639.00,0.70
6638.00,0.71
6637.00,0.71
6636.00,0.71
6635.00,0.71
6634.00,0.71
6633.00,0.71
6632.00,0.71
6631.00,0.71
6630.00,0.71
6629.00,0.71
6628.00,0.71
6627.00,0.71
6626.00,0.72
6625.00,0.72
6624.00,0.72
6623.00,0.72
6622.00,0.72
6621.00,0.72
6620.00,0.73
6619.00,0.73
6618.00,0.73
6617.00,0.73
6616.00,0.73
6615.00,0.73
6614.00,0.73
6613.00,0.74
6612.00,0.74
6611.00,0.74
6610.00,0.74
6609.00,0.74
6608.00,0.74
6607.00,0.74
6606.00,0.74
6605.00,0.74
6604.00,0.74
6603.00,0.74
6602.00,0.75
6601.00,0.75
6600.00,0.75
6599.00,0.75
6598.00,0.75
6597.00,0.75
6596.00,0.75
6595.00,0.75
6594.00,0.75
6593.00,0.75
6592.00,0.75
6591.00,0.75
6590.00,0.75
6589.00,0.75
6588.00,0.75
6587.00,0.75
6586.00,0.75
6585.00,0.75
6584.00,0.75
6583.00,0.75
6582.00,0.76
6581.00,0.76
6580.00,0.76
6579.00,0.76
6578.00,0.76
6577.00,0.76
6576.00,0.76
6575.00,0.76
6574.00,0.76
6573.00,0.76
6572.00,0.77
6571.00,0.77
6570.00,0.77
6569.00,0.77
6568.00,0.77
6567.00,0.77
6566.00,0.77
6565.00,0.78
6564.00,0.78
6563.00,0.78
6562.00,0.78
6561.00,0.78
6560.00,0.79
6559.00,0.79
6558.00,0.79
6557.00,0.79
6556.00,0.79
6555.00,0.79
6554.00,0.79
6553.00,0.79
6552.00,0.79
6551.00,0.79
6550.00,0.80
6549.00,0.80
6548.00,0.80
6547.00,0.80
6546.00,0.80
6545.00,0.80
6544.00,0.80
6543.00,0.80
6542.00,0.80
6541.00,0.80
6540.00,0.80
6539.00,0.80
6538.00,0.80
6537.00,0.80
6536.00,0.80
6535.00,0.80
6534.00,0.80
6533.00,0.80
6532.00,0.80
6531.00,0.80
6530.00,0.80
6529.00,0.80
6528.00,0.80
6527.00,0.80
6526.00,0.81
6525.00,0.81
6524.00,0.81
6523.00,0.81
6522.00,0.81
6521.00,0.81
6520.00,0.81
6519.00,0.81
6518.00,0.81
6517.00,0.81
6516.00,0.81
6515.00,0.81
6514.00,0.81
6513.00,0.82
6512.00,0.82
6511.00,0.82
6510.00,0.82
6509.00,0.82
6508.00,0.82
6507.00,0.82
6506.00,0.82
6505.00,0.82
6504.00,0.82
6503.00,0.82
6502.00,0.82
6501.00,0.82
6500.00,0.82
6499.00,0.82
6498.00,0.83
6497.00,0.83
6496.00,0.83
6495.00,0.83
6494.00,0.83
6493.00,0.83
6492.00,0.83
6491.00,0.83
6490.00,0.83
6489.00,0.83
6488.00,0.83
6487.00,0.83
6486.00,0.83
6485.00,0.83
6484.00,0.83
6483.00,0.83
6482.00,0.84
6481.00,0.84
6480.00,0.84
6479.00,0.84
6478.00,0.84
6477.00,0.84
6476.00,0.84
6475.00,0.84
6474.00,0.84
6473.00,0.84
6472.00,0.84
6471.00,0.84
6470.00,0.84
6469.00,0.85
6468.00,0.85
6467.00,0.85
6466.00,0.85
6465.00,0.85
6464.00,0.85
6463.00,0.85
6462.00,0.85
6461.00,0.85
6460.00,0.85
6459.00,0.85
6458.00,0.85
6457.00,0.85
6456.00,0.86
6455.00,0.86
6454.00,0.86
6453.00,0.86
6452.00,0.86
6451.00,0.86
6450.00,0.86
6449.00,0.86
6448.00,0.86
6447.00,0.86
6446.00,0.87
6445.00,0.87
6444.00,0.87
6443.00,0.87
6442.00,0.87
6441.00,0.87
6440.00,0.87
6439.00,0.87
6438.00,0.87
6437.00,0.87
6436.00,0.87
6435.00,0.87
6434.00,0.87
6433.00,0.87
6432.00,0.87
6431.00,0.87
6430.00,0.87
6429.00,0.87
6428.00,0.87
6427.00,0.87
6426.00,0.87
6425.00,0.87
6424.00,0.87
6423.00,0.87
6422.00,0.87
6421.00,0.87
6420.00,0.87
6419.00,0.88
6418.00,0.88
6417.00,0.88
6416.00,0.88
6415.00,0.88
6414.00,0.88
6413.00,0.88
6412.00,0.88
6411.00,0.88
6410.00,0.88
6409.00,0.89
6408.00,0.89
6407.00,0.89
6406.00,0.89
6405.00,0.89
6404.00,0.89
6403.00,0.89
6402.00,0.89
6401.00,0.89
6400.00,0.89
6399.00,0.89
6398.00,0.89
6397.00,0.89
6396.00,0.89
6395.00,0.89
6394.00,0.89
6393.00,0.89
6392.00,0.89
6391.00,0.89
6390.00,0.89
6389.00,0.89
6388.00,0.90
6387.00,0.90
6386.00,0.90
6385.00,0.90
6384.00,0.90
6383.00,0.90
6382.00,0.90
6381.00,0.90
6380.00,0.90
6379.00,0.90
6378.00,0.90
6377.00,0.90
6376.00,0.90
6375.00,0.91
6374.00,0.91
6373.00,0.91
6372.00,0.91
6371.00,0.91
6370.00,0.91
6369.00,0.91
6368.00,0.91
6367.00,0.91
6366.00,0.91
6365.00,0.91
6364.00,0.91
6363.00,0.91
6362.00,0.91
6361.00,0.91
6360.00,0.91
6359.00,0.91
6358.00,0.91
6357.00,0.91
6356.00,0.91
6355.00,0.91
6354.00,0.91
6353.00,0.91
6352.00,0.91
6351.00,0.92
6350.00,0.92
6349.00,0.92
6348.00,0.92
6347.00,0.92
6346.00,0.92
6345.00,0.92
6344.00,0.92
6343.00,0.92
6342.00,0.92
6341.00,0.92
6340.00,0.92
6339.00,0.92
6338.00,0.92
6337.00,0.92
6336.00,0.93
6335.00,0.93
6334.00,0.93
6333.00,0.93
6332.00,0.93
6331.00,0.93
6330.00,0.93
6329.00,0.93
6328.00,0.93
6327.00,0.93
6326.00,0.93
6325.00,0.94
6324.00,0.94
6323.00,0.94
6322.00,0.94
6321.00,0.94
6320.00,0.94
6319.00,0.94
6318.00,0.94
6317.00,0.94
6316.00,0.95
6315.00,0.95
6314.00,0.95
6313.00,0.95
6312.00,0.95
6311.00,0.95
6310.00,0.95
6309.00,0.95
6308.00,0.96
6307.00,0.96
6306.00,0.96
6305.00,0.96
6304.00,0.96
6303.00,0.96
6302.00,0.96
6301.00,0.96
6300.00,0.96
6299.00,0.96
6298.00,0.96
6297.00,0.96
6296.00,0.96
6295.00,0.96
6294.00,0.96
6293.00,0.96
6292.00,0.97
6291.00,0.97
6290.00,0.97
6289.00,0.97
6288.00,0.97
6287.00,0.97
6286.00,0.97
6285.00,0.98
6284.00,0.98
6283.00,0.98
6282.00,0.98
6281.00,0.98
6280.00,0.98
6279.00,0.99
6278.00,0.99
6277.00,0.99
6276.00,0.99
6275.00,0.99
6274.00,0.99
6273.00,0.99
6272.00,0.99
6271.00,0.99
6270.00,0.99
6269.00,0.99
6268.00,0.99
6267.00,0.99
6266.00,0.99
6265.00,1.00
6264.00,1.00
6263.00,1.00
6262.00,1.00
6261.00,1.00
6260.00,1.00
6259.00,1.00
6258.00,1.00
6257.00,1.00
6256.00,1.01
6255.00,1.01
6254.00,1.01
6253.00,1.01
6252.00,1.01
6251.00,1.01
6250.00,1.01
6249.00,1.01
6248.00,1.01
6247.00,1.02
6246.00,1.02
6245.00,1.02
6244.00,1.02
6243.00,1.02
6242.00,1.02
6241.00,1.02
6240.00,1.02
6239.00,1.03
6238.00,1.03
6237.00,1.03
6236.00,1.03
6235.00,1.03
6234.00,1.03
6233.00,1.04
6232.00,1.04
6231.00,1.04
6230.00,1.04
6229.00,1.04
6228.00,1.04
6227.00,1.04
6226.00,1.05
6225.00,1.05
6224.00,1.05
6223.00,1.05
6222.00,1.05
6221.00,1.05
6220.00,1.05
6219.00,1.05
6218.00,1.05
6217.00,1.05
6216.00,1.06
6215.00,1.06
6214.00,1.06
6213.00,1.06
6212.00,1.06
6211.00,1.06
6210.00,1.06
6209.00,1.06
6208.00,1.06
6207.00,1.06
6206.00,1.06
6205.00,1.06
6204.00,1.07
6203.00,1.07
6202.00,1.07
6201.00,1.07
6200.00,1.07
6199.00,1.07
6198.00,1.07
6197.00,1.07
6196.00,1.07
6195.00,1.07
6194.00,1.08
6193.00,1.08
6192.00,1.08
6191.00,1.08
6190.00,1.08
6189.00,1.08
6188.00,1.08
6187.00,1.08
6186.00,1.09
6185.00,1.09
6184.00,1.09
6183.00,1.09
6182.00,1.09
6181.00,1.09
6180.00,1.10
6179.00,1.10
6178.00,1.10
6177.00,1.10
6176.00,1.10
6175.00,1.10
6174.00,1.10
6173.00,1.11
6172.00,1.11
6171.00,1.11
6170.00,1.11
6169.00,1.11
6168.00,1.11
6167.00,1.11
6166.00,1.12
6165.00,1.12
6164.00,1.12
6163.00,1.12
6162.00,1.12
6161.00,1.12
6160.00,1.12
6159.00,1.13
6158.00,1.13
6157.00,1.13
6156.00,1.13
6155.00,1.13
6154.00,1.13
6153.00,1.13
6152.00,1.13
6151.00,1.14
6150.00,1.14
6149.00,1.14
6148.00,1.14
6147.00,1.14
6146.00,1.14
6145.00,1.14
6144.00,1.15
6143.00,1.15
6142.00,1.15
6141.00,1.15
6140.00,1.15
6139.00,1.15
6138.00,1.16
6137.00,1.16
6136.00,1.16
6135.00,1.16
6134.00,1.16
6133.00,1.16
6132.00,1.16
6131.00,1.16
6130.00,1.16
6129.00,1.16
6128.00,1.16
6127.00,1.17
6126.00,1.17
6125.00,1.17
6124.00,1.17
6123.00,1.17
6122.00,1.17
6121.00,1.17
6120.00,1.17
6119.00,1.17
6118.00,1.18
6117.00,1.18
6116.00,1.18
6115.00,1.18
6114.00,1.18
6113.00,1.18
6112.00,1.19
6111.00,1.19
6110.00,1.19
6109.00,1.19
6108.00,1.19
6107.00,1.19
6106.00,1.20
6105.00,1.20
6104.00,1.20
6103.00,1.20
6102.00,1.20
6101.00,1.20
6100.00,1.20
6099.00,1.20
6098.00,1.20
6097.00,1.20
6096.00,1.20
6095.00,1.20
6094.00,1.20
6093.00,1.20
6092.00,1.21
6091.00,1.21
6090.00,1.21
6089.00,1.21
6088.00,1.21
6087.00,1.22
6086.00,1.22
6085.00,1.22
6084.00,1.22
6083.00,1.22
6082.00,1.23
6081.00,1.23
6080.00,1.23
6079.00,1.23
6078.00,1.23
6077.00,1.23
6076.00,1.23
6075.00,1.23
6074.00,1.24
6073.00,1.24
6072.00,1.24
6071.00,1.24
6070.00,1.24
6069.00,1.24
6068.00,1.24
6067.00,1.24
6066.00,1.24
6065.00,1.24
6064.00,1.24
6063.00,1.24
6062.00,1.24
6061.00,1.24
6060.00,1.24
6059.00,1.24
6058.00,1.24
6057.00,1.24
6056.00,1.24
6055.00,1.24
6054.00,1.24
6053.00,1.25
6052.00,1.25
6051.00,1.25
6050.00,1.25
6049.00,1.25
6048.00,1.25
6047.00,1.25
6046.00,1.25
6045.00,1.25
6044.00,1.25
6043.00,1.25
6042.00,1.25
6041.00,1.25
6040.00,1.25
6039.00,1.26
6038.00,1.26
6037.00,1.26
6036.00,1.26
6035.00,1.26
6034.00,1.26
6033.00,1.26
6032.00,1.26
6031.00,1.26
6030.00,1.26
6029.00,1.26
6028.00,1.26
6027.00,1.26
6026.00,1.26
6025.00,1.26
6024.00,1.26
6023.00,1.26
6022.00,1.26
6021.00,1.26
6020.00,1.26
6019.00,1.26
6018.00,1.26
6017.00,1.26
6016.00,1.27
6015.00,1.27
6014.00,1.27
6013.00,1.27
6012.00,1.27
6011.00,1.27
6010.00,1.27
6009.00,1.27
6008.00,1.27
6007.00,1.27
6006.00,1.27
6005.00,1.27
6004.00,1.27
6003.00,1.27
6002.00,1.27
6001.00,1.27
6000.00,1.27
5999.00,1.26
5998.00,1.26
5997.00,1.26
5996.00,1.26
5995.00,1.26
5994.00,1.26
5993.00,1.26
5992.00,1.26
5991.00,1.26
5990.00,1.25
5989.00,1.25
5988.00,1.25
5987.00,1.25
5986.00,1.25
5985.00,1.24
5984.00,1.24
5983.00,1.24
5982.00,1.24
5981.00,1.23
5980.00,1.23
5979.00,1.23
5978.00,1.22
5977.00,1.22
5976.00,1.21
5975.00,1.21
5974.00,1.21
5973.00,1.20
5972.00,1.20
5971.00,1.19
5970.00,1.19
5969.00,1.18
5968.00,1.18
5967.00,1.17
5966.00,1.17
5965.00,1.16
5964.00,1.15
5963.00,1.15
5962.00,1.14
5961.00,1.14
5960.00,1.13
5959.00,1.12
5958.00,1.12
5957.00,1.11
5956.00,1.10
5955.00,1.10
5954.00,1.09
5953.00,1.09
5952.00,1.08
5951.00,1.07
5950.00,1.07
5949.00,1.06
5948.00,1.06
5947.00,1.06
5946.00,1.05
5945.00,1.05
5944.00,1.05
5943.00,1.04
5942.00,1.04
5941.00,1.04
5940.00,1.04
5939.00,1.03
5938.00,1.03
5937.00,1.03
5936.00,1.03
5935.00,1.03
5934.00,1.03
5933.00,1.03
5932.00,1.03
5931.00,1.03
5930.00,1.03
5929.00,1.03
5928.00,1.03
5927.00,1.03
5926.00,1.02
5925.00,1.02
5924.00,1.02
5923.00,1.02
5922.00,1.02
5921.00,1.02
5920.00,1.01
5919.00,1.01
5918.00,1.01
5917.00,1.01
5916.00,1.01
5915.00,1.00
5914.00,1.00
5913.00,1.00
5912.00,1.00
5911.00,0.99
5910.00,0.99
5909.00,0.99
5908.00,0.99
5907.00,0.99
5906.00,0.99
5905.00,0.98
5904.00,0.98
5903.00,0.98
5902.00,0.98
5901.00,0.98
5900.00,0.98
5899.00,0.98
5898.00,0.99
5897.00,0.99
5896.00,0.99
5895.00,0.99
5894.00,0.99
5893.00,1.00
5892.00,1.00
5891.00,1.00
5890.00,1.00
5889.00,1.01
5888.00,1.01
5887.00,1.01
5886.00,1.02
5885.00,1.02
5884.00,1.02
5883.00,1.02
5882.00,1.03
5881.00,1.03
5880.00,1.03
5879.00,1.03
5878.00,1.04
5877.00,1.04
5876.00,1.04
5875.00,1.04
5874.00,1.04
5873.00,1.04
5872.00,1.04
5871.00,1.05
5870.00,1.05
5869.00,1.05
5868.00,1.05
5867.00,1.05
5866.00,1.05
5865.00,1.05
5864.00,1.05
5863.00,1.05
5862.00,1.06
5861.00,1.06
5860.00,1.06
5859.00,1.06
5858.00,1.06
5857.00,1.06
5856.00,1.06
5855.00,1.06
5854.00,1.06
5853.00,1.07
5852.00,1.07
5851.00,1.07
5850.00,1.07
5849.00,1.07
5848.00,1.07
5847.00,1.07
5846.00,1.07
5845.00,1.07
5844.00,1.08
5843.00,1.08
5842.00,1.08
5841.00,1.08
5840.00,1.08
5839.00,1.08
5838.00,1.08
5837.00,1.08
5836.00,1.08
5835.00,1.08
5834.00,1.08
5833.00,1.08
5832.00,1.08
5831.00,1.08
5830.00,1.08
5829.00,1.08
5828.00,1.08
5827.00,1.08
5826.00,1.08
5825.00,1.08
5824.00,1.08
5823.00,1.08
5822.00,1.08
5821.00,1.08
5820.00,1.08
5819.00,1.08
5818.00,1.08
5817.00,1.08
5816.00,1.08
5815.00,1.08
5814.00,1.08
5813.00,1.08
5812.00,1.08
5811.00,1.08
5810.00,1.08
5809.00,1.08
5808.00,1.08
5807.00,1.08
5806.00,1.08
5805.00,1.08
5804.00,1.08
5803.00,1.08
5802.00,1.08
5801.00,1.08
5800.00,1.08
5799.00,1.07
5798.00,1.07
5797.00,1.07
5796.00,1.07
5795.00,1.07
5794.00,1.06
5793.00,1.06
5792.00,1.06
5791.00,1.06
5790.00,1.05
5789.00,1.05
5788.00,1.05
5787.00,1.05
5786.00,1.05
5785.00,1.04
5784.00,1.04
5783.00,1.04
5782.00,1.04
5781.00,1.04
5780.00,1.04
5779.00,1.04
5778.00,1.04
5777.00,1.03
5776.00,1.03
5775.00,1.03
5774.00,1.03
5773.00,1.03
5772.00,1.03
5771.00,1.03
5770.00,1.03
5769.00,1.04
5768.00,1.04
5767.00,1.04
5766.00,1.04
5765.00,1.04
5764.00,1.04
5763.00,1.04
5762.00,1.04
5761.00,1.05
5760.00,1.05
5759.00,1.05
5758.00,1.05
5757.00,1.06
5756.00,1.06
5755.00,1.06
5754.00,1.06
5753.00,1.07
5752.00,1.07
5751.00,1.07
5750.00,1.08
5749.00,1.08
5748.00,1.08
5747.00,1.08
5746.00,1.09
5745.00,1.09
5744.00,1.09
5743.00,1.10
5742.00,1.10
5741.00,1.10
5740.00,1.10
5739.00,1.11
5738.00,1.11
5737.00,1.11
5736.00,1.11
5735.00,1.11
5734.00,1.12
5733.00,1.12
5732.00,1.12
5731.00,1.12
5730.00,1.12
5729.00,1.12
5728.00,1.12
5727.00,1.12
5726.00,1.12
5725.00,1.12
5724.00,1.12
5723.00,1.12
5722.00,1.12
5721.00,1.12
5720.00,1.12
5719.00,1.12
5718.00,1.12
5717.00,1.12
5716.00,1.12
5715.00,1.12
5714.00,1.12
5713.00,1.12
5712.00,1.12
5711.00,1.12
5710.00,1.12
5709.00,1.12
5708.00,1.12
5707.00,1.12
5706.00,1.12
5705.00,1.12
5704.00,1.12
5703.00,1.12
5702.00,1.12
5701.00,1.12
5700.00,1.12
5699.00,1.11
5698.00,1.11
5697.00,1.11
5696.00,1.11
5695.00,1.11
5694.00,1.11
5693.00,1.11
5692.00,1.11
5691.00,1.11
5690.00,1.11
5689.00,1.11
5688.00,1.10
5687.00,1.10
5686.00,1.10
5685.00,1.10
5684.00,1.10
5683.00,1.10
5682.00,1.10
5681.00,1.10
5680.00,1.10
5679.00,1.10
5678.00,1.09
5677.00,1.09
5676.00,1.09
5675.00,1.09
5674.00,1.09
5673.00,1.09
5672.00,1.09
5671.00,1.09
5670.00,1.09
5669.00,1.09
5668.00,1.09
5667.00,1.09
5666.00,1.09
5665.00,1.10
5664.00,1.10
5663.00,1.10
5662.00,1.10
5661.00,1.10
5660.00,1.10
5659.00,1.10
5658.00,1.11
5657.00,1.11
5656.00,1.11
5655.00,1.11
5654.00,1.11
5653.00,1.12
5652.00,1.12
5651.00,1.12
5650.00,1.12
5649.00,1.12
5648.00,1.12
5647.00,1.13
5646.00,1.13
5645.00,1.13
5644.00,1.13
5643.00,1.13
5642.00,1.13
5641.00,1.13
5640.00,1.13
5639.00,1.14
5638.00,1.14
5637.00,1.14
5636.00,1.14
5635.00,1.14
5634.00,1.14
5633.00,1.14
5632.00,1.15
5631.00,1.15
5630.00,1.15
5629.00,1.15
5628.00,1.15
5627.00,1.15
5626.00,1.16
5625.00,1.16
5624.00,1.16
5623.00,1.16
5622.00,1.16
5621.00,1.16
5620.00,1.17
5619.00,1.17
5618.00,1.17
5617.00,1.17
5616.00,1.17
5615.00,1.17
5614.00,1.18
5613.00,1.18
5612.00,1.18
5611.00,1.18
5610.00,1.18
5609.00,1.19
5608.00,1.19
5607.00,1.19
5606.00,1.19
5605.00,1.19
5604.00,1.19
5603.00,1.20
5602.00,1.20
5601.00,1.20
5600.00,1.20
5599.00,1.20
5598.00,1.20
5597.00,1.20
5596.00,1.20
5595.00,1.21
5594.00,1.21
5593.00,1.21
5592.00,1.21
5591.00,1.21
5590.00,1.21
5589.00,1.21
5588.00,1.21
5587.00,1.21
5586.00,1.21
5585.00,1.22
5584.00,1.22
5583.00,1.22
5582.00,1.22
5581.00,1.22
5580.00,1.22
5579.00,1.22
5578.00,1.23
5577.00,1.23
5576.00,1.23
5575.00,1.23
5574.00,1.23
5573.00,1.23
5572.00,1.24
5571.00,1.24
5570.00,1.24
5569.00,1.24
5568.00,1.24
5567.00,1.24
5566.00,1.24
5565.00,1.24
5564.00,1.25
5563.00,1.25
5562.00,1.25
5561.00,1.25
5560.00,1.25
5559.00,1.25
5558.00,1.25
5557.00,1.25
5556.00,1.25
5555.00,1.26
5554.00,1.26
5553.00,1.26
5552.00,1.26
5551.00,1.26
5550.00,1.26
5549.00,1.26
5548.00,1.26
5547.00,1.26
5546.00,1.27
5545.00,1.27
5544.00,1.27
5543.00,1.27
5542.00,1.27
5541.00,1.27
5540.00,1.27
5539.00,1.27
5538.00,1.27
5537.00,1.28
5536.00,1.28
5535.00,1.28
5534.00,1.28
5533.00,1.28
5532.00,1.28
5531.00,1.29
5530.00,1.29
5529.00,1.29
5528.00,1.29
5527.00,1.29
5526.00,1.29
5525.00,1.29
5524.00,1.29
5523.00,1.29
5522.00,1.29
5521.00,1.29
5520.00,1.29
5519.00,1.29
5518.00,1.29
5517.00,1.29
5516.00,1.29
5515.00,1.29
5514.00,1.29
5513.00,1.29
5512.00,1.29
5511.00,1.29
5510.00,1.29
5509.00,1.30
5508.00,1.30
5507.00,1.30
5506.00,1.30
5505.00,1.30
5504.00,1.30
5503.00,1.30
5502.00,1.30
5501.00,1.30
5500.00,1.30
5499.00,1.30
5498.00,1.30
5497.00,1.30
5496.00,1.30
5495.00,1.30
5494.00,1.30
5493.00,1.31
5492.00,1.31
5491.00,1.31
5490.00,1.31
5489.00,1.31
5488.00,1.31
5487.00,1.31
5486.00,1.31
5485.00,1.32
5484.00,1.32
5483.00,1.32
5482.00,1.32
5481.00,1.32
5480.00,1.32
5479.00,1.32
5478.00,1.32
5477.00,1.32
5476.00,1.33
5475.00,1.33
5474.00,1.33
5473.00,1.33
5472.00,1.33
5471.00,1.33
5470.00,1.33
5469.00,1.33
5468.00,1.33
5467.00,1.34
5466.00,1.34
5465.00,1.34
5464.00,1.34
5463.00,1.34
5462.00,1.34
5461.00,1.34
5460.00,1.34
5459.00,1.34
5458.00,1.34
5457.00,1.34
5456.00,1.34
5455.00,1.34
5454.00,1.34
5453.00,1.34
5452.00,1.34
5451.00,1.34
5450.00,1.34
5449.00,1.34
5448.00,1.34
5447.00,1.34
5446.00,1.34
5445.00,1.34
5444.00,1.34
5443.00,1.34
5442.00,1.34
5441.00,1.34
5440.00,1.34
5439.00,1.34
5438.00,1.35
5437.00,1.35
5436.00,1.35
5435.00,1.35
5434.00,1.35
5433.00,1.35
5432.00,1.35
5431.00,1.35
5430.00,1.35
5429.00,1.35
5428.00,1.35
5427.00,1.35
5426.00,1.35
5425.00,1.35
5424.00,1.35
5423.00,1.35
5422.00,1.35
5421.00,1.35
5420.00,1.35
5419.00,1.35
5418.00,1.35
5417.00,1.35
5416.00,1.35
5415.00,1.35
5414.00,1.35
5413.00,1.35
5412.00,1.35
5411.00,1.35
5410.00,1.35
5409.00,1.35
5408.00,1.35
5407.00,1.35
5406.00,1.35
5405.00,1.35
5404.00,1.35
5403.00,1.35
5402.00,1.35
5401.00,1.35
5400.00,1.35
5399.00,1.35
5398.00,1.34
5397.00,1.34
5396.00,1.34
5395.00,1.34
5394.00,1.34
5393.00,1.34
5392.00,1.34
5391.00,1.34
5390.00,1.34
5389.00,1.33
5388.00,1.33
5387.00,1.33
5386.00,1.33
5385.00,1.33
5384.00,1.33
5383.00,1.33
5382.00,1.32
5381.00,1.32
5380.00,1.32
5379.00,1.32
5378.00,1.31
5377.00,1.31
5376.00,1.30
5375.00,1.30
5374.00,1.30
5373.00,1.29
5372.00,1.29
5371.00,1.28
5370.00,1.28
5369.00,1.27
5368.00,1.27
5367.00,1.26
5366.00,1.26
5365.00,1.25
5364.00,1.25
5363.00,1.24
5362.00,1.24
5361.00,1.23
5360.00,1.23
5359.00,1.22
5358.00,1.22
5357.00,1.21
5356.00,1.20
5355.00,1.20
5354.00,1.19
5353.00,1.18
5352.00,1.18
5351.00,1.17
5350.00,1.16
5349.00,1.15
5348.00,1.15
5347.00,1.14
5346.00,1.13
5345.00,1.12
5344.00,1.11
5343.00,1.10
5342.00,1.10
5341.00,1.09
5340.00,1.08
5339.00,1.07
5338.00,1.06
5337.00,1.05
5336.00,1.04
5335.00,1.03
5334.00,1.02
5333.00,1.01
5332.00,1.00
5331.00,0.99
5330.00,0.98
5329.00,0.97
5328.00,0.96
5327.00,0.95
5326.00,0.94
5325.00,0.93
5324.00,0.93
5323.00,0.92
5322.00,0.91
5321.00,0.90
5320.00,0.89
5319.00,0.88
5318.00,0.87
5317.00,0.86
5316.00,0.85
5315.00,0.84
5314.00,0.83
5313.00,0.82
5312.00,0.82
5311.00,0.81
5310.00,0.80
5309.00,0.79
5308.00,0.78
5307.00,0.78
5306.00,0.77
5305.00,0.76
5304.00,0.76
5303.00,0.75
5302.00,0.74
5301.00,0.74
5300.00,0.73
5299.00,0.73
5298.00,0.72
5297.00,0.72
5296.00,0.72
5295.00,0.71
5294.00,0.71
5293.00,0.71
5292.00,0.71
5291.00,0.70
5290.00,0.70
5289.00,0.70
5288.00,0.70
5287.00,0.69
5286.00,0.69
5285.00,0.69
5284.00,0.69
5283.00,0.69
5282.00,0.69
5281.00,0.68
5280.00,0.68
5279.00,0.68
5278.00,0.68
5277.00,0.68
5276.00,0.68
5275.00,0.67
5274.00,0.67
5273.00,0.67
5272.00,0.67
5271.00,0.67
5270.00,0.67
5269.00,0.67
5268.00,0.67
5267.00,0.67
5266.00,0.67
5265.00,0.67
5264.00,0.67
5263.00,0.66
5262.00,0.66
5261.00,0.66
5260.00,0.67
5259.00,0.67
5258.00,0.67
5257.00,0.67
5256.00,0.67
5255.00,0.67
5254.00,0.67
5253.00,0.67
5252.00,0.67
5251.00,0.67
5250.00,0.67
5249.00,0.67
5248.00,0.67
5247.00,0.67
5246.00,0.67
5245.00,0.67
5244.00,0.67
5243.00,0.67
5242.00,0.67
5241.00,0.67
5240.00,0.67
5239.00,0.67
5238.00,0.67
5237.00,0.67
5236.00,0.67
5235.00,0.67
5234.00,0.67
5233.00,0.67
5232.00,0.67
5231.00,0.67
5230.00,0.67
5229.00,0.67
5228.00,0.67
5227.00,0.67
5226.00,0.67
5225.00,0.67
5224.00,0.67
5223.00,0.67
5222.00,0.67
5221.00,0.67
5220.00,0.67
5219.00,0.67
5218.00,0.67
5217.00,0.67
5216.00,0.67
5215.00,0.67
5214.00,0.67
5213.00,0.67
5212.00,0.67
5211.00,0.67
5210.00,0.67
5209.00,0.67
5208.00,0.67
5207.00,0.67
5206.00,0.67
5205.00,0.67
5204.00,0.67
5203.00,0.67
5202.00,0.68
5201.00,0.68
5200.00,0.68
5199.00,0.68
5198.00,0.68
5197.00,0.68
5196.00,0.68
5195.00,0.68
5194.00,0.68
5193.00,0.68
5192.00,0.68
5191.00,0.68
5190.00,0.69
5189.00,0.69
5188.00,0.69
5187.00,0.69
5186.00,0.69
5185.00,0.69
5184.00,0.69
5183.00,0.69
5182.00,0.69
5181.00,0.69
5180.00,0.69
5179.00,0.69
5178.00,0.70
5177.00,0.70
5176.00,0.70
5175.00,0.70
5174.00,0.70
5173.00,0.70
5172.00,0.70
5171.00,0.70
5170.00,0.70
5169.00,0.70
5168.00,0.70
5167.00,0.70
5166.00,0.70
5165.00,0.70
5164.00,0.70
5163.00,0.70
5162.00,0.70
5161.00,0.70
5160.00,0.70
5159.00,0.70
5158.00,0.70
5157.00,0.70
5156.00,0.70
5155.00,0.69
5154.00,0.69
5153.00,0.69
5152.00,0.69
5151.00,0.70
5150.00,0.70
5149.00,0.70
5148.00,0.70
5147.00,0.70
5146.00,0.70
5145.00,0.70
5144.00,0.70
5143.00,0.70
5142.00,0.70
5141.00,0.70
5140.00,0.70
5139.00,0.70
5138.00,0.70
5137.00,0.70
5136.00,0.70
5135.00,0.70
5134.00,0.70
5133.00,0.71
5132.00,0.71
5131.00,0.71
5130.00,0.71
5129.00,0.71
5128.00,0.71
5127.00,0.71
5126.00,0.71
5125.00,0.71
5124.00,0.71
5123.00,0.71
5122.00,0.71
5121.00,0.71
5120.00,0.71
5119.00,0.71
5118.00,0.72
5117.00,0.72
5116.00,0.72
5115.00,0.72
5114.00,0.72
5113.00,0.72
5112.00,0.72
5111.00,0.72
5110.00,0.72
5109.00,0.72
5108.00,0.72
5107.00,0.72
5106.00,0.72
5105.00,0.72
5104.00,0.72
5103.00,0.72
5102.00,0.72
5101.00,0.72
5100.00,0.72
5099.00,0.72
5098.00,0.73
5097.00,0.73
5096.00,0.73
5095.00,0.73
5094.00,0.73
5093.00,0.73
5092.00,0.73
5091.00,0.73
5090.00,0.73
5089.00,0.73
5088.00,0.73
5087.00,0.73
5086.00,0.73
5085.00,0.73
5084.00,0.73
5083.00,0.73
5082.00,0.73
5081.00,0.74
5080.00,0.74
5079.00,0.74
5078.00,0.74
5077.00,0.74
5076.00,0.74
5075.00,0.74
5074.00,0.74
5073.00,0.74
5072.00,0.74
5071.00,0.74
5070.00,0.74
5069.00,0.74
5068.00,0.74
5067.00,0.74
5066.00,0.74
5065.00,0.74
5064.00,0.74
5063.00,0.74
5062.00,0.74
5061.00,0.74
5060.00,0.74
5059.00,0.74
5058.00,0.74
5057.00,0.74
5056.00,0.74
5055.00,0.74
5054.00,0.75
5053.00,0.75
5052.00,0.75
5051.00,0.75
5050.00,0.75
5049.00,0.75
5048.00,0.75
5047.00,0.75
5046.00,0.75
5045.00,0.75
5044.00,0.75
5043.00,0.75
5042.00,0.75
5041.00,0.75
5040.00,0.76
5039.00,0.76
5038.00,0.76
5037.00,0.76
5036.00,0.76
5035.00,0.76
5034.00,0.76
5033.00,0.76
5032.00,0.76
5031.00,0.76
5030.00,0.76
5029.00,0.77
5028.00,0.77
5027.00,0.77
5026.00,0.77
5025.00,0.77
5024.00,0.77
5023.00,0.77
5022.00,0.77
5021.00,0.77
5020.00,0.77
5019.00,0.77
5018.00,0.77
5017.00,0.77
5016.00,0.77
5015.00,0.78
5014.00,0.78
5013.00,0.78
5012.00,0.78
5011.00,0.78
5010.00,0.78
5009.00,0.78
5008.00,0.78
5007.00,0.78
5006.00,0.78
5005.00,0.79
5004.00,0.79
5003.00,0.79
5002.00,0.79
5001.00,0.79
5000.00,0.79
4999.00,0.79
4998.00,0.79
4997.00,0.79
4996.00,0.79
4995.00,0.79
4994.00,0.79
4993.00,0.79
4992.00,0.79
4991.00,0.79
4990.00,0.79
4989.00,0.80
4988.00,0.80
4987.00,0.80
4986.00,0.80
4985.00,0.80
4984.00,0.80
4983.00,0.80
4982.00,0.80
4981.00,0.80
4980.00,0.80
4979.00,0.80
4978.00,0.80
4977.00,0.81
4976.00,0.81
4975.00,0.81
4974.00,0.81
4973.00,0.81
4972.00,0.81
4971.00,0.81
4970.00,0.81
4969.00,0.81
4968.00,0.81
4967.00,0.81
4966.00,0.82
4965.00,0.82
4964.00,0.82
4963.00,0.82
4962.00,0.82
4961.00,0.82
4960.00,0.82
4959.00,0.82
4958.00,0.82
4957.00,0.82
4956.00,0.82
4955.00,0.82
4954.00,0.82
4953.00,0.82
4952.00,0.82
4951.00,0.83
4950.00,0.83
4949.00,0.83
4948.00,0.83
4947.00,0.83
4946.00,0.83
4945.00,0.83
4944.00,0.83
4943.00,0.83
4942.00,0.83
4941.00,0.83
4940.00,0.83
4939.00,0.84
4938.00,0.84
4937.00,0.84
4936.00,0.84
4935.00,0.84
4934.00,0.84
4933.00,0.84
4932.00,0.84
4931.00,0.84
4930.00,0.84
4929.00,0.84
4928.00,0.84
4927.00,0.84
4926.00,0.84
4925.00,0.84
4924.00,0.84
4923.00,0.84
4922.00,0.85
4921.00,0.85
4920.00,0.85
4919.00,0.85
4918.00,0.85
4917.00,0.85
4916.00,0.85
4915.00,0.85
4914.00,0.85
4913.00,0.85
4912.00,0.85
4911.00,0.85
4910.00,0.86
4909.00,0.86
4908.00,0.86
4907.00,0.86
4906.00,0.86
4905.00,0.86
4904.00,0.86
4903.00,0.86
4902.00,0.86
4901.00,0.86
4900.00,0.86
4899.00,0.86
4898.00,0.86
4897.00,0.86
4896.00,0.86
4895.00,0.86
4894.00,0.86
4893.00,0.86
4892.00,0.86
4891.00,0.86
4890.00,0.86
4889.00,0.86
4888.00,0.86
4887.00,0.86
4886.00,0.86
4885.00,0.86
4884.00,0.86
4883.00,0.87
4882.00,0.87
4881.00,0.87
4880.00,0.87
4879.00,0.87
4878.00,0.87
4877.00,0.87
4876.00,0.87
4875.00,0.87
4874.00,0.87
4873.00,0.88
4872.00,0.88
4871.00,0.88
4870.00,0.88
4869.00,0.88
4868.00,0.88
4867.00,0.88
4866.00,0.88
4865.00,0.89
4864.00,0.89
4863.00,0.89
4862.00,0.89
4861.00,0.89
4860.00,0.89
4859.00,0.89
4858.00,0.89
4857.00,0.89
4856.00,0.89
4855.00,0.90
4854.00,0.90
4853.00,0.90
4852.00,0.90
4851.00,0.90
4850.00,0.90
4849.00,0.90
4848.00,0.90
4847.00,0.90
4846.00,0.90
4845.00,0.90
4844.00,0.90
4843.00,0.90
4842.00,0.91
4841.00,0.91
4840.00,0.91
4839.00,0.91
4838.00,0.91
4837.00,0.91
4836.00,0.91
4835.00,0.91
4834.00,0.91
4833.00,0.91
4832.00,0.91
4831.00,0.91
4830.00,0.91
4829.00,0.91
4828.00,0.91
4827.00,0.91
4826.00,0.91
4825.00,0.91
4824.00,0.91
4823.00,0.91
4822.00,0.91
4821.00,0.91
4820.00,0.91
4819.00,0.91
4818.00,0.91
4817.00,0.91
4816.00,0.91
4815.00,0.92
4814.00,0.92
4813.00,0.92
4812.00,0.92
4811.00,0.92
4810.00,0.92
4809.00,0.92
4808.00,0.92
4807.00,0.92
4806.00,0.92
4805.00,0.93
4804.00,0.93
4803.00,0.93
4802.00,0.93
4801.00,0.93
4800.00,0.93
4799.00,0.93
4798.00,0.93
4797.00,0.93
4796.00,0.93
4795.00,0.93
4794.00,0.93
4793.00,0.94
4792.00,0.94
4791.00,0.94
4790.00,0.94
4789.00,0.94
4788.00,0.94
4787.00,0.94
4786.00,0.94
4785.00,0.95
4784.00,0.95
4783.00,0.95
4782.00,0.95
4781.00,0.95
4780.00,0.95
4779.00,0.96
4778.00,0.96
4777.00,0.96
4776.00,0.96
4775.00,0.96
4774.00,0.96
4773.00,0.96
4772.00,0.96
4771.00,0.97
4770.00,0.97
4769.00,0.97
4768.00,0.97
4767.00,0.97
4766.00,0.97
4765.00,0.97
4764.00,0.97
4763.00,0.97
4762.00,0.97
4761.00,0.97
4760.00,0.98
4759.00,0.98
4758.00,0.98
4757.00,0.98
4756.00,0.98
4755.00,0.98
4754.00,0.98
4753.00,0.98
4752.00,0.99
4751.00,0.99
4750.00,0.99
4749.00,0.99
4748.00,0.99
4747.00,1.00
4746.00,1.00
4745.00,1.00
4744.00,1.00
4743.00,1.00
4742.00,1.01
4741.00,1.01
4740.00,1.01
4739.00,1.01
4738.00,1.01
4737.00,1.01
4736.00,1.01
4735.00,1.02
4734.00,1.02
4733.00,1.02
4732.00,1.02
4731.00,1.02
4730.00,1.02
4729.00,1.02
4728.00,1.03
4727.00,1.03
4726.00,1.03
4725.00,1.03
4724.00,1.03
4723.00,1.04
4722.00,1.04
4721.00,1.04
4720.00,1.04
4719.00,1.04
4718.00,1.04
4717.00,1.04
4716.00,1.05
4715.00,1.05
4714.00,1.05
4713.00,1.05
4712.00,1.05
4711.00,1.05
4710.00,1.05
4709.00,1.06
4708.00,1.06
4707.00,1.06
4706.00,1.06
4705.00,1.07
4704.00,1.07
4703.00,1.07
4702.00,1.07
4701.00,1.08
4700.00,1.08
4699.00,1.08
4698.00,1.08
4697.00,1.09
4696.00,1.09
4695.00,1.09
4694.00,1.09
4693.00,1.09
4692.00,1.10
4691.00,1.10
4690.00,1.10
4689.00,1.10
4688.00,1.10
4687.00,1.10
4686.00,1.10
4685.00,1.11
4684.00,1.11
4683.00,1.11
4682.00,1.11
4681.00,1.11
4680.00,1.11
4679.00,1.11
4678.00,1.11
4677.00,1.12
4676.00,1.12
4675.00,1.12
4674.00,1.12
4673.00,1.12
4672.00,1.12
4671.00,1.12
4670.00,1.12
4669.00,1.12
4668.00,1.12
4667.00,1.13
4666.00,1.13
4665.00,1.13
4664.00,1.13
4663.00,1.13
4662.00,1.13
4661.00,1.13
4660.00,1.13
4659.00,1.13
4658.00,1.14
4657.00,1.14
4656.00,1.14
4655.00,1.14
4654.00,1.14
4653.00,1.14
4652.00,1.14
4651.00,1.14
4650.00,1.15
4649.00,1.15
4648.00,1.15
4647.00,1.15
4646.00,1.15
4645.00,1.15
4644.00,1.15
4643.00,1.16
4642.00,1.16
4641.00,1.16
4640.00,1.16
4639.00,1.16
4638.00,1.16
4637.00,1.16
4636.00,1.17
4635.00,1.17
4634.00,1.17
4633.00,1.17
4632.00,1.17
4631.00,1.17
4630.00,1.17
4629.00,1.18
4628.00,1.18
4627.00,1.18
4626.00,1.18
4625.00,1.18
4624.00,1.18
4623.00,1.18
4622.00,1.18
4621.00,1.18
4620.00,1.18
4619.00,1.19
4618.00,1.19
4617.00,1.19
4616.00,1.19
4615.00,1.19
4614.00,1.19
4613.00,1.19
4612.00,1.19
4611.00,1.19
4610.00,1.19
4609.00,1.19
4608.00,1.19
4607.00,1.20
4606.00,1.20
4605.00,1.20
4604.00,1.20
4603.00,1.20
4602.00,1.20
4601.00,1.20
4600.00,1.20
4599.00,1.20
4598.00,1.20
4597.00,1.20
4596.00,1.20
4595.00,1.20
4594.00,1.21
4593.00,1.21
4592.00,1.21
4591.00,1.21
4590.00,1.21
4589.00,1.21
4588.00,1.21
4587.00,1.21
4586.00,1.21
4585.00,1.21
4584.00,1.22
4583.00,1.22
4582.00,1.22
4581.00,1.22
4580.00,1.22
4579.00,1.22
4578.00,1.22
4577.00,1.22
4576.00,1.22
4575.00,1.23
4574.00,1.23
4573.00,1.23
4572.00,1.23
4571.00,1.23
4570.00,1.23
4569.00,1.24
4568.00,1.24
4567.00,1.24
4566.00,1.24
4565.00,1.24
4564.00,1.24
4563.00,1.24
4562.00,1.25
4561.00,1.25
4560.00,1.25
4559.00,1.25
4558.00,1.25
4557.00,1.25
4556.00,1.25
4555.00,1.25
4554.00,1.25
4553.00,1.25
4552.00,1.25
4551.00,1.25
4550.00,1.25
4549.00,1.25
4548.00,1.25
4547.00,1.26
4546.00,1.26
4545.00,1.26
4544.00,1.26
4543.00,1.26
4542.00,1.26
4541.00,1.26
4540.00,1.27
4539.00,1.27
4538.00,1.27
4537.00,1.27
4536.00,1.27
4535.00,1.27
4534.00,1.28
4533.00,1.28
4532.00,1.28
4531.00,1.28
4530.00,1.28
4529.00,1.28
4528.00,1.28
4527.00,1.28
4526.00,1.28
4525.00,1.28
4524.00,1.28
4523.00,1.28
4522.00,1.28
4521.00,1.28
4520.00,1.28
4519.00,1.28
4518.00,1.28
4517.00,1.28
4516.00,1.28
4515.00,1.28
4514.00,1.27
4513.00,1.27
4512.00,1.27
4511.00,1.27
4510.00,1.27
4509.00,1.27
4508.00,1.27
4507.00,1.27
4506.00,1.27
4505.00,1.27
4504.00,1.27
4503.00,1.27
4502.00,1.27
4501.00,1.27
4500.00,1.27
4499.00,1.27
4498.00,1.27
4497.00,1.27
4496.00,1.27
4495.00,1.27
4494.00,1.27
4493.00,1.27
4492.00,1.27
4491.00,1.27
4490.00,1.27
4489.00,1.27
4488.00,1.27
4487.00,1.26
4486.00,1.26
4485.00,1.26
4484.00,1.26
4483.00,1.26
4482.00,1.26
4481.00,1.26
4480.00,1.26
4479.00,1.25
4478.00,1.25
4477.00,1.25
4476.00,1.25
4475.00,1.24
4474.00,1.24
4473.00,1.24
4472.00,1.24
4471.00,1.23
4470.00,1.23
4469.00,1.23
4468.00,1.23
4467.00,1.22
4466.00,1.22
4465.00,1.22
4464.00,1.22
4463.00,1.21
4462.00,1.21
4461.00,1.21
4460.00,1.20
4459.00,1.20
4458.00,1.20
4457.00,1.19
4456.00,1.19
4455.00,1.19
4454.00,1.19
4453.00,1.18
4452.00,1.18
4451.00,1.18
4450.00,1.17
4449.00,1.17
4448.00,1.16
4447.00,1.16
4446.00,1.16
4445.00,1.15
4444.00,1.15
4443.00,1.15
4442.00,1.14
4441.00,1.14
4440.00,1.14
4439.00,1.13
4438.00,1.13
4437.00,1.13
4436.00,1.12
4435.00,1.12
4434.00,1.12
4433.00,1.11
4432.00,1.11
4431.00,1.10
4430.00,1.10
4429.00,1.10
4428.00,1.09
4427.00,1.09
4426.00,1.09
4425.00,1.08
4424.00,1.08
4423.00,1.08
4422.00,1.08
4421.00,1.08
4420.00,1.07
4419.00,1.07
4418.00,1.07
4417.00,1.07
4416.00,1.07
4415.00,1.07
4414.00,1.07
4413.00,1.07
4412.00,1.07
4411.00,1.07
4410.00,1.07
4409.00,1.07
4408.00,1.07
4407.00,1.07
4406.00,1.07
4405.00,1.07
4404.00,1.07
4403.00,1.07
4402.00,1.07
4401.00,1.07
4400.00,1.07
4399.00,1.08
4398.00,1.08
4397.00,1.08
4396.00,1.08
4395.00,1.08
4394.00,1.08
4393.00,1.08
4392.00,1.09
4391.00,1.09
4390.00,1.09
4389.00,1.09
4388.00,1.09
4387.00,1.10
4386.00,1.10
4385.00,1.10
4384.00,1.10
4383.00,1.10
4382.00,1.11
4381.00,1.11
4380.00,1.11
4379.00,1.11
4378.00,1.11
4377.00,1.11
4376.00,1.12
4375.00,1.12
4374.00,1.12
4373.00,1.12
4372.00,1.12
4371.00,1.12
4370.00,1.12
4369.00,1.12
4368.00,1.12
4367.00,1.12
4366.00,1.12
4365.00,1.12
4364.00,1.12
4363.00,1.12
4362.00,1.12
4361.00,1.12
4360.00,1.12
4359.00,1.12
4358.00,1.12
4357.00,1.12
4356.00,1.12
4355.00,1.12
4354.00,1.12
4353.00,1.12
4352.00,1.12
4351.00,1.12
4350.00,1.12
4349.00,1.12
4348.00,1.12
4347.00,1.12
4346.00,1.12
4345.00,1.12
4344.00,1.12
4343.00,1.12
4342.00,1.12
4341.00,1.12
4340.00,1.12
4339.00,1.12
4338.00,1.12
4337.00,1.12
4336.00,1.12
4335.00,1.12
4334.00,1.12
4333.00,1.12
4332.00,1.12
4331.00,1.12
4330.00,1.12
4329.00,1.12
4328.00,1.12
4327.00,1.12
4326.00,1.13
4325.00,1.13
4324.00,1.13
4323.00,1.13
4322.00,1.13
4321.00,1.14
4320.00,1.14
4319.00,1.14
4318.00,1.14
4317.00,1.14
4316.00,1.15
4315.00,1.15
4314.00,1.15
4313.00,1.15
4312.00,1.16
4311.00,1.16
4310.00,1.16
4309.00,1.16
4308.00,1.16
4307.00,1.16
4306.00,1.17
4305.00,1.17
4304.00,1.17
4303.00,1.17
4302.00,1.17
4301.00,1.17
4300.00,1.18
4299.00,1.18
4298.00,1.18
4297.00,1.18
4296.00,1.18
4295.00,1.18
4294.00,1.18
4293.00,1.18
4292.00,1.18
4291.00,1.19
4290.00,1.19
4289.00,1.19
4288.00,1.19
4287.00,1.19
4286.00,1.19
4285.00,1.19
4284.00,1.19
4283.00,1.19
4282.00,1.19
4281.00,1.20
4280.00,1.20
4279.00,1.20
4278.00,1.20
4277.00,1.20
4276.00,1.20
4275.00,1.20
4274.00,1.20
4273.00,1.20
4272.00,1.20
4271.00,1.20
4270.00,1.20
4269.00,1.20
4268.00,1.20
4267.00,1.20
4266.00,1.20
4265.00,1.20
4264.00,1.19
4263.00,1.19
4262.00,1.19
4261.00,1.19
4260.00,1.19
4259.00,1.19
4258.00,1.19
4257.00,1.19
4256.00,1.19
4255.00,1.19
4254.00,1.19
4253.00,1.19
4252.00,1.19
4251.00,1.19
4250.00,1.19
4249.00,1.19
4248.00,1.19
4247.00,1.19
4246.00,1.19
4245.00,1.19
4244.00,1.20
4243.00,1.20
4242.00,1.20
4241.00,1.20
4240.00,1.20
4239.00,1.21
4238.00,1.21
4237.00,1.21
4236.00,1.21
4235.00,1.21
4234.00,1.22
4233.00,1.22
4232.00,1.22
4231.00,1.22
4230.00,1.22
4229.00,1.22
4228.00,1.22
4227.00,1.22
4226.00,1.22
4225.00,1.22
4224.00,1.23
4223.00,1.23
4222.00,1.23
4221.00,1.23
4220.00,1.23
4219.00,1.23
4218.00,1.23
4217.00,1.23
4216.00,1.24
4215.00,1.24
4214.00,1.24
4213.00,1.24
4212.00,1.24
4211.00,1.25
4210.00,1.25
4209.00,1.25
4208.00,1.25
4207.00,1.25
4206.00,1.26
4205.00,1.26
4204.00,1.26
4203.00,1.26
4202.00,1.26
4201.00,1.26
4200.00,1.26
4199.00,1.26
4198.00,1.26
4197.00,1.26
4196.00,1.26
4195.00,1.26
4194.00,1.26
4193.00,1.26
4192.00,1.26
4191.00,1.25
4190.00,1.25
4189.00,1.25
4188.00,1.25
4187.00,1.25
4186.00,1.25
4185.00,1.25
4184.00,1.25
4183.00,1.25
4182.00,1.25
4181.00,1.25
4180.00,1.25
4179.00,1.25
4178.00,1.25
4177.00,1.25
4176.00,1.25
4175.00,1.25
4174.00,1.26
4173.00,1.26
4172.00,1.26
4171.00,1.26
4170.00,1.26
4169.00,1.26
4168.00,1.26
4167.00,1.26
4166.00,1.26
4165.00,1.25
4164.00,1.25
4163.00,1.25
4162.00,1.25
4161.00,1.25
4160.00,1.25
4159.00,1.25
4158.00,1.25
4157.00,1.25
4156.00,1.25
4155.00,1.25
4154.00,1.25
4153.00,1.25
4152.00,1.25
4151.00,1.25
4150.00,1.25
4149.00,1.26
4148.00,1.26
4147.00,1.26
4146.00,1.26
4145.00,1.26
4144.00,1.26
4143.00,1.26
4142.00,1.26
4141.00,1.27
4140.00,1.27
4139.00,1.27
4138.00,1.27
4137.00,1.27
4136.00,1.27
4135.00,1.27
4134.00,1.27
4133.00,1.27
4132.00,1.27
4131.00,1.27
4130.00,1.27
4129.00,1.27
4128.00,1.27
4127.00,1.27
4126.00,1.27
4125.00,1.27
4124.00,1.26
4123.00,1.26
4122.00,1.26
4121.00,1.26
4120.00,1.26
4119.00,1.26
4118.00,1.26
4117.00,1.25
4116.00,1.25
4115.00,1.25
4114.00,1.25
4113.00,1.25
4112.00,1.25
4111.00,1.25
4110.00,1.25
4109.00,1.25
4108.00,1.25
4107.00,1.25
4106.00,1.25
4105.00,1.26
4104.00,1.26
4103.00,1.26
4102.00,1.26
4101.00,1.26
4100.00,1.27
4099.00,1.27
4098.00,1.27
4097.00,1.27
4096.00,1.28
4095.00,1.28
4094.00,1.28
4093.00,1.28
4092.00,1.28
4091.00,1.29
4090.00,1.29
4089.00,1.29
4088.00,1.29
4087.00,1.29
4086.00,1.30
4085.00,1.30
4084.00,1.30
4083.00,1.30
4082.00,1.30
4081.00,1.30
4080.00,1.30
4079.00,1.31
4078.00,1.31
4077.00,1.31
4076.00,1.31
4075.00,1.31
4074.00,1.31
4073.00,1.31
4072.00,1.31
4071.00,1.31
4070.00,1.31
4069.00,1.31
4068.00,1.31
4067.00,1.31
4066.00,1.32
4065.00,1.32
4064.00,1.32
4063.00,1.32
4062.00,1.32
4061.00,1.32
4060.00,1.32
4059.00,1.32
4058.00,1.33
4057.00,1.33
4056.00,1.33
4055.00,1.33
4054.00,1.33
4053.00,1.33
4052.00,1.33
4051.00,1.33
4050.00,1.33
4049.00,1.34
4048.00,1.33
4047.00,1.33
4046.00,1.33
4045.00,1.33
4044.00,1.33
4043.00,1.33
4042.00,1.33
4041.00,1.33
4040.00,1.33
4039.00,1.33
4038.00,1.33
4037.00,1.33
4036.00,1.33
4035.00,1.33
4034.00,1.33
4033.00,1.33
4032.00,1.33
4031.00,1.33
4030.00,1.33
4029.00,1.33
4028.00,1.33
4027.00,1.33
4026.00,1.34
4025.00,1.34
4024.00,1.34
4023.00,1.34
4022.00,1.34
4021.00,1.35
4020.00,1.35
4019.00,1.35
4018.00,1.35
4017.00,1.35
4016.00,1.35
4015.00,1.35
4014.00,1.35
4013.00,1.35
4012.00,1.35
4011.00,1.35
4010.00,1.35
4009.00,1.35
4008.00,1.35
4007.00,1.35
4006.00,1.35
4005.00,1.35
4004.00,1.35
4003.00,1.35
4002.00,1.35
4001.00,1.35
4000.00,1.36
