创建为新数据集,样品 049 用户 Administrator 日期 星期三, 十一月 01 2017
cm-1,%T
10000.00,1.38
9999.00,1.38
9998.00,1.38
9997.00,1.37
9996.00,1.37
9995.00,1.37
9994.00,1.37
9993.00,1.37
9992.00,1.37
9991.00,1.37
9990.00,1.37
9989.00,1.37
9988.00,1.37
9987.00,1.37
9986.00,1.37
9985.00,1.37
9984.00,1.37
9983.00,1.38
9982.00,1.38
9981.00,1.38
9980.00,1.38
9979.00,1.38
9978.00,1.38
9977.00,1.38
9976.00,1.37
9975.00,1.37
9974.00,1.37
9973.00,1.37
9972.00,1.37
9971.00,1.37
9970.00,1.36
9969.00,1.36
9968.00,1.36
9967.00,1.36
9966.00,1.36
9965.00,1.36
9964.00,1.36
9963.00,1.36
9962.00,1.36
9961.00,1.36
9960.00,1.36
9959.00,1.36
9958.00,1.36
9957.00,1.36
9956.00,1.36
9955.00,1.36
9954.00,1.37
9953.00,1.37
9952.00,1.37
9951.00,1.37
9950.00,1.37
9949.00,1.37
9948.00,1.37
9947.00,1.38
9946.00,1.38
9945.00,1.38
9944.00,1.37
9943.00,1.37
9942.00,1.37
9941.00,1.37
9940.00,1.37
9939.00,1.37
9938.00,1.37
9937.00,1.36
9936.00,1.36
9935.00,1.36
9934.00,1.36
9933.00,1.35
9932.00,1.35
9931.00,1.35
9930.00,1.35
9929.00,1.35
9928.00,1.35
9927.00,1.35
9926.00,1.35
9925.00,1.35
9924.00,1.35
9923.00,1.35
9922.00,1.35
9921.00,1.35
9920.00,1.35
9919.00,1.35
9918.00,1.36
9917.00,1.36
9916.00,1.36
9915.00,1.36
9914.00,1.36
9913.00,1.37
9912.00,1.37
9911.00,1.37
9910.00,1.37
9909.00,1.37
9908.00,1.37
9907.00,1.37
9906.00,1.38
9905.00,1.38
9904.00,1.38
9903.00,1.38
9902.00,1.38
9901.00,1.38
9900.00,1.38
9899.00,1.38
9898.00,1.38
9897.00,1.38
9896.00,1.37
9895.00,1.37
9894.00,1.37
9893.00,1.37
9892.00,1.37
9891.00,1.37
9890.00,1.37
9889.00,1.37
9888.00,1.37
9887.00,1.37
9886.00,1.37
9885.00,1.37
9884.00,1.37
9883.00,1.37
9882.00,1.37
9881.00,1.37
9880.00,1.37
9879.00,1.37
9878.00,1.37
9877.00,1.37
9876.00,1.37
9875.00,1.37
9874.00,1.37
9873.00,1.37
9872.00,1.37
9871.00,1.37
9870.00,1.37
9869.00,1.37
9868.00,1.36
9867.00,1.36
9866.00,1.36
9865.00,1.36
9864.00,1.36
9863.00,1.35
9862.00,1.35
9861.00,1.35
9860.00,1.35
9859.00,1.35
9858.00,1.35
9857.00,1.34
9856.00,1.34
9855.00,1.34
9854.00,1.34
9853.00,1.34
9852.00,1.34
9851.00,1.34
9850.00,1.34
9849.00,1.34
9848.00,1.34
9847.00,1.34
9846.00,1.34
9845.00,1.34
9844.00,1.34
9843.00,1.34
9842.00,1.34
9841.00,1.35
9840.00,1.35
9839.00,1.35
9838.00,1.35
9837.00,1.35
9836.00,1.35
9835.00,1.35
9834.00,1.35
9833.00,1.35
9832.00,1.35
9831.00,1.35
9830.00,1.35
9829.00,1.35
9828.00,1.35
9827.00,1.35
9826.00,1.35
9825.00,1.35
9824.00,1.35
9823.00,1.35
9822.00,1.35
9821.00,1.35
9820.00,1.35
9819.00,1.35
9818.00,1.35
9817.00,1.36
9816.00,1.36
9815.00,1.36
9814.00,1.36
9813.00,1.36
9812.00,1.36
9811.00,1.36
9810.00,1.36
9809.00,1.36
9808.00,1.36
9807.00,1.36
9806.00,1.36
9805.00,1.36
9804.00,1.36
9803.00,1.36
9802.00,1.36
9801.00,1.36
9800.00,1.36
9799.00,1.36
9798.00,1.35
9797.00,1.35
9796.00,1.35
9795.00,1.35
9794.00,1.35
9793.00,1.35
9792.00,1.35
9791.00,1.35
9790.00,1.36
9789.00,1.36
9788.00,1.36
9787.00,1.36
9786.00,1.36
9785.00,1.36
9784.00,1.36
9783.00,1.36
9782.00,1.36
9781.00,1.36
9780.00,1.36
9779.00,1.36
9778.00,1.36
9777.00,1.36
9776.00,1.36
9775.00,1.36
9774.00,1.36
9773.00,1.36
9772.00,1.36
9771.00,1.36
9770.00,1.36
9769.00,1.36
9768.00,1.36
9767.00,1.36
9766.00,1.36
9765.00,1.36
9764.00,1.37
9763.00,1.37
9762.00,1.37
9761.00,1.37
9760.00,1.37
9759.00,1.37
9758.00,1.37
9757.00,1.37
9756.00,1.37
9755.00,1.37
9754.00,1.37
9753.00,1.37
9752.00,1.37
9751.00,1.37
9750.00,1.37
9749.00,1.37
9748.00,1.37
9747.00,1.37
9746.00,1.37
9745.00,1.37
9744.00,1.37
9743.00,1.37
9742.00,1.37
9741.00,1.37
9740.00,1.37
9739.00,1.37
9738.00,1.37
9737.00,1.37
9736.00,1.37
9735.00,1.37
9734.00,1.37
9733.00,1.37
9732.00,1.37
9731.00,1.37
9730.00,1.37
9729.00,1.37
9728.00,1.37
9727.00,1.37
9726.00,1.37
9725.00,1.37
9724.00,1.37
9723.00,1.37
9722.00,1.37
9721.00,1.37
9720.00,1.37
9719.00,1.37
9718.00,1.37
9717.00,1.37
9716.00,1.37
9715.00,1.37
9714.00,1.37
9713.00,1.37
9712.00,1.37
9711.00,1.37
9710.00,1.37
9709.00,1.36
9708.00,1.36
9707.00,1.36
9706.00,1.36
9705.00,1.36
9704.00,1.36
9703.00,1.35
9702.00,1.35
9701.00,1.35
9700.00,1.35
9699.00,1.35
9698.00,1.35
9697.00,1.35
9696.00,1.35
9695.00,1.35
9694.00,1.35
9693.00,1.35
9692.00,1.35
9691.00,1.35
9690.00,1.35
9689.00,1.36
9688.00,1.36
9687.00,1.36
9686.00,1.36
9685.00,1.36
9684.00,1.36
9683.00,1.36
9682.00,1.36
9681.00,1.36
9680.00,1.37
9679.00,1.37
9678.00,1.37
9677.00,1.37
9676.00,1.37
9675.00,1.37
9674.00,1.37
9673.00,1.37
9672.00,1.37
9671.00,1.37
9670.00,1.37
9669.00,1.37
9668.00,1.37
9667.00,1.37
9666.00,1.37
9665.00,1.37
9664.00,1.36
9663.00,1.36
9662.00,1.36
9661.00,1.36
9660.00,1.36
9659.00,1.36
9658.00,1.35
9657.00,1.35
9656.00,1.35
9655.00,1.35
9654.00,1.35
9653.00,1.35
9652.00,1.35
9651.00,1.35
9650.00,1.35
9649.00,1.35
9648.00,1.35
9647.00,1.35
9646.00,1.35
9645.00,1.35
9644.00,1.36
9643.00,1.36
9642.00,1.36
9641.00,1.36
9640.00,1.36
9639.00,1.36
9638.00,1.36
9637.00,1.37
9636.00,1.37
9635.00,1.37
9634.00,1.37
9633.00,1.37
9632.00,1.37
9631.00,1.37
9630.00,1.37
9629.00,1.36
9628.00,1.36
9627.00,1.36
9626.00,1.36
9625.00,1.36
9624.00,1.36
9623.00,1.36
9622.00,1.36
9621.00,1.36
9620.00,1.36
9619.00,1.36
9618.00,1.36
9617.00,1.36
9616.00,1.36
9615.00,1.36
9614.00,1.36
9613.00,1.36
9612.00,1.36
9611.00,1.36
9610.00,1.36
9609.00,1.36
9608.00,1.36
9607.00,1.36
9606.00,1.36
9605.00,1.36
9604.00,1.36
9603.00,1.36
9602.00,1.36
9601.00,1.36
9600.00,1.36
9599.00,1.36
9598.00,1.36
9597.00,1.36
9596.00,1.36
9595.00,1.36
9594.00,1.36
9593.00,1.36
9592.00,1.36
9591.00,1.36
9590.00,1.36
9589.00,1.36
9588.00,1.36
9587.00,1.36
9586.00,1.36
9585.00,1.36
9584.00,1.36
9583.00,1.36
9582.00,1.36
9581.00,1.36
9580.00,1.36
9579.00,1.36
9578.00,1.36
9577.00,1.36
9576.00,1.36
9575.00,1.36
9574.00,1.36
9573.00,1.36
9572.00,1.36
9571.00,1.36
9570.00,1.36
9569.00,1.36
9568.00,1.36
9567.00,1.36
9566.00,1.36
9565.00,1.36
9564.00,1.36
9563.00,1.36
9562.00,1.36
9561.00,1.36
9560.00,1.36
9559.00,1.36
9558.00,1.36
9557.00,1.36
9556.00,1.35
9555.00,1.35
9554.00,1.35
9553.00,1.35
9552.00,1.35
9551.00,1.35
9550.00,1.35
9549.00,1.35
9548.00,1.34
9547.00,1.34
9546.00,1.34
9545.00,1.34
9544.00,1.34
9543.00,1.34
9542.00,1.34
9541.00,1.34
9540.00,1.34
9539.00,1.34
9538.00,1.35
9537.00,1.35
9536.00,1.35
9535.00,1.35
9534.00,1.35
9533.00,1.35
9532.00,1.35
9531.00,1.35
9530.00,1.35
9529.00,1.35
9528.00,1.35
9527.00,1.35
9526.00,1.35
9525.00,1.35
9524.00,1.35
9523.00,1.35
9522.00,1.36
9521.00,1.36
9520.00,1.36
9519.00,1.36
9518.00,1.36
9517.00,1.36
9516.00,1.36
9515.00,1.36
9514.00,1.36
9513.00,1.36
9512.00,1.36
9511.00,1.36
9510.00,1.35
9509.00,1.35
9508.00,1.35
9507.00,1.35
9506.00,1.35
9505.00,1.35
9504.00,1.35
9503.00,1.35
9502.00,1.35
9501.00,1.35
9500.00,1.35
9499.00,1.35
9498.00,1.35
9497.00,1.36
9496.00,1.36
9495.00,1.36
9494.00,1.36
9493.00,1.36
9492.00,1.36
9491.00,1.36
9490.00,1.37
9489.00,1.37
9488.00,1.37
9487.00,1.37
9486.00,1.37
9485.00,1.37
9484.00,1.37
9483.00,1.38
9482.00,1.38
9481.00,1.38
9480.00,1.38
9479.00,1.38
9478.00,1.38
9477.00,1.38
9476.00,1.37
9475.00,1.37
9474.00,1.37
9473.00,1.37
9472.00,1.37
9471.00,1.37
9470.00,1.37
9469.00,1.37
9468.00,1.37
9467.00,1.37
9466.00,1.37
9465.00,1.37
9464.00,1.37
9463.00,1.37
9462.00,1.37
9461.00,1.37
9460.00,1.37
9459.00,1.37
9458.00,1.37
9457.00,1.37
9456.00,1.37
9455.00,1.37
9454.00,1.37
9453.00,1.37
9452.00,1.37
9451.00,1.37
9450.00,1.37
9449.00,1.37
9448.00,1.37
9447.00,1.37
9446.00,1.37
9445.00,1.37
9444.00,1.37
9443.00,1.37
9442.00,1.37
9441.00,1.37
9440.00,1.37
9439.00,1.37
9438.00,1.37
9437.00,1.37
9436.00,1.37
9435.00,1.37
9434.00,1.37
9433.00,1.37
9432.00,1.37
9431.00,1.37
9430.00,1.37
9429.00,1.37
9428.00,1.37
9427.00,1.37
9426.00,1.37
9425.00,1.37
9424.00,1.37
9423.00,1.37
9422.00,1.37
9421.00,1.37
9420.00,1.37
9419.00,1.37
9418.00,1.37
9417.00,1.37
9416.00,1.37
9415.00,1.37
9414.00,1.37
9413.00,1.37
9412.00,1.37
9411.00,1.37
9410.00,1.37
9409.00,1.37
9408.00,1.37
9407.00,1.37
9406.00,1.37
9405.00,1.37
9404.00,1.37
9403.00,1.37
9402.00,1.37
9401.00,1.37
9400.00,1.37
9399.00,1.37
9398.00,1.37
9397.00,1.37
9396.00,1.36
9395.00,1.36
9394.00,1.36
9393.00,1.36
9392.00,1.36
9391.00,1.36
9390.00,1.36
9389.00,1.35
9388.00,1.35
9387.00,1.35
9386.00,1.35
9385.00,1.35
9384.00,1.35
9383.00,1.35
9382.00,1.35
9381.00,1.35
9380.00,1.35
9379.00,1.34
9378.00,1.34
9377.00,1.34
9376.00,1.34
9375.00,1.34
9374.00,1.34
9373.00,1.34
9372.00,1.34
9371.00,1.34
9370.00,1.35
9369.00,1.35
9368.00,1.35
9367.00,1.35
9366.00,1.35
9365.00,1.35
9364.00,1.35
9363.00,1.35
9362.00,1.35
9361.00,1.35
9360.00,1.35
9359.00,1.35
9358.00,1.35
9357.00,1.36
9356.00,1.36
9355.00,1.36
9354.00,1.36
9353.00,1.36
9352.00,1.36
9351.00,1.36
9350.00,1.36
9349.00,1.36
9348.00,1.36
9347.00,1.36
9346.00,1.36
9345.00,1.36
9344.00,1.36
9343.00,1.36
9342.00,1.36
9341.00,1.36
9340.00,1.36
9339.00,1.36
9338.00,1.36
9337.00,1.36
9336.00,1.36
9335.00,1.36
9334.00,1.36
9333.00,1.36
9332.00,1.36
9331.00,1.36
9330.00,1.36
9329.00,1.36
9328.00,1.36
9327.00,1.36
9326.00,1.36
9325.00,1.36
9324.00,1.36
9323.00,1.36
9322.00,1.36
9321.00,1.36
9320.00,1.36
9319.00,1.36
9318.00,1.36
9317.00,1.36
9316.00,1.36
9315.00,1.36
9314.00,1.36
9313.00,1.36
9312.00,1.36
9311.00,1.36
9310.00,1.36
9309.00,1.36
9308.00,1.36
9307.00,1.36
9306.00,1.36
9305.00,1.36
9304.00,1.36
9303.00,1.36
9302.00,1.36
9301.00,1.35
9300.00,1.35
9299.00,1.35
9298.00,1.35
9297.00,1.35
9296.00,1.35
9295.00,1.35
9294.00,1.35
9293.00,1.35
9292.00,1.35
9291.00,1.35
9290.00,1.35
9289.00,1.35
9288.00,1.35
9287.00,1.35
9286.00,1.35
9285.00,1.35
9284.00,1.35
9283.00,1.35
9282.00,1.35
9281.00,1.35
9280.00,1.35
9279.00,1.35
9278.00,1.35
9277.00,1.35
9276.00,1.35
9275.00,1.35
9274.00,1.35
9273.00,1.35
9272.00,1.35
9271.00,1.35
9270.00,1.35
9269.00,1.36
9268.00,1.36
9267.00,1.36
9266.00,1.36
9265.00,1.36
9264.00,1.36
9263.00,1.36
9262.00,1.36
9261.00,1.36
9260.00,1.36
9259.00,1.36
9258.00,1.36
9257.00,1.36
9256.00,1.36
9255.00,1.36
9254.00,1.36
9253.00,1.36
9252.00,1.36
9251.00,1.36
9250.00,1.36
9249.00,1.36
9248.00,1.36
9247.00,1.37
9246.00,1.37
9245.00,1.37
9244.00,1.37
9243.00,1.36
9242.00,1.36
9241.00,1.36
9240.00,1.36
9239.00,1.36
9238.00,1.36
9237.00,1.36
9236.00,1.36
9235.00,1.35
9234.00,1.35
9233.00,1.35
9232.00,1.35
9231.00,1.35
9230.00,1.35
9229.00,1.35
9228.00,1.35
9227.00,1.35
9226.00,1.35
9225.00,1.35
9224.00,1.35
9223.00,1.35
9222.00,1.35
9221.00,1.35
9220.00,1.35
9219.00,1.36
9218.00,1.36
9217.00,1.36
9216.00,1.36
9215.00,1.36
9214.00,1.37
9213.00,1.37
9212.00,1.37
9211.00,1.37
9210.00,1.37
9209.00,1.37
9208.00,1.37
9207.00,1.37
9206.00,1.37
9205.00,1.37
9204.00,1.37
9203.00,1.37
9202.00,1.37
9201.00,1.37
9200.00,1.37
9199.00,1.37
9198.00,1.37
9197.00,1.37
9196.00,1.37
9195.00,1.38
9194.00,1.38
9193.00,1.38
9192.00,1.38
9191.00,1.38
9190.00,1.38
9189.00,1.38
9188.00,1.38
9187.00,1.38
9186.00,1.38
9185.00,1.38
9184.00,1.38
9183.00,1.38
9182.00,1.38
9181.00,1.38
9180.00,1.38
9179.00,1.37
9178.00,1.37
9177.00,1.37
9176.00,1.37
9175.00,1.37
9174.00,1.37
9173.00,1.37
9172.00,1.37
9171.00,1.37
9170.00,1.36
9169.00,1.36
9168.00,1.36
9167.00,1.36
9166.00,1.36
9165.00,1.36
9164.00,1.36
9163.00,1.36
9162.00,1.35
9161.00,1.35
9160.00,1.35
9159.00,1.35
9158.00,1.35
9157.00,1.35
9156.00,1.35
9155.00,1.35
9154.00,1.35
9153.00,1.35
9152.00,1.35
9151.00,1.35
9150.00,1.35
9149.00,1.35
9148.00,1.35
9147.00,1.35
9146.00,1.35
9145.00,1.35
9144.00,1.35
9143.00,1.35
9142.00,1.35
9141.00,1.35
9140.00,1.35
9139.00,1.35
9138.00,1.35
9137.00,1.35
9136.00,1.35
9135.00,1.35
9134.00,1.35
9133.00,1.35
9132.00,1.35
9131.00,1.35
9130.00,1.35
9129.00,1.36
9128.00,1.36
9127.00,1.36
9126.00,1.36
9125.00,1.36
9124.00,1.36
9123.00,1.36
9122.00,1.37
9121.00,1.37
9120.00,1.37
9119.00,1.37
9118.00,1.37
9117.00,1.37
9116.00,1.37
9115.00,1.37
9114.00,1.37
9113.00,1.37
9112.00,1.37
9111.00,1.37
9110.00,1.37
9109.00,1.37
9108.00,1.37
9107.00,1.37
9106.00,1.37
9105.00,1.37
9104.00,1.37
9103.00,1.37
9102.00,1.37
9101.00,1.37
9100.00,1.37
9099.00,1.37
9098.00,1.37
9097.00,1.37
9096.00,1.37
9095.00,1.37
9094.00,1.37
9093.00,1.37
9092.00,1.37
9091.00,1.37
9090.00,1.37
9089.00,1.37
9088.00,1.37
9087.00,1.37
9086.00,1.37
9085.00,1.36
9084.00,1.36
9083.00,1.36
9082.00,1.36
9081.00,1.36
9080.00,1.36
9079.00,1.36
9078.00,1.36
9077.00,1.36
9076.00,1.36
9075.00,1.36
9074.00,1.36
9073.00,1.36
9072.00,1.36
9071.00,1.36
9070.00,1.36
9069.00,1.36
9068.00,1.36
9067.00,1.36
9066.00,1.36
9065.00,1.36
9064.00,1.36
9063.00,1.36
9062.00,1.36
9061.00,1.36
9060.00,1.36
9059.00,1.36
9058.00,1.36
9057.00,1.37
9056.00,1.37
9055.00,1.37
9054.00,1.37
9053.00,1.37
9052.00,1.37
9051.00,1.37
9050.00,1.37
9049.00,1.37
9048.00,1.37
9047.00,1.37
9046.00,1.37
9045.00,1.37
9044.00,1.37
9043.00,1.37
9042.00,1.36
9041.00,1.36
9040.00,1.36
9039.00,1.36
9038.00,1.36
9037.00,1.36
9036.00,1.35
9035.00,1.35
9034.00,1.35
9033.00,1.35
9032.00,1.35
9031.00,1.35
9030.00,1.34
9029.00,1.34
9028.00,1.34
9027.00,1.34
9026.00,1.34
9025.00,1.35
9024.00,1.35
9023.00,1.35
9022.00,1.35
9021.00,1.35
9020.00,1.35
9019.00,1.36
9018.00,1.36
9017.00,1.36
9016.00,1.36
9015.00,1.37
9014.00,1.37
9013.00,1.37
9012.00,1.37
9011.00,1.37
9010.00,1.37
9009.00,1.37
9008.00,1.38
9007.00,1.37
9006.00,1.37
9005.00,1.37
9004.00,1.37
9003.00,1.37
9002.00,1.37
9001.00,1.37
9000.00,1.36
8999.00,1.36
8998.00,1.36
8997.00,1.36
8996.00,1.35
8995.00,1.35
8994.00,1.35
8993.00,1.35
8992.00,1.35
8991.00,1.34
8990.00,1.34
8989.00,1.34
8988.00,1.34
8987.00,1.34
8986.00,1.34
8985.00,1.34
8984.00,1.35
8983.00,1.35
8982.00,1.35
8981.00,1.35
8980.00,1.35
8979.00,1.35
8978.00,1.35
8977.00,1.36
8976.00,1.36
8975.00,1.36
8974.00,1.36
8973.00,1.36
8972.00,1.36
8971.00,1.36
8970.00,1.36
8969.00,1.36
8968.00,1.36
8967.00,1.36
8966.00,1.36
8965.00,1.36
8964.00,1.36
8963.00,1.36
8962.00,1.36
8961.00,1.36
8960.00,1.36
8959.00,1.36
8958.00,1.36
8957.00,1.36
8956.00,1.36
8955.00,1.36
8954.00,1.36
8953.00,1.36
8952.00,1.36
8951.00,1.36
8950.00,1.36
8949.00,1.36
8948.00,1.36
8947.00,1.36
8946.00,1.36
8945.00,1.36
8944.00,1.36
8943.00,1.36
8942.00,1.36
8941.00,1.36
8940.00,1.36
8939.00,1.36
8938.00,1.36
8937.00,1.36
8936.00,1.36
8935.00,1.36
8934.00,1.36
8933.00,1.36
8932.00,1.36
8931.00,1.36
8930.00,1.36
8929.00,1.36
8928.00,1.36
8927.00,1.36
8926.00,1.35
8925.00,1.35
8924.00,1.35
8923.00,1.35
8922.00,1.35
8921.00,1.35
8920.00,1.35
8919.00,1.35
8918.00,1.35
8917.00,1.35
8916.00,1.35
8915.00,1.35
8914.00,1.35
8913.00,1.35
8912.00,1.35
8911.00,1.35
8910.00,1.35
8909.00,1.36
8908.00,1.36
8907.00,1.36
8906.00,1.36
8905.00,1.36
8904.00,1.36
8903.00,1.36
8902.00,1.36
8901.00,1.36
8900.00,1.36
8899.00,1.36
8898.00,1.36
8897.00,1.36
8896.00,1.35
8895.00,1.35
8894.00,1.35
8893.00,1.35
8892.00,1.35
8891.00,1.35
8890.00,1.35
8889.00,1.34
8888.00,1.34
8887.00,1.34
8886.00,1.34
8885.00,1.34
8884.00,1.34
8883.00,1.34
8882.00,1.34
8881.00,1.34
8880.00,1.34
8879.00,1.34
8878.00,1.35
8877.00,1.35
8876.00,1.35
8875.00,1.35
8874.00,1.35
8873.00,1.35
8872.00,1.35
8871.00,1.35
8870.00,1.35
8869.00,1.35
8868.00,1.35
8867.00,1.35
8866.00,1.35
8865.00,1.35
8864.00,1.35
8863.00,1.35
8862.00,1.36
8861.00,1.36
8860.00,1.36
8859.00,1.36
8858.00,1.36
8857.00,1.36
8856.00,1.36
8855.00,1.36
8854.00,1.37
8853.00,1.37
8852.00,1.37
8851.00,1.37
8850.00,1.37
8849.00,1.37
8848.00,1.37
8847.00,1.36
8846.00,1.36
8845.00,1.36
8844.00,1.36
8843.00,1.36
8842.00,1.36
8841.00,1.35
8840.00,1.35
8839.00,1.35
8838.00,1.35
8837.00,1.35
8836.00,1.35
8835.00,1.34
8834.00,1.34
8833.00,1.34
8832.00,1.34
8831.00,1.34
8830.00,1.34
8829.00,1.34
8828.00,1.34
8827.00,1.34
8826.00,1.34
8825.00,1.34
8824.00,1.33
8823.00,1.33
8822.00,1.33
8821.00,1.34
8820.00,1.34
8819.00,1.34
8818.00,1.34
8817.00,1.34
8816.00,1.34
8815.00,1.34
8814.00,1.34
8813.00,1.34
8812.00,1.34
8811.00,1.34
8810.00,1.35
8809.00,1.35
8808.00,1.35
8807.00,1.35
8806.00,1.35
8805.00,1.35
8804.00,1.34
8803.00,1.34
8802.00,1.34
8801.00,1.34
8800.00,1.34
8799.00,1.33
8798.00,1.33
8797.00,1.33
8796.00,1.33
8795.00,1.33
8794.00,1.32
8793.00,1.32
8792.00,1.32
8791.00,1.32
8790.00,1.32
8789.00,1.32
8788.00,1.32
8787.00,1.32
8786.00,1.32
8785.00,1.32
8784.00,1.32
8783.00,1.32
8782.00,1.33
8781.00,1.33
8780.00,1.33
8779.00,1.33
8778.00,1.33
8777.00,1.33
8776.00,1.33
8775.00,1.33
8774.00,1.33
8773.00,1.33
8772.00,1.33
8771.00,1.33
8770.00,1.33
8769.00,1.33
8768.00,1.33
8767.00,1.33
8766.00,1.33
8765.00,1.32
8764.00,1.32
8763.00,1.32
8762.00,1.32
8761.00,1.32
8760.00,1.32
8759.00,1.32
8758.00,1.32
8757.00,1.32
8756.00,1.32
8755.00,1.32
8754.00,1.32
8753.00,1.32
8752.00,1.32
8751.00,1.32
8750.00,1.32
8749.00,1.32
8748.00,1.32
8747.00,1.32
8746.00,1.32
8745.00,1.32
8744.00,1.32
8743.00,1.32
8742.00,1.32
8741.00,1.32
8740.00,1.31
8739.00,1.31
8738.00,1.31
8737.00,1.31
8736.00,1.31
8735.00,1.31
8734.00,1.30
8733.00,1.30
8732.00,1.30
8731.00,1.30
8730.00,1.30
8729.00,1.30
8728.00,1.30
8727.00,1.30
8726.00,1.30
8725.00,1.30
8724.00,1.30
8723.00,1.30
8722.00,1.31
8721.00,1.31
8720.00,1.31
8719.00,1.31
8718.00,1.31
8717.00,1.31
8716.00,1.32
8715.00,1.32
8714.00,1.32
8713.00,1.32
8712.00,1.32
8711.00,1.32
8710.00,1.32
8709.00,1.31
8708.00,1.31
8707.00,1.31
8706.00,1.31
8705.00,1.31
8704.00,1.31
8703.00,1.30
8702.00,1.30
8701.00,1.30
8700.00,1.30
8699.00,1.30
8698.00,1.29
8697.00,1.29
8696.00,1.29
8695.00,1.29
8694.00,1.29
8693.00,1.29
8692.00,1.29
8691.00,1.29
8690.00,1.29
8689.00,1.29
8688.00,1.29
8687.00,1.29
8686.00,1.29
8685.00,1.29
8684.00,1.29
8683.00,1.29
8682.00,1.29
8681.00,1.29
8680.00,1.29
8679.00,1.29
8678.00,1.29
8677.00,1.29
8676.00,1.29
8675.00,1.29
8674.00,1.29
8673.00,1.29
8672.00,1.29
8671.00,1.29
8670.00,1.29
8669.00,1.30
8668.00,1.30
8667.00,1.30
8666.00,1.30
8665.00,1.30
8664.00,1.30
8663.00,1.30
8662.00,1.30
8661.00,1.30
8660.00,1.30
8659.00,1.30
8658.00,1.30
8657.00,1.30
8656.00,1.29
8655.00,1.29
8654.00,1.29
8653.00,1.29
8652.00,1.29
8651.00,1.29
8650.00,1.29
8649.00,1.29
8648.00,1.29
8647.00,1.29
8646.00,1.29
8645.00,1.29
8644.00,1.28
8643.00,1.28
8642.00,1.28
8641.00,1.28
8640.00,1.28
8639.00,1.28
8638.00,1.28
8637.00,1.27
8636.00,1.27
8635.00,1.27
8634.00,1.27
8633.00,1.27
8632.00,1.27
8631.00,1.27
8630.00,1.27
8629.00,1.27
8628.00,1.27
8627.00,1.27
8626.00,1.27
8625.00,1.28
8624.00,1.28
8623.00,1.28
8622.00,1.28
8621.00,1.28
8620.00,1.28
8619.00,1.28
8618.00,1.28
8617.00,1.28
8616.00,1.28
8615.00,1.28
8614.00,1.28
8613.00,1.28
8612.00,1.28
8611.00,1.28
8610.00,1.28
8609.00,1.28
8608.00,1.28
8607.00,1.28
8606.00,1.28
8605.00,1.27
8604.00,1.27
8603.00,1.27
8602.00,1.27
8601.00,1.27
8600.00,1.27
8599.00,1.26
8598.00,1.26
8597.00,1.26
8596.00,1.26
8595.00,1.26
8594.00,1.26
8593.00,1.26
8592.00,1.26
8591.00,1.26
8590.00,1.26
8589.00,1.26
8588.00,1.26
8587.00,1.26
8586.00,1.26
8585.00,1.26
8584.00,1.26
8583.00,1.26
8582.00,1.26
8581.00,1.26
8580.00,1.26
8579.00,1.26
8578.00,1.26
8577.00,1.26
8576.00,1.26
8575.00,1.26
8574.00,1.26
8573.00,1.26
8572.00,1.26
8571.00,1.26
8570.00,1.27
8569.00,1.27
8568.00,1.27
8567.00,1.27
8566.00,1.27
8565.00,1.27
8564.00,1.27
8563.00,1.27
8562.00,1.28
8561.00,1.28
8560.00,1.28
8559.00,1.28
8558.00,1.28
8557.00,1.28
8556.00,1.28
8555.00,1.28
8554.00,1.28
8553.00,1.28
8552.00,1.28
8551.00,1.27
8550.00,1.27
8549.00,1.27
8548.00,1.27
8547.00,1.27
8546.00,1.27
8545.00,1.26
8544.00,1.26
8543.00,1.26
8542.00,1.26
8541.00,1.26
8540.00,1.26
8539.00,1.25
8538.00,1.25
8537.00,1.25
8536.00,1.25
8535.00,1.25
8534.00,1.25
8533.00,1.24
8532.00,1.24
8531.00,1.24
8530.00,1.24
8529.00,1.24
8528.00,1.24
8527.00,1.24
8526.00,1.24
8525.00,1.24
8524.00,1.24
8523.00,1.23
8522.00,1.23
8521.00,1.23
8520.00,1.23
8519.00,1.23
8518.00,1.23
8517.00,1.23
8516.00,1.23
8515.00,1.24
8514.00,1.24
8513.00,1.24
8512.00,1.24
8511.00,1.24
8510.00,1.24
8509.00,1.24
8508.00,1.24
8507.00,1.24
8506.00,1.24
8505.00,1.24
8504.00,1.24
8503.00,1.24
8502.00,1.24
8501.00,1.24
8500.00,1.23
8499.00,1.23
8498.00,1.23
8497.00,1.23
8496.00,1.23
8495.00,1.23
8494.00,1.23
8493.00,1.23
8492.00,1.23
8491.00,1.23
8490.00,1.23
8489.00,1.23
8488.00,1.23
8487.00,1.23
8486.00,1.23
8485.00,1.23
8484.00,1.23
8483.00,1.23
8482.00,1.23
8481.00,1.23
8480.00,1.23
8479.00,1.23
8478.00,1.23
8477.00,1.22
8476.00,1.22
8475.00,1.22
8474.00,1.22
8473.00,1.22
8472.00,1.22
8471.00,1.22
8470.00,1.22
8469.00,1.21
8468.00,1.21
8467.00,1.21
8466.00,1.21
8465.00,1.21
8464.00,1.21
8463.00,1.21
8462.00,1.20
8461.00,1.20
8460.00,1.20
8459.00,1.20
8458.00,1.20
8457.00,1.20
8456.00,1.20
8455.00,1.20
8454.00,1.20
8453.00,1.20
8452.00,1.20
8451.00,1.20
8450.00,1.20
8449.00,1.20
8448.00,1.20
8447.00,1.19
8446.00,1.19
8445.00,1.19
8444.00,1.19
8443.00,1.19
8442.00,1.19
8441.00,1.19
8440.00,1.19
8439.00,1.19
8438.00,1.19
8437.00,1.19
8436.00,1.19
8435.00,1.19
8434.00,1.19
8433.00,1.19
8432.00,1.18
8431.00,1.18
8430.00,1.19
8429.00,1.19
8428.00,1.19
8427.00,1.19
8426.00,1.19
8425.00,1.19
8424.00,1.19
8423.00,1.19
8422.00,1.19
8421.00,1.19
8420.00,1.19
8419.00,1.19
8418.00,1.20
8417.00,1.20
8416.00,1.20
8415.00,1.20
8414.00,1.20
8413.00,1.21
8412.00,1.21
8411.00,1.21
8410.00,1.21
8409.00,1.21
8408.00,1.21
8407.00,1.21
8406.00,1.22
8405.00,1.22
8404.00,1.22
8403.00,1.22
8402.00,1.22
8401.00,1.22
8400.00,1.22
8399.00,1.22
8398.00,1.22
8397.00,1.22
8396.00,1.22
8395.00,1.23
8394.00,1.23
8393.00,1.23
8392.00,1.23
8391.00,1.23
8390.00,1.23
8389.00,1.23
8388.00,1.23
8387.00,1.23
8386.00,1.23
8385.00,1.23
8384.00,1.23
8383.00,1.24
8382.00,1.24
8381.00,1.24
8380.00,1.24
8379.00,1.24
8378.00,1.24
8377.00,1.24
8376.00,1.24
8375.00,1.24
8374.00,1.24
8373.00,1.24
8372.00,1.25
8371.00,1.25
8370.00,1.25
8369.00,1.25
8368.00,1.25
8367.00,1.25
8366.00,1.25
8365.00,1.25
8364.00,1.25
8363.00,1.24
8362.00,1.24
8361.00,1.24
8360.00,1.24
8359.00,1.24
8358.00,1.24
8357.00,1.24
8356.00,1.24
8355.00,1.24
8354.00,1.24
8353.00,1.24
8352.00,1.24
8351.00,1.24
8350.00,1.24
8349.00,1.24
8348.00,1.24
8347.00,1.24
8346.00,1.24
8345.00,1.24
8344.00,1.24
8343.00,1.24
8342.00,1.24
8341.00,1.24
8340.00,1.24
8339.00,1.24
8338.00,1.24
8337.00,1.24
8336.00,1.24
8335.00,1.24
8334.00,1.24
8333.00,1.24
8332.00,1.24
8331.00,1.24
8330.00,1.24
8329.00,1.24
8328.00,1.24
8327.00,1.24
8326.00,1.24
8325.00,1.24
8324.00,1.24
8323.00,1.24
8322.00,1.24
8321.00,1.24
8320.00,1.24
8319.00,1.24
8318.00,1.24
8317.00,1.24
8316.00,1.24
8315.00,1.25
8314.00,1.25
8313.00,1.25
8312.00,1.25
8311.00,1.25
8310.00,1.25
8309.00,1.25
8308.00,1.25
8307.00,1.25
8306.00,1.25
8305.00,1.25
8304.00,1.25
8303.00,1.25
8302.00,1.25
8301.00,1.25
8300.00,1.25
8299.00,1.25
8298.00,1.25
8297.00,1.25
8296.00,1.25
8295.00,1.25
8294.00,1.25
8293.00,1.25
8292.00,1.25
8291.00,1.25
8290.00,1.25
8289.00,1.25
8288.00,1.25
8287.00,1.25
8286.00,1.25
8285.00,1.25
8284.00,1.25
8283.00,1.25
8282.00,1.25
8281.00,1.25
8280.00,1.25
8279.00,1.25
8278.00,1.25
8277.00,1.25
8276.00,1.25
8275.00,1.25
8274.00,1.25
8273.00,1.25
8272.00,1.25
8271.00,1.25
8270.00,1.25
8269.00,1.25
8268.00,1.25
8267.00,1.25
8266.00,1.25
8265.00,1.25
8264.00,1.25
8263.00,1.25
8262.00,1.25
8261.00,1.25
8260.00,1.25
8259.00,1.25
8258.00,1.25
8257.00,1.25
8256.00,1.25
8255.00,1.25
8254.00,1.25
8253.00,1.25
8252.00,1.25
8251.00,1.25
8250.00,1.25
8249.00,1.25
8248.00,1.25
8247.00,1.25
8246.00,1.25
8245.00,1.25
8244.00,1.26
8243.00,1.26
8242.00,1.26
8241.00,1.26
8240.00,1.26
8239.00,1.26
8238.00,1.26
8237.00,1.26
8236.00,1.26
8235.00,1.27
8234.00,1.27
8233.00,1.27
8232.00,1.27
8231.00,1.27
8230.00,1.27
8229.00,1.27
8228.00,1.27
8227.00,1.27
8226.00,1.27
8225.00,1.27
8224.00,1.27
8223.00,1.27
8222.00,1.26
8221.00,1.26
8220.00,1.26
8219.00,1.26
8218.00,1.26
8217.00,1.26
8216.00,1.26
8215.00,1.26
8214.00,1.26
8213.00,1.26
8212.00,1.26
8211.00,1.26
8210.00,1.26
8209.00,1.26
8208.00,1.26
8207.00,1.27
8206.00,1.27
8205.00,1.27
8204.00,1.27
8203.00,1.27
8202.00,1.27
8201.00,1.27
8200.00,1.27
8199.00,1.27
8198.00,1.27
8197.00,1.28
8196.00,1.28
8195.00,1.28
8194.00,1.28
8193.00,1.28
8192.00,1.28
8191.00,1.28
8190.00,1.28
8189.00,1.28
8188.00,1.28
8187.00,1.28
8186.00,1.28
8185.00,1.29
8184.00,1.29
8183.00,1.29
8182.00,1.29
8181.00,1.29
8180.00,1.29
8179.00,1.29
8178.00,1.29
8177.00,1.29
8176.00,1.29
8175.00,1.29
8174.00,1.29
8173.00,1.29
8172.00,1.29
8171.00,1.29
8170.00,1.29
8169.00,1.29
8168.00,1.29
8167.00,1.29
8166.00,1.29
8165.00,1.29
8164.00,1.29
8163.00,1.29
8162.00,1.29
8161.00,1.29
8160.00,1.29
8159.00,1.29
8158.00,1.29
8157.00,1.29
8156.00,1.30
8155.00,1.30
8154.00,1.30
8153.00,1.30
8152.00,1.30
8151.00,1.30
8150.00,1.30
8149.00,1.30
8148.00,1.30
8147.00,1.30
8146.00,1.30
8145.00,1.30
8144.00,1.30
8143.00,1.30
8142.00,1.30
8141.00,1.30
8140.00,1.30
8139.00,1.30
8138.00,1.30
8137.00,1.30
8136.00,1.30
8135.00,1.30
8134.00,1.30
8133.00,1.30
8132.00,1.31
8131.00,1.31
8130.00,1.31
8129.00,1.31
8128.00,1.31
8127.00,1.31
8126.00,1.31
8125.00,1.31
8124.00,1.31
8123.00,1.31
8122.00,1.31
8121.00,1.31
8120.00,1.31
8119.00,1.31
8118.00,1.31
8117.00,1.31
8116.00,1.32
8115.00,1.32
8114.00,1.32
8113.00,1.32
8112.00,1.32
8111.00,1.32
8110.00,1.32
8109.00,1.32
8108.00,1.32
8107.00,1.32
8106.00,1.32
8105.00,1.32
8104.00,1.32
8103.00,1.32
8102.00,1.32
8101.00,1.32
8100.00,1.31
8099.00,1.31
8098.00,1.31
8097.00,1.31
8096.00,1.31
8095.00,1.31
8094.00,1.31
8093.00,1.31
8092.00,1.31
8091.00,1.31
8090.00,1.31
8089.00,1.31
8088.00,1.31
8087.00,1.31
8086.00,1.31
8085.00,1.31
8084.00,1.31
8083.00,1.31
8082.00,1.31
8081.00,1.32
8080.00,1.32
8079.00,1.32
8078.00,1.32
8077.00,1.32
8076.00,1.32
8075.00,1.32
8074.00,1.32
8073.00,1.32
8072.00,1.32
8071.00,1.32
8070.00,1.33
8069.00,1.33
8068.00,1.33
8067.00,1.33
8066.00,1.33
8065.00,1.33
8064.00,1.33
8063.00,1.33
8062.00,1.33
8061.00,1.33
8060.00,1.33
8059.00,1.33
8058.00,1.33
8057.00,1.33
8056.00,1.33
8055.00,1.33
8054.00,1.33
8053.00,1.33
8052.00,1.33
8051.00,1.33
8050.00,1.33
8049.00,1.33
8048.00,1.33
8047.00,1.33
8046.00,1.33
8045.00,1.33
8044.00,1.33
8043.00,1.33
8042.00,1.33
8041.00,1.33
8040.00,1.33
8039.00,1.33
8038.00,1.34
8037.00,1.34
8036.00,1.34
8035.00,1.34
8034.00,1.34
8033.00,1.33
8032.00,1.33
8031.00,1.33
8030.00,1.33
8029.00,1.33
8028.00,1.33
8027.00,1.33
8026.00,1.33
8025.00,1.33
8024.00,1.33
8023.00,1.33
8022.00,1.33
8021.00,1.33
8020.00,1.33
8019.00,1.33
8018.00,1.33
8017.00,1.33
8016.00,1.33
8015.00,1.33
8014.00,1.33
8013.00,1.33
8012.00,1.33
8011.00,1.33
8010.00,1.33
8009.00,1.33
8008.00,1.33
8007.00,1.33
8006.00,1.33
8005.00,1.33
8004.00,1.33
8003.00,1.34
8002.00,1.34
8001.00,1.34
8000.00,1.34
7999.00,1.34
7998.00,1.34
7997.00,1.34
7996.00,1.34
7995.00,1.34
7994.00,1.34
7993.00,1.34
7992.00,1.34
7991.00,1.34
7990.00,1.34
7989.00,1.34
7988.00,1.34
7987.00,1.34
7986.00,1.34
7985.00,1.34
7984.00,1.34
7983.00,1.34
7982.00,1.34
7981.00,1.34
7980.00,1.34
7979.00,1.34
7978.00,1.34
7977.00,1.34
7976.00,1.34
7975.00,1.34
7974.00,1.34
7973.00,1.34
7972.00,1.34
7971.00,1.34
7970.00,1.34
7969.00,1.34
7968.00,1.34
7967.00,1.34
7966.00,1.34
7965.00,1.34
7964.00,1.34
7963.00,1.34
7962.00,1.34
7961.00,1.34
7960.00,1.34
7959.00,1.34
7958.00,1.34
7957.00,1.34
7956.00,1.34
7955.00,1.34
7954.00,1.34
7953.00,1.34
7952.00,1.34
7951.00,1.34
7950.00,1.34
7949.00,1.34
7948.00,1.34
7947.00,1.34
7946.00,1.34
7945.00,1.35
7944.00,1.35
7943.00,1.35
7942.00,1.35
7941.00,1.35
7940.00,1.35
7939.00,1.35
7938.00,1.35
7937.00,1.35
7936.00,1.35
7935.00,1.35
7934.00,1.35
7933.00,1.35
7932.00,1.35
7931.00,1.35
7930.00,1.36
7929.00,1.36
7928.00,1.36
7927.00,1.36
7926.00,1.36
7925.00,1.36
7924.00,1.36
7923.00,1.36
7922.00,1.36
7921.00,1.36
7920.00,1.36
7919.00,1.36
7918.00,1.35
7917.00,1.35
7916.00,1.35
7915.00,1.35
7914.00,1.35
7913.00,1.35
7912.00,1.35
7911.00,1.35
7910.00,1.35
7909.00,1.35
7908.00,1.35
7907.00,1.35
7906.00,1.35
7905.00,1.35
7904.00,1.35
7903.00,1.35
7902.00,1.35
7901.00,1.35
7900.00,1.35
7899.00,1.36
7898.00,1.36
7897.00,1.36
7896.00,1.36
7895.00,1.36
7894.00,1.36
7893.00,1.36
7892.00,1.36
7891.00,1.36
7890.00,1.36
7889.00,1.36
7888.00,1.36
7887.00,1.36
7886.00,1.36
7885.00,1.36
7884.00,1.36
7883.00,1.36
7882.00,1.36
7881.00,1.36
7880.00,1.36
7879.00,1.36
7878.00,1.36
7877.00,1.36
7876.00,1.36
7875.00,1.36
7874.00,1.36
7873.00,1.36
7872.00,1.36
7871.00,1.36
7870.00,1.36
7869.00,1.36
7868.00,1.36
7867.00,1.36
7866.00,1.36
7865.00,1.36
7864.00,1.36
7863.00,1.36
7862.00,1.36
7861.00,1.36
7860.00,1.36
7859.00,1.36
7858.00,1.36
7857.00,1.36
7856.00,1.36
7855.00,1.36
7854.00,1.36
7853.00,1.36
7852.00,1.36
7851.00,1.36
7850.00,1.36
7849.00,1.36
7848.00,1.36
7847.00,1.37
7846.00,1.37
7845.00,1.37
7844.00,1.37
7843.00,1.37
7842.00,1.37
7841.00,1.37
7840.00,1.37
7839.00,1.37
7838.00,1.37
7837.00,1.37
7836.00,1.37
7835.00,1.37
7834.00,1.37
7833.00,1.37
7832.00,1.37
7831.00,1.37
7830.00,1.37
7829.00,1.37
7828.00,1.37
7827.00,1.36
7826.00,1.36
7825.00,1.36
7824.00,1.36
7823.00,1.36
7822.00,1.36
7821.00,1.36
7820.00,1.36
7819.00,1.36
7818.00,1.36
7817.00,1.36
7816.00,1.36
7815.00,1.36
7814.00,1.36
7813.00,1.36
7812.00,1.36
7811.00,1.36
7810.00,1.36
7809.00,1.36
7808.00,1.36
7807.00,1.36
7806.00,1.36
7805.00,1.36
7804.00,1.36
7803.00,1.36
7802.00,1.36
7801.00,1.36
7800.00,1.37
7799.00,1.37
7798.00,1.37
7797.00,1.37
7796.00,1.37
7795.00,1.37
7794.00,1.37
7793.00,1.37
7792.00,1.37
7791.00,1.37
7790.00,1.37
7789.00,1.37
7788.00,1.37
7787.00,1.37
7786.00,1.37
7785.00,1.37
7784.00,1.37
7783.00,1.37
7782.00,1.37
7781.00,1.36
7780.00,1.36
7779.00,1.36
7778.00,1.36
7777.00,1.36
7776.00,1.36
7775.00,1.36
7774.00,1.36
7773.00,1.36
7772.00,1.36
7771.00,1.36
7770.00,1.36
7769.00,1.36
7768.00,1.36
7767.00,1.37
7766.00,1.37
7765.00,1.37
7764.00,1.37
7763.00,1.37
7762.00,1.37
7761.00,1.37
7760.00,1.37
7759.00,1.37
7758.00,1.37
7757.00,1.37
7756.00,1.37
7755.00,1.37
7754.00,1.37
7753.00,1.37
7752.00,1.37
7751.00,1.37
7750.00,1.37
7749.00,1.37
7748.00,1.37
7747.00,1.37
7746.00,1.37
7745.00,1.37
7744.00,1.37
7743.00,1.37
7742.00,1.37
7741.00,1.37
7740.00,1.37
7739.00,1.37
7738.00,1.37
7737.00,1.37
7736.00,1.37
7735.00,1.37
7734.00,1.37
7733.00,1.37
7732.00,1.37
7731.00,1.37
7730.00,1.37
7729.00,1.37
7728.00,1.37
7727.00,1.37
7726.00,1.37
7725.00,1.37
7724.00,1.37
7723.00,1.37
7722.00,1.37
7721.00,1.37
7720.00,1.37
7719.00,1.37
7718.00,1.37
7717.00,1.37
7716.00,1.37
7715.00,1.37
7714.00,1.37
7713.00,1.37
7712.00,1.37
7711.00,1.37
7710.00,1.37
7709.00,1.37
7708.00,1.37
7707.00,1.37
7706.00,1.37
7705.00,1.37
7704.00,1.37
7703.00,1.37
7702.00,1.37
7701.00,1.37
7700.00,1.38
7699.00,1.38
7698.00,1.38
7697.00,1.38
7696.00,1.38
7695.00,1.38
7694.00,1.38
7693.00,1.38
7692.00,1.38
7691.00,1.38
7690.00,1.38
7689.00,1.38
7688.00,1.38
7687.00,1.38
7686.00,1.38
7685.00,1.38
7684.00,1.37
7683.00,1.37
7682.00,1.37
7681.00,1.37
7680.00,1.37
7679.00,1.37
7678.00,1.37
7677.00,1.37
7676.00,1.37
7675.00,1.37
7674.00,1.37
7673.00,1.37
7672.00,1.37
7671.00,1.37
7670.00,1.38
7669.00,1.38
7668.00,1.38
7667.00,1.38
7666.00,1.38
7665.00,1.38
7664.00,1.38
7663.00,1.38
7662.00,1.38
7661.00,1.38
7660.00,1.38
7659.00,1.38
7658.00,1.38
7657.00,1.37
7656.00,1.37
7655.00,1.37
7654.00,1.37
7653.00,1.37
7652.00,1.37
7651.00,1.37
7650.00,1.37
7649.00,1.37
7648.00,1.37
7647.00,1.37
7646.00,1.37
7645.00,1.37
7644.00,1.37
7643.00,1.37
7642.00,1.38
7641.00,1.38
7640.00,1.38
7639.00,1.38
7638.00,1.38
7637.00,1.38
7636.00,1.38
7635.00,1.38
7634.00,1.38
7633.00,1.38
7632.00,1.38
7631.00,1.38
7630.00,1.38
7629.00,1.38
7628.00,1.38
7627.00,1.38
7626.00,1.38
7625.00,1.38
7624.00,1.38
7623.00,1.38
7622.00,1.38
7621.00,1.38
7620.00,1.38
7619.00,1.38
7618.00,1.38
7617.00,1.38
7616.00,1.38
7615.00,1.38
7614.00,1.38
7613.00,1.38
7612.00,1.38
7611.00,1.37
7610.00,1.37
7609.00,1.37
7608.00,1.37
7607.00,1.37
7606.00,1.37
7605.00,1.37
7604.00,1.37
7603.00,1.37
7602.00,1.37
7601.00,1.37
7600.00,1.37
7599.00,1.37
7598.00,1.37
7597.00,1.37
7596.00,1.37
7595.00,1.37
7594.00,1.37
7593.00,1.37
7592.00,1.37
7591.00,1.37
7590.00,1.37
7589.00,1.37
7588.00,1.37
7587.00,1.37
7586.00,1.37
7585.00,1.37
7584.00,1.37
7583.00,1.37
7582.00,1.37
7581.00,1.37
7580.00,1.37
7579.00,1.37
7578.00,1.37
7577.00,1.37
7576.00,1.37
7575.00,1.37
7574.00,1.37
7573.00,1.37
7572.00,1.37
7571.00,1.37
7570.00,1.37
7569.00,1.37
7568.00,1.37
7567.00,1.37
7566.00,1.37
7565.00,1.37
7564.00,1.37
7563.00,1.37
7562.00,1.37
7561.00,1.37
7560.00,1.37
7559.00,1.37
7558.00,1.37
7557.00,1.36
7556.00,1.36
7555.00,1.36
7554.00,1.36
7553.00,1.36
7552.00,1.36
7551.00,1.36
7550.00,1.36
7549.00,1.36
7548.00,1.36
7547.00,1.36
7546.00,1.36
7545.00,1.36
7544.00,1.36
7543.00,1.36
7542.00,1.36
7541.00,1.36
7540.00,1.36
7539.00,1.36
7538.00,1.36
7537.00,1.36
7536.00,1.36
7535.00,1.36
7534.00,1.36
7533.00,1.36
7532.00,1.36
7531.00,1.36
7530.00,1.35
7529.00,1.35
7528.00,1.35
7527.00,1.35
7526.00,1.35
7525.00,1.35
7524.00,1.35
7523.00,1.35
7522.00,1.35
7521.00,1.35
7520.00,1.35
7519.00,1.35
7518.00,1.35
7517.00,1.35
7516.00,1.35
7515.00,1.35
7514.00,1.35
7513.00,1.35
7512.00,1.35
7511.00,1.35
7510.00,1.35
7509.00,1.35
7508.00,1.35
7507.00,1.35
7506.00,1.35
7505.00,1.35
7504.00,1.35
7503.00,1.35
7502.00,1.35
7501.00,1.35
7500.00,1.35
7499.00,1.35
7498.00,1.35
7497.00,1.35
7496.00,1.35
7495.00,1.35
7494.00,1.35
7493.00,1.35
7492.00,1.35
7491.00,1.35
7490.00,1.35
7489.00,1.35
7488.00,1.35
7487.00,1.35
7486.00,1.35
7485.00,1.35
7484.00,1.35
7483.00,1.35
7482.00,1.35
7481.00,1.35
7480.00,1.35
7479.00,1.35
7478.00,1.35
7477.00,1.35
7476.00,1.35
7475.00,1.35
7474.00,1.34
7473.00,1.34
7472.00,1.34
7471.00,1.34
7470.00,1.34
7469.00,1.34
7468.00,1.34
7467.00,1.34
7466.00,1.34
7465.00,1.34
7464.00,1.34
7463.00,1.34
7462.00,1.33
7461.00,1.33
7460.00,1.33
7459.00,1.33
7458.00,1.33
7457.00,1.33
7456.00,1.33
7455.00,1.33
7454.00,1.33
7453.00,1.33
7452.00,1.33
7451.00,1.33
7450.00,1.33
7449.00,1.33
7448.00,1.33
7447.00,1.33
7446.00,1.33
7445.00,1.32
7444.00,1.32
7443.00,1.32
7442.00,1.32
7441.00,1.32
7440.00,1.32
7439.00,1.32
7438.00,1.32
7437.00,1.32
7436.00,1.32
7435.00,1.32
7434.00,1.32
7433.00,1.32
7432.00,1.32
7431.00,1.32
7430.00,1.32
7429.00,1.32
7428.00,1.32
7427.00,1.32
7426.00,1.32
7425.00,1.31
7424.00,1.31
7423.00,1.31
7422.00,1.31
7421.00,1.31
7420.00,1.31
7419.00,1.31
7418.00,1.31
7417.00,1.31
7416.00,1.31
7415.00,1.31
7414.00,1.31
7413.00,1.31
7412.00,1.31
7411.00,1.31
7410.00,1.30
7409.00,1.30
7408.00,1.30
7407.00,1.30
7406.00,1.30
7405.00,1.30
7404.00,1.30
7403.00,1.30
7402.00,1.30
7401.00,1.30
7400.00,1.30
7399.00,1.29
7398.00,1.29
7397.00,1.29
7396.00,1.29
7395.00,1.29
7394.00,1.29
7393.00,1.29
7392.00,1.29
7391.00,1.28
7390.00,1.28
7389.00,1.28
7388.00,1.28
7387.00,1.28
7386.00,1.28
7385.00,1.28
7384.00,1.27
7383.00,1.27
7382.00,1.27
7381.00,1.27
7380.00,1.27
7379.00,1.27
7378.00,1.27
7377.00,1.27
7376.00,1.27
7375.00,1.27
7374.00,1.27
7373.00,1.26
7372.00,1.26
7371.00,1.26
7370.00,1.26
7369.00,1.26
7368.00,1.26
7367.00,1.26
7366.00,1.26
7365.00,1.26
7364.00,1.26
7363.00,1.26
7362.00,1.26
7361.00,1.26
7360.00,1.26
7359.00,1.26
7358.00,1.26
7357.00,1.26
7356.00,1.26
7355.00,1.26
7354.00,1.26
7353.00,1.26
7352.00,1.26
7351.00,1.26
7350.00,1.26
7349.00,1.26
7348.00,1.26
7347.00,1.26
7346.00,1.26
7345.00,1.26
7344.00,1.26
7343.00,1.26
7342.00,1.26
7341.00,1.26
7340.00,1.26
7339.00,1.26
7338.00,1.26
7337.00,1.26
7336.00,1.26
7335.00,1.26
7334.00,1.26
7333.00,1.26
7332.00,1.26
7331.00,1.26
7330.00,1.25
7329.00,1.25
7328.00,1.25
7327.00,1.25
7326.00,1.25
7325.00,1.25
7324.00,1.25
7323.00,1.25
7322.00,1.25
7321.00,1.25
7320.00,1.25
7319.00,1.25
7318.00,1.25
7317.00,1.25
7316.00,1.24
7315.00,1.24
7314.00,1.24
7313.00,1.24
7312.00,1.24
7311.00,1.24
7310.00,1.24
7309.00,1.24
7308.00,1.24
7307.00,1.24
7306.00,1.24
7305.00,1.24
7304.00,1.24
7303.00,1.24
7302.00,1.24
7301.00,1.24
7300.00,1.24
7299.00,1.24
7298.00,1.24
7297.00,1.24
7296.00,1.23
7295.00,1.23
7294.00,1.23
7293.00,1.23
7292.00,1.23
7291.00,1.23
7290.00,1.23
7289.00,1.22
7288.00,1.22
7287.00,1.22
7286.00,1.22
7285.00,1.22
7284.00,1.22
7283.00,1.22
7282.00,1.21
7281.00,1.21
7280.00,1.21
7279.00,1.21
7278.00,1.21
7277.00,1.21
7276.00,1.21
7275.00,1.21
7274.00,1.20
7273.00,1.20
7272.00,1.20
7271.00,1.20
7270.00,1.20
7269.00,1.20
7268.00,1.19
7267.00,1.19
7266.00,1.19
7265.00,1.19
7264.00,1.19
7263.00,1.18
7262.00,1.18
7261.00,1.18
7260.00,1.18
7259.00,1.18
7258.00,1.18
7257.00,1.17
7256.00,1.17
7255.00,1.17
7254.00,1.17
7253.00,1.17
7252.00,1.17
7251.00,1.16
7250.00,1.16
7249.00,1.16
7248.00,1.16
7247.00,1.16
7246.00,1.15
7245.00,1.15
7244.00,1.15
7243.00,1.15
7242.00,1.14
7241.00,1.14
7240.00,1.14
7239.00,1.13
7238.00,1.13
7237.00,1.13
7236.00,1.13
7235.00,1.12
7234.00,1.12
7233.00,1.12
7232.00,1.11
7231.00,1.11
7230.00,1.11
7229.00,1.10
7228.00,1.10
7227.00,1.10
7226.00,1.09
7225.00,1.09
7224.00,1.09
7223.00,1.08
7222.00,1.08
7221.00,1.08
7220.00,1.07
7219.00,1.07
7218.00,1.07
7217.00,1.06
7216.00,1.06
7215.00,1.06
7214.00,1.05
7213.00,1.05
7212.00,1.05
7211.00,1.05
7210.00,1.04
7209.00,1.04
7208.00,1.04
7207.00,1.03
7206.00,1.03
7205.00,1.03
7204.00,1.02
7203.00,1.02
7202.00,1.02
7201.00,1.01
7200.00,1.01
7199.00,1.01
7198.00,1.01
7197.00,1.00
7196.00,1.00
7195.00,1.00
7194.00,0.99
7193.00,0.99
7192.00,0.99
7191.00,0.98
7190.00,0.98
7189.00,0.98
7188.00,0.97
7187.00,0.97
7186.00,0.97
7185.00,0.96
7184.00,0.96
7183.00,0.96
7182.00,0.96
7181.00,0.95
7180.00,0.95
7179.00,0.95
7178.00,0.95
7177.00,0.94
7176.00,0.94
7175.00,0.94
7174.00,0.94
7173.00,0.94
7172.00,0.94
7171.00,0.93
7170.00,0.93
7169.00,0.93
7168.00,0.93
7167.00,0.92
7166.00,0.92
7165.00,0.92
7164.00,0.91
7163.00,0.91
7162.00,0.91
7161.00,0.90
7160.00,0.90
7159.00,0.90
7158.00,0.89
7157.00,0.89
7156.00,0.89
7155.00,0.89
7154.00,0.88
7153.00,0.88
7152.00,0.88
7151.00,0.88
7150.00,0.87
7149.00,0.87
7148.00,0.87
7147.00,0.87
7146.00,0.86
7145.00,0.86
7144.00,0.86
7143.00,0.85
7142.00,0.85
7141.00,0.85
7140.00,0.84
7139.00,0.84
7138.00,0.84
7137.00,0.83
7136.00,0.83
7135.00,0.83
7134.00,0.82
7133.00,0.82
7132.00,0.82
7131.00,0.81
7130.00,0.81
7129.00,0.81
7128.00,0.81
7127.00,0.80
7126.00,0.80
7125.00,0.80
7124.00,0.80
7123.00,0.80
7122.00,0.79
7121.00,0.79
7120.00,0.79
7119.00,0.79
7118.00,0.79
7117.00,0.78
7116.00,0.78
7115.00,0.78
7114.00,0.78
7113.00,0.78
7112.00,0.77
7111.00,0.77
7110.00,0.77
7109.00,0.77
7108.00,0.76
7107.00,0.76
7106.00,0.76
7105.00,0.76
7104.00,0.75
7103.00,0.75
7102.00,0.75
7101.00,0.75
7100.00,0.74
7099.00,0.74
7098.00,0.74
7097.00,0.74
7096.00,0.74
7095.00,0.73
7094.00,0.73
7093.00,0.73
7092.00,0.73
7091.00,0.73
7090.00,0.72
7089.00,0.72
7088.00,0.72
7087.00,0.72
7086.00,0.72
7085.00,0.71
7084.00,0.71
7083.00,0.71
7082.00,0.71
7081.00,0.71
7080.00,0.70
7079.00,0.70
7078.00,0.70
7077.00,0.70
7076.00,0.70
7075.00,0.70
7074.00,0.69
7073.00,0.69
7072.00,0.69
7071.00,0.69
7070.00,0.69
7069.00,0.69
7068.00,0.68
7067.00,0.68
7066.00,0.68
7065.00,0.68
7064.00,0.68
7063.00,0.68
7062.00,0.68
7061.00,0.68
7060.00,0.68
7059.00,0.68
7058.00,0.67
7057.00,0.67
7056.00,0.67
7055.00,0.67
7054.00,0.67
7053.00,0.67
7052.00,0.67
7051.00,0.67
7050.00,0.67
7049.00,0.67
7048.00,0.66
7047.00,0.66
7046.00,0.66
7045.00,0.66
7044.00,0.66
7043.00,0.66
7042.00,0.66
7041.00,0.65
7040.00,0.65
7039.00,0.65
7038.00,0.65
7037.00,0.65
7036.00,0.65
7035.00,0.65
7034.00,0.65
7033.00,0.64
7032.00,0.64
7031.00,0.64
7030.00,0.64
7029.00,0.64
7028.00,0.64
7027.00,0.64
7026.00,0.64
7025.00,0.64
7024.00,0.64
7023.00,0.63
7022.00,0.63
7021.00,0.63
7020.00,0.63
7019.00,0.63
7018.00,0.63
7017.00,0.63
7016.00,0.63
7015.00,0.63
7014.00,0.63
7013.00,0.63
7012.00,0.62
7011.00,0.62
7010.00,0.62
7009.00,0.62
7008.00,0.62
7007.00,0.62
7006.00,0.62
7005.00,0.62
7004.00,0.62
7003.00,0.62
7002.00,0.62
7001.00,0.62
7000.00,0.62
6999.00,0.62
6998.00,0.62
6997.00,0.62
6996.00,0.61
6995.00,0.61
6994.00,0.61
6993.00,0.61
6992.00,0.61
6991.00,0.61
6990.00,0.61
6989.00,0.60
6988.00,0.60
6987.00,0.60
6986.00,0.60
6985.00,0.60
6984.00,0.60
6983.00,0.60
6982.00,0.60
6981.00,0.60
6980.00,0.60
6979.00,0.60
6978.00,0.60
6977.00,0.60
6976.00,0.60
6975.00,0.60
6974.00,0.60
6973.00,0.60
6972.00,0.60
6971.00,0.60
6970.00,0.60
6969.00,0.60
6968.00,0.60
6967.00,0.60
6966.00,0.60
6965.00,0.60
6964.00,0.60
6963.00,0.60
6962.00,0.60
6961.00,0.60
6960.00,0.60
6959.00,0.60
6958.00,0.60
6957.00,0.60
6956.00,0.59
6955.00,0.59
6954.00,0.59
6953.00,0.59
6952.00,0.59
6951.00,0.59
6950.00,0.59
6949.00,0.59
6948.00,0.59
6947.00,0.59
6946.00,0.59
6945.00,0.59
6944.00,0.59
6943.00,0.59
6942.00,0.59
6941.00,0.59
6940.00,0.59
6939.00,0.59
6938.00,0.59
6937.00,0.59
6936.00,0.59
6935.00,0.59
6934.00,0.59
6933.00,0.59
6932.00,0.59
6931.00,0.59
6930.00,0.59
6929.00,0.59
6928.00,0.59
6927.00,0.59
6926.00,0.59
6925.00,0.58
6924.00,0.58
6923.00,0.58
6922.00,0.58
6921.00,0.58
6920.00,0.58
6919.00,0.58
6918.00,0.58
6917.00,0.58
6916.00,0.58
6915.00,0.58
6914.00,0.58
6913.00,0.58
6912.00,0.58
6911.00,0.58
6910.00,0.58
6909.00,0.58
6908.00,0.58
6907.00,0.58
6906.00,0.58
6905.00,0.58
6904.00,0.58
6903.00,0.58
6902.00,0.58
6901.00,0.58
6900.00,0.58
6899.00,0.58
6898.00,0.58
6897.00,0.58
6896.00,0.58
6895.00,0.58
6894.00,0.58
6893.00,0.58
6892.00,0.58
6891.00,0.58
6890.00,0.58
6889.00,0.58
6888.00,0.58
6887.00,0.58
6886.00,0.58
6885.00,0.58
6884.00,0.58
6883.00,0.58
6882.00,0.58
6881.00,0.58
6880.00,0.58
6879.00,0.58
6878.00,0.58
6877.00,0.58
6876.00,0.58
6875.00,0.58
6874.00,0.58
6873.00,0.58
6872.00,0.58
6871.00,0.58
6870.00,0.58
6869.00,0.58
6868.00,0.58
6867.00,0.58
6866.00,0.58
6865.00,0.58
6864.00,0.58
6863.00,0.58
6862.00,0.58
6861.00,0.58
6860.00,0.58
6859.00,0.58
6858.00,0.58
6857.00,0.58
6856.00,0.58
6855.00,0.58
6854.00,0.58
6853.00,0.58
6852.00,0.58
6851.00,0.58
6850.00,0.58
6849.00,0.58
6848.00,0.58
6847.00,0.58
6846.00,0.58
6845.00,0.58
6844.00,0.58
6843.00,0.58
6842.00,0.58
6841.00,0.58
6840.00,0.58
6839.00,0.58
6838.00,0.58
6837.00,0.59
6836.00,0.59
6835.00,0.59
6834.00,0.59
6833.00,0.59
6832.00,0.59
6831.00,0.59
6830.00,0.59
6829.00,0.59
6828.00,0.59
6827.00,0.59
6826.00,0.59
6825.00,0.59
6824.00,0.59
6823.00,0.59
6822.00,0.59
6821.00,0.59
6820.00,0.59
6819.00,0.59
6818.00,0.59
6817.00,0.59
6816.00,0.59
6815.00,0.59
6814.00,0.59
6813.00,0.59
6812.00,0.59
6811.00,0.59
6810.00,0.59
6809.00,0.59
6808.00,0.59
6807.00,0.59
6806.00,0.59
6805.00,0.59
6804.00,0.59
6803.00,0.59
6802.00,0.59
6801.00,0.59
6800.00,0.59
6799.00,0.60
6798.00,0.60
6797.00,0.60
6796.00,0.60
6795.00,0.60
6794.00,0.60
6793.00,0.60
6792.00,0.60
6791.00,0.60
6790.00,0.60
6789.00,0.60
6788.00,0.60
6787.00,0.60
6786.00,0.60
6785.00,0.60
6784.00,0.60
6783.00,0.60
6782.00,0.60
6781.00,0.60
6780.00,0.60
6779.00,0.60
6778.00,0.60
6777.00,0.60
6776.00,0.60
6775.00,0.60
6774.00,0.60
6773.00,0.60
6772.00,0.60
6771.00,0.60
6770.00,0.60
6769.00,0.60
6768.00,0.60
6767.00,0.60
6766.00,0.60
6765.00,0.60
6764.00,0.60
6763.00,0.61
6762.00,0.61
6761.00,0.61
6760.00,0.61
6759.00,0.61
6758.00,0.61
6757.00,0.61
6756.00,0.61
6755.00,0.61
6754.00,0.62
6753.00,0.62
6752.00,0.62
6751.00,0.62
6750.00,0.62
6749.00,0.62
6748.00,0.62
6747.00,0.62
6746.00,0.62
6745.00,0.63
6744.00,0.63
6743.00,0.63
6742.00,0.63
6741.00,0.63
6740.00,0.63
6739.00,0.63
6738.00,0.63
6737.00,0.63
6736.00,0.63
6735.00,0.63
6734.00,0.63
6733.00,0.63
6732.00,0.63
6731.00,0.63
6730.00,0.63
6729.00,0.63
6728.00,0.63
6727.00,0.63
6726.00,0.63
6725.00,0.63
6724.00,0.63
6723.00,0.63
6722.00,0.63
6721.00,0.64
6720.00,0.64
6719.00,0.64
6718.00,0.64
6717.00,0.64
6716.00,0.64
6715.00,0.64
6714.00,0.64
6713.00,0.64
6712.00,0.64
6711.00,0.65
6710.00,0.65
6709.00,0.65
6708.00,0.65
6707.00,0.65
6706.00,0.65
6705.00,0.65
6704.00,0.65
6703.00,0.65
6702.00,0.66
6701.00,0.66
6700.00,0.66
6699.00,0.66
6698.00,0.66
6697.00,0.66
6696.00,0.66
6695.00,0.66
6694.00,0.67
6693.00,0.67
6692.00,0.67
6691.00,0.67
6690.00,0.67
6689.00,0.67
6688.00,0.67
6687.00,0.68
6686.00,0.68
6685.00,0.68
6684.00,0.68
6683.00,0.68
6682.00,0.68
6681.00,0.68
6680.00,0.68
6679.00,0.68
6678.00,0.68
6677.00,0.68
6676.00,0.68
6675.00,0.69
6674.00,0.69
6673.00,0.69
6672.00,0.69
6671.00,0.69
6670.00,0.69
6669.00,0.69
6668.00,0.69
6667.00,0.69
6666.00,0.69
6665.00,0.69
6664.00,0.69
6663.00,0.69
6662.00,0.69
6661.00,0.69
6660.00,0.69
6659.00,0.69
6658.00,0.69
6657.00,0.69
6656.00,0.70
6655.00,0.70
6654.00,0.70
6653.00,0.70
6652.00,0.70
6651.00,0.70
6650.00,0.70
6649.00,0.70
6648.00,0.70
6647.00,0.71
6646.00,0.71
6645.00,0.71
6644.00,0.71
6643.00,0.71
6642.00,0.71
6641.00,0.71
6640.00,0.71
6639.00,0.71
6638.00,0.72
6637.00,0.72
6636.00,0.72
6635.00,0.72
6634.00,0.72
6633.00,0.72
6632.00,0.72
6631.00,0.72
6630.00,0.72
6629.00,0.72
6628.00,0.72
6627.00,0.73
6626.00,0.73
6625.00,0.73
6624.00,0.73
6623.00,0.73
6622.00,0.73
6621.00,0.73
6620.00,0.73
6619.00,0.73
6618.00,0.73
6617.00,0.73
6616.00,0.73
6615.00,0.73
6614.00,0.74
6613.00,0.74
6612.00,0.74
6611.00,0.74
6610.00,0.74
6609.00,0.74
6608.00,0.74
6607.00,0.74
6606.00,0.74
6605.00,0.74
6604.00,0.74
6603.00,0.74
6602.00,0.75
6601.00,0.75
6600.00,0.75
6599.00,0.75
6598.00,0.75
6597.00,0.75
6596.00,0.75
6595.00,0.75
6594.00,0.75
6593.00,0.75
6592.00,0.75
6591.00,0.75
6590.00,0.76
6589.00,0.76
6588.00,0.76
6587.00,0.76
6586.00,0.76
6585.00,0.76
6584.00,0.76
6583.00,0.76
6582.00,0.76
6581.00,0.76
6580.00,0.77
6579.00,0.77
6578.00,0.77
6577.00,0.77
6576.00,0.77
6575.00,0.77
6574.00,0.77
6573.00,0.77
6572.00,0.77
6571.00,0.77
6570.00,0.77
6569.00,0.77
6568.00,0.77
6567.00,0.77
6566.00,0.77
6565.00,0.78
6564.00,0.78
6563.00,0.78
6562.00,0.78
6561.00,0.78
6560.00,0.78
6559.00,0.78
6558.00,0.79
6557.00,0.79
6556.00,0.79
6555.00,0.79
6554.00,0.79
6553.00,0.79
6552.00,0.79
6551.00,0.79
6550.00,0.79
6549.00,0.79
6548.00,0.79
6547.00,0.79
6546.00,0.79
6545.00,0.79
6544.00,0.80
6543.00,0.80
6542.00,0.80
6541.00,0.80
6540.00,0.80
6539.00,0.80
6538.00,0.80
6537.00,0.80
6536.00,0.80
6535.00,0.80
6534.00,0.80
6533.00,0.81
6532.00,0.81
6531.00,0.81
6530.00,0.81
6529.00,0.81
6528.00,0.81
6527.00,0.81
6526.00,0.81
6525.00,0.81
6524.00,0.81
6523.00,0.81
6522.00,0.81
6521.00,0.82
6520.00,0.82
6519.00,0.82
6518.00,0.82
6517.00,0.82
6516.00,0.82
6515.00,0.82
6514.00,0.82
6513.00,0.82
6512.00,0.82
6511.00,0.82
6510.00,0.82
6509.00,0.82
6508.00,0.83
6507.00,0.83
6506.00,0.83
6505.00,0.83
6504.00,0.83
6503.00,0.83
6502.00,0.83
6501.00,0.83
6500.00,0.83
6499.00,0.83
6498.00,0.83
6497.00,0.83
6496.00,0.83
6495.00,0.83
6494.00,0.83
6493.00,0.83
6492.00,0.83
6491.00,0.84
6490.00,0.84
6489.00,0.84
6488.00,0.84
6487.00,0.84
6486.00,0.84
6485.00,0.84
6484.00,0.84
6483.00,0.84
6482.00,0.85
6481.00,0.85
6480.00,0.85
6479.00,0.85
6478.00,0.85
6477.00,0.85
6476.00,0.85
6475.00,0.85
6474.00,0.85
6473.00,0.85
6472.00,0.85
6471.00,0.85
6470.00,0.85
6469.00,0.85
6468.00,0.85
6467.00,0.85
6466.00,0.85
6465.00,0.86
6464.00,0.86
6463.00,0.86
6462.00,0.86
6461.00,0.86
6460.00,0.86
6459.00,0.86
6458.00,0.86
6457.00,0.86
6456.00,0.86
6455.00,0.86
6454.00,0.86
6453.00,0.86
6452.00,0.86
6451.00,0.86
6450.00,0.86
6449.00,0.86
6448.00,0.86
6447.00,0.86
6446.00,0.87
6445.00,0.87
6444.00,0.87
6443.00,0.87
6442.00,0.87
6441.00,0.87
6440.00,0.87
6439.00,0.87
6438.00,0.87
6437.00,0.87
6436.00,0.88
6435.00,0.88
6434.00,0.88
6433.00,0.88
6432.00,0.88
6431.00,0.88
6430.00,0.88
6429.00,0.88
6428.00,0.88
6427.00,0.88
6426.00,0.88
6425.00,0.89
6424.00,0.89
6423.00,0.89
6422.00,0.89
6421.00,0.89
6420.00,0.89
6419.00,0.89
6418.00,0.89
6417.00,0.89
6416.00,0.89
6415.00,0.89
6414.00,0.89
6413.00,0.89
6412.00,0.89
6411.00,0.89
6410.00,0.89
6409.00,0.89
6408.00,0.89
6407.00,0.89
6406.00,0.89
6405.00,0.89
6404.00,0.89
6403.00,0.89
6402.00,0.89
6401.00,0.89
6400.00,0.89
6399.00,0.89
6398.00,0.89
6397.00,0.89
6396.00,0.89
6395.00,0.89
6394.00,0.89
6393.00,0.89
6392.00,0.89
6391.00,0.89
6390.00,0.89
6389.00,0.90
6388.00,0.90
6387.00,0.90
6386.00,0.90
6385.00,0.90
6384.00,0.90
6383.00,0.90
6382.00,0.90
6381.00,0.90
6380.00,0.90
6379.00,0.90
6378.00,0.90
6377.00,0.91
6376.00,0.91
6375.00,0.91
6374.00,0.91
6373.00,0.91
6372.00,0.91
6371.00,0.91
6370.00,0.91
6369.00,0.91
6368.00,0.91
6367.00,0.91
6366.00,0.91
6365.00,0.91
6364.00,0.92
6363.00,0.92
6362.00,0.92
6361.00,0.92
6360.00,0.92
6359.00,0.92
6358.00,0.92
6357.00,0.92
6356.00,0.92
6355.00,0.92
6354.00,0.92
6353.00,0.93
6352.00,0.93
6351.00,0.93
6350.00,0.93
6349.00,0.93
6348.00,0.93
6347.00,0.93
6346.00,0.93
6345.00,0.93
6344.00,0.93
6343.00,0.93
6342.00,0.93
6341.00,0.93
6340.00,0.93
6339.00,0.94
6338.00,0.94
6337.00,0.94
6336.00,0.94
6335.00,0.94
6334.00,0.94
6333.00,0.94
6332.00,0.94
6331.00,0.94
6330.00,0.94
6329.00,0.94
6328.00,0.94
6327.00,0.94
6326.00,0.94
6325.00,0.95
6324.00,0.95
6323.00,0.95
6322.00,0.95
6321.00,0.95
6320.00,0.95
6319.00,0.95
6318.00,0.95
6317.00,0.95
6316.00,0.96
6315.00,0.96
6314.00,0.96
6313.00,0.96
6312.00,0.96
6311.00,0.96
6310.00,0.96
6309.00,0.96
6308.00,0.97
6307.00,0.97
6306.00,0.97
6305.00,0.97
6304.00,0.97
6303.00,0.97
6302.00,0.97
6301.00,0.97
6300.00,0.97
6299.00,0.97
6298.00,0.98
6297.00,0.98
6296.00,0.98
6295.00,0.98
6294.00,0.98
6293.00,0.98
6292.00,0.98
6291.00,0.98
6290.00,0.98
6289.00,0.98
6288.00,0.98
6287.00,0.98
6286.00,0.99
6285.00,0.99
6284.00,0.99
6283.00,0.99
6282.00,0.99
6281.00,0.99
6280.00,0.99
6279.00,0.99
6278.00,1.00
6277.00,1.00
6276.00,1.00
6275.00,1.00
6274.00,1.00
6273.00,1.00
6272.00,1.00
6271.00,1.01
6270.00,1.01
6269.00,1.01
6268.00,1.01
6267.00,1.01
6266.00,1.01
6265.00,1.01
6264.00,1.01
6263.00,1.01
6262.00,1.01
6261.00,1.01
6260.00,1.02
6259.00,1.02
6258.00,1.02
6257.00,1.02
6256.00,1.02
6255.00,1.02
6254.00,1.02
6253.00,1.02
6252.00,1.02
6251.00,1.02
6250.00,1.03
6249.00,1.03
6248.00,1.03
6247.00,1.03
6246.00,1.03
6245.00,1.03
6244.00,1.03
6243.00,1.04
6242.00,1.04
6241.00,1.04
6240.00,1.04
6239.00,1.04
6238.00,1.04
6237.00,1.04
6236.00,1.05
6235.00,1.05
6234.00,1.05
6233.00,1.05
6232.00,1.05
6231.00,1.05
6230.00,1.05
6229.00,1.06
6228.00,1.06
6227.00,1.06
6226.00,1.06
6225.00,1.06
6224.00,1.06
6223.00,1.06
6222.00,1.06
6221.00,1.06
6220.00,1.07
6219.00,1.07
6218.00,1.07
6217.00,1.07
6216.00,1.07
6215.00,1.07
6214.00,1.07
6213.00,1.07
6212.00,1.08
6211.00,1.08
6210.00,1.08
6209.00,1.08
6208.00,1.08
6207.00,1.09
6206.00,1.09
6205.00,1.09
6204.00,1.09
6203.00,1.09
6202.00,1.09
6201.00,1.10
6200.00,1.10
6199.00,1.10
6198.00,1.10
6197.00,1.10
6196.00,1.10
6195.00,1.10
6194.00,1.11
6193.00,1.11
6192.00,1.11
6191.00,1.11
6190.00,1.11
6189.00,1.11
6188.00,1.11
6187.00,1.11
6186.00,1.11
6185.00,1.11
6184.00,1.12
6183.00,1.12
6182.00,1.12
6181.00,1.12
6180.00,1.12
6179.00,1.12
6178.00,1.12
6177.00,1.13
6176.00,1.13
6175.00,1.13
6174.00,1.13
6173.00,1.13
6172.00,1.13
6171.00,1.14
6170.00,1.14
6169.00,1.14
6168.00,1.14
6167.00,1.14
6166.00,1.14
6165.00,1.14
6164.00,1.14
6163.00,1.14
6162.00,1.15
6161.00,1.15
6160.00,1.15
6159.00,1.15
6158.00,1.15
6157.00,1.15
6156.00,1.15
6155.00,1.15
6154.00,1.15
6153.00,1.15
6152.00,1.15
6151.00,1.16
6150.00,1.16
6149.00,1.16
6148.00,1.16
6147.00,1.16
6146.00,1.16
6145.00,1.16
6144.00,1.17
6143.00,1.17
6142.00,1.17
6141.00,1.17
6140.00,1.17
6139.00,1.17
6138.00,1.18
6137.00,1.18
6136.00,1.18
6135.00,1.18
6134.00,1.18
6133.00,1.18
6132.00,1.18
6131.00,1.19
6130.00,1.19
6129.00,1.19
6128.00,1.19
6127.00,1.19
6126.00,1.19
6125.00,1.19
6124.00,1.20
6123.00,1.20
6122.00,1.20
6121.00,1.20
6120.00,1.20
6119.00,1.20
6118.00,1.20
6117.00,1.20
6116.00,1.21
6115.00,1.21
6114.00,1.21
6113.00,1.21
6112.00,1.21
6111.00,1.21
6110.00,1.21
6109.00,1.21
6108.00,1.22
6107.00,1.22
6106.00,1.22
6105.00,1.22
6104.00,1.22
6103.00,1.22
6102.00,1.22
6101.00,1.22
6100.00,1.23
6099.00,1.23
6098.00,1.23
6097.00,1.23
6096.00,1.23
6095.00,1.23
6094.00,1.23
6093.00,1.23
6092.00,1.23
6091.00,1.24
6090.00,1.24
6089.00,1.24
6088.00,1.24
6087.00,1.24
6086.00,1.24
6085.00,1.24
6084.00,1.24
6083.00,1.25
6082.00,1.25
6081.00,1.25
6080.00,1.25
6079.00,1.25
6078.00,1.25
6077.00,1.25
6076.00,1.25
6075.00,1.26
6074.00,1.26
6073.00,1.26
6072.00,1.26
6071.00,1.26
6070.00,1.26
6069.00,1.27
6068.00,1.27
6067.00,1.27
6066.00,1.27
6065.00,1.27
6064.00,1.27
6063.00,1.27
6062.00,1.28
6061.00,1.28
6060.00,1.28
6059.00,1.28
6058.00,1.28
6057.00,1.28
6056.00,1.28
6055.00,1.28
6054.00,1.28
6053.00,1.28
6052.00,1.28
6051.00,1.28
6050.00,1.28
6049.00,1.28
6048.00,1.28
6047.00,1.28
6046.00,1.28
6045.00,1.28
6044.00,1.28
6043.00,1.28
6042.00,1.28
6041.00,1.28
6040.00,1.29
6039.00,1.29
6038.00,1.29
6037.00,1.29
6036.00,1.29
6035.00,1.29
6034.00,1.29
6033.00,1.29
6032.00,1.29
6031.00,1.29
6030.00,1.30
6029.00,1.30
6028.00,1.30
6027.00,1.30
6026.00,1.30
6025.00,1.30
6024.00,1.30
6023.00,1.30
6022.00,1.30
6021.00,1.30
6020.00,1.30
6019.00,1.30
6018.00,1.30
6017.00,1.30
6016.00,1.30
6015.00,1.30
6014.00,1.30
6013.00,1.30
6012.00,1.30
6011.00,1.30
6010.00,1.30
6009.00,1.30
6008.00,1.30
6007.00,1.30
6006.00,1.30
6005.00,1.30
6004.00,1.29
6003.00,1.29
6002.00,1.29
6001.00,1.29
6000.00,1.29
5999.00,1.29
5998.00,1.29
5997.00,1.29
5996.00,1.29
5995.00,1.29
5994.00,1.29
5993.00,1.29
5992.00,1.28
5991.00,1.28
5990.00,1.28
5989.00,1.28
5988.00,1.28
5987.00,1.28
5986.00,1.27
5985.00,1.27
5984.00,1.27
5983.00,1.27
5982.00,1.26
5981.00,1.26
5980.00,1.26
5979.00,1.25
5978.00,1.25
5977.00,1.25
5976.00,1.24
5975.00,1.24
5974.00,1.23
5973.00,1.23
5972.00,1.22
5971.00,1.22
5970.00,1.21
5969.00,1.21
5968.00,1.20
5967.00,1.20
5966.00,1.19
5965.00,1.18
5964.00,1.18
5963.00,1.17
5962.00,1.16
5961.00,1.16
5960.00,1.15
5959.00,1.14
5958.00,1.14
5957.00,1.13
5956.00,1.12
5955.00,1.12
5954.00,1.11
5953.00,1.10
5952.00,1.10
5951.00,1.09
5950.00,1.09
5949.00,1.08
5948.00,1.08
5947.00,1.07
5946.00,1.07
5945.00,1.07
5944.00,1.06
5943.00,1.06
5942.00,1.06
5941.00,1.06
5940.00,1.05
5939.00,1.05
5938.00,1.05
5937.00,1.05
5936.00,1.05
5935.00,1.05
5934.00,1.05
5933.00,1.05
5932.00,1.05
5931.00,1.05
5930.00,1.04
5929.00,1.04
5928.00,1.04
5927.00,1.04
5926.00,1.04
5925.00,1.04
5924.00,1.03
5923.00,1.03
5922.00,1.03
5921.00,1.03
5920.00,1.03
5919.00,1.02
5918.00,1.02
5917.00,1.02
5916.00,1.01
5915.00,1.01
5914.00,1.01
5913.00,1.01
5912.00,1.00
5911.00,1.00
5910.00,1.00
5909.00,1.00
5908.00,1.00
5907.00,0.99
5906.00,0.99
5905.00,0.99
5904.00,0.99
5903.00,0.99
5902.00,0.99
5901.00,0.99
5900.00,0.99
5899.00,0.99
5898.00,0.99
5897.00,0.99
5896.00,1.00
5895.00,1.00
5894.00,1.00
5893.00,1.00
5892.00,1.00
5891.00,1.01
5890.00,1.01
5889.00,1.01
5888.00,1.01
5887.00,1.02
5886.00,1.02
5885.00,1.02
5884.00,1.02
5883.00,1.03
5882.00,1.03
5881.00,1.03
5880.00,1.04
5879.00,1.04
5878.00,1.04
5877.00,1.04
5876.00,1.05
5875.00,1.05
5874.00,1.05
5873.00,1.05
5872.00,1.05
5871.00,1.06
5870.00,1.06
5869.00,1.06
5868.00,1.06
5867.00,1.07
5866.00,1.07
5865.00,1.07
5864.00,1.07
5863.00,1.07
5862.00,1.07
5861.00,1.08
5860.00,1.08
5859.00,1.08
5858.00,1.08
5857.00,1.08
5856.00,1.08
5855.00,1.08
5854.00,1.08
5853.00,1.08
5852.00,1.08
5851.00,1.08
5850.00,1.08
5849.00,1.08
5848.00,1.08
5847.00,1.09
5846.00,1.09
5845.00,1.09
5844.00,1.09
5843.00,1.09
5842.00,1.09
5841.00,1.09
5840.00,1.09
5839.00,1.09
5838.00,1.09
5837.00,1.09
5836.00,1.09
5835.00,1.09
5834.00,1.09
5833.00,1.09
5832.00,1.09
5831.00,1.09
5830.00,1.09
5829.00,1.09
5828.00,1.09
5827.00,1.09
5826.00,1.09
5825.00,1.09
5824.00,1.09
5823.00,1.09
5822.00,1.09
5821.00,1.09
5820.00,1.09
5819.00,1.09
5818.00,1.09
5817.00,1.09
5816.00,1.09
5815.00,1.09
5814.00,1.10
5813.00,1.10
5812.00,1.10
5811.00,1.10
5810.00,1.10
5809.00,1.09
5808.00,1.09
5807.00,1.09
5806.00,1.09
5805.00,1.09
5804.00,1.09
5803.00,1.09
5802.00,1.09
5801.00,1.09
5800.00,1.08
5799.00,1.08
5798.00,1.08
5797.00,1.08
5796.00,1.08
5795.00,1.07
5794.00,1.07
5793.00,1.07
5792.00,1.07
5791.00,1.07
5790.00,1.06
5789.00,1.06
5788.00,1.06
5787.00,1.06
5786.00,1.06
5785.00,1.05
5784.00,1.05
5783.00,1.05
5782.00,1.05
5781.00,1.05
5780.00,1.05
5779.00,1.04
5778.00,1.04
5777.00,1.04
5776.00,1.04
5775.00,1.04
5774.00,1.04
5773.00,1.04
5772.00,1.04
5771.00,1.04
5770.00,1.04
5769.00,1.04
5768.00,1.04
5767.00,1.04
5766.00,1.05
5765.00,1.05
5764.00,1.05
5763.00,1.05
5762.00,1.05
5761.00,1.06
5760.00,1.06
5759.00,1.06
5758.00,1.07
5757.00,1.07
5756.00,1.07
5755.00,1.08
5754.00,1.08
5753.00,1.08
5752.00,1.09
5751.00,1.09
5750.00,1.09
5749.00,1.10
5748.00,1.10
5747.00,1.10
5746.00,1.11
5745.00,1.11
5744.00,1.11
5743.00,1.11
5742.00,1.12
5741.00,1.12
5740.00,1.12
5739.00,1.12
5738.00,1.13
5737.00,1.13
5736.00,1.13
5735.00,1.13
5734.00,1.13
5733.00,1.13
5732.00,1.14
5731.00,1.14
5730.00,1.14
5729.00,1.14
5728.00,1.14
5727.00,1.14
5726.00,1.14
5725.00,1.14
5724.00,1.14
5723.00,1.14
5722.00,1.14
5721.00,1.14
5720.00,1.15
5719.00,1.15
5718.00,1.15
5717.00,1.15
5716.00,1.15
5715.00,1.15
5714.00,1.15
5713.00,1.15
5712.00,1.15
5711.00,1.15
5710.00,1.15
5709.00,1.15
5708.00,1.15
5707.00,1.14
5706.00,1.14
5705.00,1.14
5704.00,1.14
5703.00,1.14
5702.00,1.14
5701.00,1.14
5700.00,1.14
5699.00,1.14
5698.00,1.13
5697.00,1.13
5696.00,1.13
5695.00,1.13
5694.00,1.13
5693.00,1.13
5692.00,1.12
5691.00,1.12
5690.00,1.12
5689.00,1.12
5688.00,1.12
5687.00,1.12
5686.00,1.12
5685.00,1.12
5684.00,1.11
5683.00,1.11
5682.00,1.11
5681.00,1.11
5680.00,1.11
5679.00,1.11
5678.00,1.11
5677.00,1.11
5676.00,1.11
5675.00,1.11
5674.00,1.11
5673.00,1.11
5672.00,1.11
5671.00,1.11
5670.00,1.11
5669.00,1.11
5668.00,1.11
5667.00,1.11
5666.00,1.11
5665.00,1.11
5664.00,1.11
5663.00,1.11
5662.00,1.11
5661.00,1.11
5660.00,1.11
5659.00,1.12
5658.00,1.12
5657.00,1.12
5656.00,1.12
5655.00,1.12
5654.00,1.12
5653.00,1.13
5652.00,1.13
5651.00,1.13
5650.00,1.13
5649.00,1.13
5648.00,1.13
5647.00,1.14
5646.00,1.14
5645.00,1.14
5644.00,1.14
5643.00,1.14
5642.00,1.15
5641.00,1.15
5640.00,1.15
5639.00,1.15
5638.00,1.15
5637.00,1.16
5636.00,1.16
5635.00,1.16
5634.00,1.16
5633.00,1.16
5632.00,1.17
5631.00,1.17
5630.00,1.17
5629.00,1.17
5628.00,1.17
5627.00,1.18
5626.00,1.18
5625.00,1.18
5624.00,1.18
5623.00,1.18
5622.00,1.18
5621.00,1.18
5620.00,1.19
5619.00,1.19
5618.00,1.19
5617.00,1.19
5616.00,1.19
5615.00,1.19
5614.00,1.19
5613.00,1.19
5612.00,1.19
5611.00,1.19
5610.00,1.20
5609.00,1.20
5608.00,1.20
5607.00,1.20
5606.00,1.20
5605.00,1.20
5604.00,1.20
5603.00,1.20
5602.00,1.21
5601.00,1.21
5600.00,1.21
5599.00,1.21
5598.00,1.21
5597.00,1.21
5596.00,1.22
5595.00,1.22
5594.00,1.22
5593.00,1.22
5592.00,1.22
5591.00,1.22
5590.00,1.23
5589.00,1.23
5588.00,1.23
5587.00,1.23
5586.00,1.23
5585.00,1.24
5584.00,1.24
5583.00,1.24
5582.00,1.24
5581.00,1.24
5580.00,1.24
5579.00,1.25
5578.00,1.25
5577.00,1.25
5576.00,1.25
5575.00,1.25
5574.00,1.25
5573.00,1.25
5572.00,1.25
5571.00,1.26
5570.00,1.26
5569.00,1.26
5568.00,1.26
5567.00,1.26
5566.00,1.26
5565.00,1.26
5564.00,1.26
5563.00,1.26
5562.00,1.27
5561.00,1.27
5560.00,1.27
5559.00,1.27
5558.00,1.27
5557.00,1.27
5556.00,1.27
5555.00,1.27
5554.00,1.28
5553.00,1.28
5552.00,1.28
5551.00,1.28
5550.00,1.28
5549.00,1.28
5548.00,1.28
5547.00,1.28
5546.00,1.28
5545.00,1.29
5544.00,1.29
5543.00,1.29
5542.00,1.29
5541.00,1.29
5540.00,1.29
5539.00,1.29
5538.00,1.29
5537.00,1.29
5536.00,1.30
5535.00,1.30
5534.00,1.30
5533.00,1.30
5532.00,1.30
5531.00,1.30
5530.00,1.30
5529.00,1.30
5528.00,1.30
5527.00,1.30
5526.00,1.30
5525.00,1.30
5524.00,1.30
5523.00,1.31
5522.00,1.31
5521.00,1.31
5520.00,1.31
5519.00,1.31
5518.00,1.31
5517.00,1.31
5516.00,1.31
5515.00,1.31
5514.00,1.31
5513.00,1.31
5512.00,1.31
5511.00,1.31
5510.00,1.32
5509.00,1.32
5508.00,1.32
5507.00,1.32
5506.00,1.32
5505.00,1.32
5504.00,1.32
5503.00,1.32
5502.00,1.32
5501.00,1.32
5500.00,1.32
5499.00,1.32
5498.00,1.33
5497.00,1.33
5496.00,1.33
5495.00,1.33
5494.00,1.33
5493.00,1.33
5492.00,1.33
5491.00,1.33
5490.00,1.33
5489.00,1.33
5488.00,1.34
5487.00,1.34
5486.00,1.34
5485.00,1.34
5484.00,1.34
5483.00,1.34
5482.00,1.34
5481.00,1.34
5480.00,1.34
5479.00,1.34
5478.00,1.34
5477.00,1.34
5476.00,1.35
5475.00,1.35
5474.00,1.35
5473.00,1.35
5472.00,1.35
5471.00,1.35
5470.00,1.35
5469.00,1.35
5468.00,1.35
5467.00,1.36
5466.00,1.36
5465.00,1.36
5464.00,1.36
5463.00,1.36
5462.00,1.36
5461.00,1.36
5460.00,1.36
5459.00,1.36
5458.00,1.36
5457.00,1.37
5456.00,1.37
5455.00,1.37
5454.00,1.37
5453.00,1.37
5452.00,1.37
5451.00,1.37
5450.00,1.37
5449.00,1.37
5448.00,1.37
5447.00,1.37
5446.00,1.37
5445.00,1.37
5444.00,1.37
5443.00,1.37
5442.00,1.37
5441.00,1.37
5440.00,1.37
5439.00,1.37
5438.00,1.37
5437.00,1.37
5436.00,1.37
5435.00,1.37
5434.00,1.37
5433.00,1.37
5432.00,1.38
5431.00,1.38
5430.00,1.38
5429.00,1.38
5428.00,1.38
5427.00,1.38
5426.00,1.38
5425.00,1.38
5424.00,1.38
5423.00,1.38
5422.00,1.38
5421.00,1.38
5420.00,1.38
5419.00,1.38
5418.00,1.38
5417.00,1.38
5416.00,1.38
5415.00,1.38
5414.00,1.38
5413.00,1.38
5412.00,1.38
5411.00,1.38
5410.00,1.38
5409.00,1.38
5408.00,1.38
5407.00,1.38
5406.00,1.38
5405.00,1.38
5404.00,1.38
5403.00,1.38
5402.00,1.38
5401.00,1.38
5400.00,1.38
5399.00,1.37
5398.00,1.37
5397.00,1.37
5396.00,1.37
5395.00,1.37
5394.00,1.37
5393.00,1.37
5392.00,1.37
5391.00,1.36
5390.00,1.36
5389.00,1.36
5388.00,1.36
5387.00,1.36
5386.00,1.35
5385.00,1.35
5384.00,1.35
5383.00,1.35
5382.00,1.34
5381.00,1.34
5380.00,1.34
5379.00,1.33
5378.00,1.33
5377.00,1.33
5376.00,1.32
5375.00,1.32
5374.00,1.31
5373.00,1.31
5372.00,1.30
5371.00,1.30
5370.00,1.30
5369.00,1.29
5368.00,1.29
5367.00,1.28
5366.00,1.28
5365.00,1.27
5364.00,1.27
5363.00,1.26
5362.00,1.26
5361.00,1.25
5360.00,1.24
5359.00,1.24
5358.00,1.23
5357.00,1.22
5356.00,1.22
5355.00,1.21
5354.00,1.20
5353.00,1.19
5352.00,1.19
5351.00,1.18
5350.00,1.17
5349.00,1.16
5348.00,1.15
5347.00,1.14
5346.00,1.13
5345.00,1.12
5344.00,1.11
5343.00,1.10
5342.00,1.09
5341.00,1.08
5340.00,1.07
5339.00,1.06
5338.00,1.05
5337.00,1.04
5336.00,1.03
5335.00,1.02
5334.00,1.01
5333.00,1.00
5332.00,0.99
5331.00,0.98
5330.00,0.97
5329.00,0.96
5328.00,0.95
5327.00,0.94
5326.00,0.93
5325.00,0.92
5324.00,0.91
5323.00,0.90
5322.00,0.89
5321.00,0.88
5320.00,0.87
5319.00,0.86
5318.00,0.85
5317.00,0.84
5316.00,0.83
5315.00,0.82
5314.00,0.81
5313.00,0.80
5312.00,0.80
5311.00,0.79
5310.00,0.78
5309.00,0.77
5308.00,0.77
5307.00,0.76
5306.00,0.75
5305.00,0.75
5304.00,0.74
5303.00,0.73
5302.00,0.73
5301.00,0.72
5300.00,0.72
5299.00,0.72
5298.00,0.71
5297.00,0.71
5296.00,0.71
5295.00,0.70
5294.00,0.70
5293.00,0.70
5292.00,0.69
5291.00,0.69
5290.00,0.69
5289.00,0.68
5288.00,0.68
5287.00,0.68
5286.00,0.68
5285.00,0.68
5284.00,0.67
5283.00,0.67
5282.00,0.67
5281.00,0.67
5280.00,0.67
5279.00,0.67
5278.00,0.66
5277.00,0.66
5276.00,0.66
5275.00,0.66
5274.00,0.66
5273.00,0.66
5272.00,0.66
5271.00,0.66
5270.00,0.66
5269.00,0.66
5268.00,0.66
5267.00,0.66
5266.00,0.66
5265.00,0.65
5264.00,0.65
5263.00,0.65
5262.00,0.65
5261.00,0.65
5260.00,0.65
5259.00,0.65
5258.00,0.65
5257.00,0.65
5256.00,0.65
5255.00,0.65
5254.00,0.65
5253.00,0.65
5252.00,0.65
5251.00,0.65
5250.00,0.65
5249.00,0.65
5248.00,0.65
5247.00,0.65
5246.00,0.65
5245.00,0.65
5244.00,0.65
5243.00,0.65
5242.00,0.65
5241.00,0.65
5240.00,0.65
5239.00,0.65
5238.00,0.65
5237.00,0.65
5236.00,0.65
5235.00,0.65
5234.00,0.65
5233.00,0.65
5232.00,0.65
5231.00,0.65
5230.00,0.65
5229.00,0.65
5228.00,0.65
5227.00,0.65
5226.00,0.65
5225.00,0.65
5224.00,0.65
5223.00,0.65
5222.00,0.65
5221.00,0.65
5220.00,0.65
5219.00,0.65
5218.00,0.65
5217.00,0.65
5216.00,0.65
5215.00,0.65
5214.00,0.66
5213.00,0.66
5212.00,0.66
5211.00,0.66
5210.00,0.66
5209.00,0.66
5208.00,0.66
5207.00,0.66
5206.00,0.66
5205.00,0.66
5204.00,0.66
5203.00,0.66
5202.00,0.66
5201.00,0.66
5200.00,0.66
5199.00,0.66
5198.00,0.66
5197.00,0.66
5196.00,0.66
5195.00,0.66
5194.00,0.66
5193.00,0.67
5192.00,0.67
5191.00,0.67
5190.00,0.67
5189.00,0.67
5188.00,0.67
5187.00,0.67
5186.00,0.67
5185.00,0.67
5184.00,0.67
5183.00,0.67
5182.00,0.67
5181.00,0.67
5180.00,0.67
5179.00,0.67
5178.00,0.67
5177.00,0.67
5176.00,0.67
5175.00,0.67
5174.00,0.67
5173.00,0.67
5172.00,0.67
5171.00,0.67
5170.00,0.67
5169.00,0.67
5168.00,0.67
5167.00,0.67
5166.00,0.67
5165.00,0.67
5164.00,0.67
5163.00,0.67
5162.00,0.67
5161.00,0.67
5160.00,0.67
5159.00,0.67
5158.00,0.68
5157.00,0.68
5156.00,0.68
5155.00,0.68
5154.00,0.68
5153.00,0.68
5152.00,0.68
5151.00,0.68
5150.00,0.68
5149.00,0.68
5148.00,0.68
5147.00,0.68
5146.00,0.68
5145.00,0.68
5144.00,0.68
5143.00,0.68
5142.00,0.68
5141.00,0.68
5140.00,0.68
5139.00,0.68
5138.00,0.68
5137.00,0.68
5136.00,0.68
5135.00,0.68
5134.00,0.68
5133.00,0.68
5132.00,0.69
5131.00,0.69
5130.00,0.69
5129.00,0.69
5128.00,0.69
5127.00,0.69
5126.00,0.69
5125.00,0.69
5124.00,0.69
5123.00,0.69
5122.00,0.69
5121.00,0.69
5120.00,0.69
5119.00,0.69
5118.00,0.69
5117.00,0.69
5116.00,0.69
5115.00,0.69
5114.00,0.69
5113.00,0.70
5112.00,0.70
5111.00,0.70
5110.00,0.70
5109.00,0.70
5108.00,0.70
5107.00,0.70
5106.00,0.70
5105.00,0.70
5104.00,0.70
5103.00,0.70
5102.00,0.70
5101.00,0.70
5100.00,0.70
5099.00,0.70
5098.00,0.70
5097.00,0.70
5096.00,0.70
5095.00,0.70
5094.00,0.70
5093.00,0.70
5092.00,0.70
5091.00,0.71
5090.00,0.71
5089.00,0.71
5088.00,0.71
5087.00,0.71
5086.00,0.71
5085.00,0.71
5084.00,0.71
5083.00,0.71
5082.00,0.71
5081.00,0.71
5080.00,0.72
5079.00,0.72
5078.00,0.72
5077.00,0.72
5076.00,0.72
5075.00,0.72
5074.00,0.72
5073.00,0.72
5072.00,0.72
5071.00,0.72
5070.00,0.72
5069.00,0.72
5068.00,0.72
5067.00,0.72
5066.00,0.72
5065.00,0.72
5064.00,0.72
5063.00,0.72
5062.00,0.72
5061.00,0.72
5060.00,0.72
5059.00,0.72
5058.00,0.72
5057.00,0.72
5056.00,0.72
5055.00,0.72
5054.00,0.73
5053.00,0.73
5052.00,0.73
5051.00,0.73
5050.00,0.73
5049.00,0.73
5048.00,0.73
5047.00,0.73
5046.00,0.73
5045.00,0.73
5044.00,0.74
5043.00,0.74
5042.00,0.74
5041.00,0.74
5040.00,0.74
5039.00,0.74
5038.00,0.74
5037.00,0.74
5036.00,0.74
5035.00,0.74
5034.00,0.74
5033.00,0.75
5032.00,0.75
5031.00,0.75
5030.00,0.75
5029.00,0.75
5028.00,0.75
5027.00,0.75
5026.00,0.75
5025.00,0.75
5024.00,0.75
5023.00,0.75
5022.00,0.76
5021.00,0.76
5020.00,0.76
5019.00,0.76
5018.00,0.76
5017.00,0.76
5016.00,0.76
5015.00,0.76
5014.00,0.76
5013.00,0.76
5012.00,0.76
5011.00,0.77
5010.00,0.77
5009.00,0.77
5008.00,0.77
5007.00,0.77
5006.00,0.77
5005.00,0.77
5004.00,0.77
5003.00,0.77
5002.00,0.77
5001.00,0.77
5000.00,0.77
4999.00,0.77
4998.00,0.77
4997.00,0.77
4996.00,0.78
4995.00,0.78
4994.00,0.78
4993.00,0.78
4992.00,0.78
4991.00,0.78
4990.00,0.78
4989.00,0.78
4988.00,0.78
4987.00,0.78
4986.00,0.78
4985.00,0.79
4984.00,0.79
4983.00,0.79
4982.00,0.79
4981.00,0.79
4980.00,0.79
4979.00,0.79
4978.00,0.79
4977.00,0.79
4976.00,0.79
4975.00,0.79
4974.00,0.80
4973.00,0.80
4972.00,0.80
4971.00,0.80
4970.00,0.80
4969.00,0.80
4968.00,0.80
4967.00,0.80
4966.00,0.80
4965.00,0.80
4964.00,0.80
4963.00,0.81
4962.00,0.81
4961.00,0.81
4960.00,0.81
4959.00,0.81
4958.00,0.81
4957.00,0.81
4956.00,0.81
4955.00,0.81
4954.00,0.81
4953.00,0.81
4952.00,0.81
4951.00,0.81
4950.00,0.82
4949.00,0.82
4948.00,0.82
4947.00,0.82
4946.00,0.82
4945.00,0.82
4944.00,0.82
4943.00,0.82
4942.00,0.83
4941.00,0.83
4940.00,0.83
4939.00,0.83
4938.00,0.83
4937.00,0.83
4936.00,0.83
4935.00,0.83
4934.00,0.83
4933.00,0.83
4932.00,0.83
4931.00,0.83
4930.00,0.83
4929.00,0.83
4928.00,0.84
4927.00,0.84
4926.00,0.84
4925.00,0.84
4924.00,0.84
4923.00,0.84
4922.00,0.84
4921.00,0.84
4920.00,0.84
4919.00,0.84
4918.00,0.84
4917.00,0.84
4916.00,0.84
4915.00,0.84
4914.00,0.84
4913.00,0.84
4912.00,0.84
4911.00,0.84
4910.00,0.84
4909.00,0.84
4908.00,0.85
4907.00,0.85
4906.00,0.85
4905.00,0.85
4904.00,0.85
4903.00,0.85
4902.00,0.85
4901.00,0.85
4900.00,0.85
4899.00,0.86
4898.00,0.86
4897.00,0.86
4896.00,0.86
4895.00,0.86
4894.00,0.86
4893.00,0.86
4892.00,0.86
4891.00,0.86
4890.00,0.86
4889.00,0.86
4888.00,0.87
4887.00,0.87
4886.00,0.87
4885.00,0.87
4884.00,0.87
4883.00,0.87
4882.00,0.87
4881.00,0.87
4880.00,0.87
4879.00,0.87
4878.00,0.87
4877.00,0.87
4876.00,0.87
4875.00,0.87
4874.00,0.87
4873.00,0.87
4872.00,0.87
4871.00,0.87
4870.00,0.87
4869.00,0.87
4868.00,0.87
4867.00,0.87
4866.00,0.87
4865.00,0.87
4864.00,0.87
4863.00,0.87
4862.00,0.87
4861.00,0.88
4860.00,0.88
4859.00,0.88
4858.00,0.88
4857.00,0.88
4856.00,0.88
4855.00,0.88
4854.00,0.88
4853.00,0.88
4852.00,0.88
4851.00,0.88
4850.00,0.88
4849.00,0.88
4848.00,0.88
4847.00,0.88
4846.00,0.88
4845.00,0.89
4844.00,0.89
4843.00,0.89
4842.00,0.89
4841.00,0.89
4840.00,0.89
4839.00,0.89
4838.00,0.89
4837.00,0.89
4836.00,0.89
4835.00,0.90
4834.00,0.90
4833.00,0.90
4832.00,0.90
4831.00,0.90
4830.00,0.90
4829.00,0.90
4828.00,0.90
4827.00,0.91
4826.00,0.91
4825.00,0.91
4824.00,0.91
4823.00,0.91
4822.00,0.91
4821.00,0.91
4820.00,0.91
4819.00,0.91
4818.00,0.91
4817.00,0.91
4816.00,0.91
4815.00,0.91
4814.00,0.91
4813.00,0.91
4812.00,0.91
4811.00,0.91
4810.00,0.91
4809.00,0.92
4808.00,0.92
4807.00,0.92
4806.00,0.92
4805.00,0.92
4804.00,0.92
4803.00,0.92
4802.00,0.92
4801.00,0.92
4800.00,0.93
4799.00,0.93
4798.00,0.93
4797.00,0.93
4796.00,0.93
4795.00,0.93
4794.00,0.93
4793.00,0.93
4792.00,0.93
4791.00,0.94
4790.00,0.94
4789.00,0.94
4788.00,0.94
4787.00,0.94
4786.00,0.94
4785.00,0.94
4784.00,0.94
4783.00,0.95
4782.00,0.95
4781.00,0.95
4780.00,0.95
4779.00,0.95
4778.00,0.95
4777.00,0.95
4776.00,0.96
4775.00,0.96
4774.00,0.96
4773.00,0.96
4772.00,0.96
4771.00,0.96
4770.00,0.97
4769.00,0.97
4768.00,0.97
4767.00,0.97
4766.00,0.97
4765.00,0.97
4764.00,0.97
4763.00,0.98
4762.00,0.98
4761.00,0.98
4760.00,0.98
4759.00,0.98
4758.00,0.98
4757.00,0.98
4756.00,0.98
4755.00,0.99
4754.00,0.99
4753.00,0.99
4752.00,0.99
4751.00,0.99
4750.00,0.99
4749.00,0.99
4748.00,0.99
4747.00,1.00
4746.00,1.00
4745.00,1.00
4744.00,1.00
4743.00,1.00
4742.00,1.00
4741.00,1.01
4740.00,1.01
4739.00,1.01
4738.00,1.01
4737.00,1.01
4736.00,1.01
4735.00,1.02
4734.00,1.02
4733.00,1.02
4732.00,1.02
4731.00,1.02
4730.00,1.03
4729.00,1.03
4728.00,1.03
4727.00,1.03
4726.00,1.03
4725.00,1.03
4724.00,1.04
4723.00,1.04
4722.00,1.04
4721.00,1.04
4720.00,1.04
4719.00,1.04
4718.00,1.04
4717.00,1.04
4716.00,1.05
4715.00,1.05
4714.00,1.05
4713.00,1.05
4712.00,1.05
4711.00,1.05
4710.00,1.05
4709.00,1.06
4708.00,1.06
4707.00,1.06
4706.00,1.06
4705.00,1.06
4704.00,1.06
4703.00,1.06
4702.00,1.06
4701.00,1.07
4700.00,1.07
4699.00,1.07
4698.00,1.07
4697.00,1.07
4696.00,1.07
4695.00,1.07
4694.00,1.08
4693.00,1.08
4692.00,1.08
4691.00,1.08
4690.00,1.08
4689.00,1.08
4688.00,1.09
4687.00,1.09
4686.00,1.09
4685.00,1.09
4684.00,1.09
4683.00,1.10
4682.00,1.10
4681.00,1.10
4680.00,1.10
4679.00,1.10
4678.00,1.10
4677.00,1.11
4676.00,1.11
4675.00,1.11
4674.00,1.11
4673.00,1.11
4672.00,1.11
4671.00,1.12
4670.00,1.12
4669.00,1.12
4668.00,1.12
4667.00,1.12
4666.00,1.12
4665.00,1.13
4664.00,1.13
4663.00,1.13
4662.00,1.13
4661.00,1.13
4660.00,1.13
4659.00,1.13
4658.00,1.13
4657.00,1.13
4656.00,1.13
4655.00,1.13
4654.00,1.14
4653.00,1.14
4652.00,1.14
4651.00,1.14
4650.00,1.14
4649.00,1.14
4648.00,1.14
4647.00,1.14
4646.00,1.14
4645.00,1.14
4644.00,1.15
4643.00,1.15
4642.00,1.15
4641.00,1.15
4640.00,1.15
4639.00,1.15
4638.00,1.16
4637.00,1.16
4636.00,1.16
4635.00,1.16
4634.00,1.16
4633.00,1.16
4632.00,1.17
4631.00,1.17
4630.00,1.17
4629.00,1.17
4628.00,1.17
4627.00,1.17
4626.00,1.17
4625.00,1.17
4624.00,1.18
4623.00,1.18
4622.00,1.18
4621.00,1.18
4620.00,1.18
4619.00,1.18
4618.00,1.18
4617.00,1.18
4616.00,1.18
4615.00,1.18
4614.00,1.18
4613.00,1.18
4612.00,1.19
4611.00,1.19
4610.00,1.19
4609.00,1.19
4608.00,1.19
4607.00,1.19
4606.00,1.19
4605.00,1.19
4604.00,1.19
4603.00,1.19
4602.00,1.19
4601.00,1.19
4600.00,1.19
4599.00,1.19
4598.00,1.20
4597.00,1.20
4596.00,1.20
4595.00,1.20
4594.00,1.20
4593.00,1.20
4592.00,1.20
4591.00,1.20
4590.00,1.21
4589.00,1.21
4588.00,1.21
4587.00,1.21
4586.00,1.21
4585.00,1.21
4584.00,1.22
4583.00,1.22
4582.00,1.22
4581.00,1.22
4580.00,1.22
4579.00,1.22
4578.00,1.22
4577.00,1.22
4576.00,1.23
4575.00,1.23
4574.00,1.23
4573.00,1.23
4572.00,1.23
4571.00,1.23
4570.00,1.23
4569.00,1.23
4568.00,1.23
4567.00,1.23
4566.00,1.24
4565.00,1.24
4564.00,1.24
4563.00,1.24
4562.00,1.24
4561.00,1.24
4560.00,1.24
4559.00,1.25
4558.00,1.25
4557.00,1.25
4556.00,1.25
4555.00,1.25
4554.00,1.25
4553.00,1.26
4552.00,1.26
4551.00,1.26
4550.00,1.26
4549.00,1.26
4548.00,1.26
4547.00,1.26
4546.00,1.26
4545.00,1.26
4544.00,1.26
4543.00,1.26
4542.00,1.26
4541.00,1.26
4540.00,1.26
4539.00,1.26
4538.00,1.26
4537.00,1.26
4536.00,1.26
4535.00,1.26
4534.00,1.26
4533.00,1.26
4532.00,1.26
4531.00,1.26
4530.00,1.27
4529.00,1.27
4528.00,1.27
4527.00,1.27
4526.00,1.27
4525.00,1.27
4524.00,1.27
4523.00,1.27
4522.00,1.27
4521.00,1.27
4520.00,1.27
4519.00,1.27
4518.00,1.28
4517.00,1.28
4516.00,1.28
4515.00,1.28
4514.00,1.28
4513.00,1.28
4512.00,1.28
4511.00,1.28
4510.00,1.28
4509.00,1.28
4508.00,1.28
4507.00,1.28
4506.00,1.28
4505.00,1.28
4504.00,1.28
4503.00,1.28
4502.00,1.28
4501.00,1.28
4500.00,1.28
4499.00,1.27
4498.00,1.27
4497.00,1.27
4496.00,1.27
4495.00,1.27
4494.00,1.27
4493.00,1.27
4492.00,1.27
4491.00,1.27
4490.00,1.27
4489.00,1.27
4488.00,1.27
4487.00,1.27
4486.00,1.27
4485.00,1.26
4484.00,1.26
4483.00,1.26
4482.00,1.26
4481.00,1.26
4480.00,1.26
4479.00,1.26
4478.00,1.26
4477.00,1.25
4476.00,1.25
4475.00,1.25
4474.00,1.25
4473.00,1.25
4472.00,1.24
4471.00,1.24
4470.00,1.24
4469.00,1.24
4468.00,1.23
4467.00,1.23
4466.00,1.23
4465.00,1.22
4464.00,1.22
4463.00,1.22
4462.00,1.21
4461.00,1.21
4460.00,1.20
4459.00,1.20
4458.00,1.20
4457.00,1.19
4456.00,1.19
4455.00,1.18
4454.00,1.18
4453.00,1.18
4452.00,1.17
4451.00,1.17
4450.00,1.16
4449.00,1.16
4448.00,1.16
4447.00,1.15
4446.00,1.15
4445.00,1.14
4444.00,1.14
4443.00,1.13
4442.00,1.13
4441.00,1.12
4440.00,1.12
4439.00,1.12
4438.00,1.11
4437.00,1.11
4436.00,1.10
4435.00,1.10
4434.00,1.10
4433.00,1.09
4432.00,1.09
4431.00,1.09
4430.00,1.09
4429.00,1.08
4428.00,1.08
4427.00,1.08
4426.00,1.08
4425.00,1.08
4424.00,1.08
4423.00,1.08
4422.00,1.08
4421.00,1.07
4420.00,1.07
4419.00,1.07
4418.00,1.07
4417.00,1.07
4416.00,1.07
4415.00,1.07
4414.00,1.07
4413.00,1.07
4412.00,1.07
4411.00,1.08
4410.00,1.08
4409.00,1.08
4408.00,1.08
4407.00,1.08
4406.00,1.08
4405.00,1.08
4404.00,1.08
4403.00,1.08
4402.00,1.08
4401.00,1.08
4400.00,1.08
4399.00,1.08
4398.00,1.08
4397.00,1.09
4396.00,1.09
4395.00,1.09
4394.00,1.09
4393.00,1.09
4392.00,1.09
4391.00,1.09
4390.00,1.09
4389.00,1.09
4388.00,1.09
4387.00,1.09
4386.00,1.09
4385.00,1.10
4384.00,1.10
4383.00,1.10
4382.00,1.10
4381.00,1.10
4380.00,1.10
4379.00,1.10
4378.00,1.11
4377.00,1.11
4376.00,1.11
4375.00,1.11
4374.00,1.11
4373.00,1.11
4372.00,1.11
4371.00,1.11
4370.00,1.11
4369.00,1.11
4368.00,1.11
4367.00,1.11
4366.00,1.11
4365.00,1.11
4364.00,1.11
4363.00,1.11
4362.00,1.11
4361.00,1.11
4360.00,1.11
4359.00,1.11
4358.00,1.11
4357.00,1.11
4356.00,1.11
4355.00,1.11
4354.00,1.11
4353.00,1.11
4352.00,1.11
4351.00,1.11
4350.00,1.11
4349.00,1.11
4348.00,1.11
4347.00,1.11
4346.00,1.11
4345.00,1.11
4344.00,1.11
4343.00,1.11
4342.00,1.11
4341.00,1.11
4340.00,1.11
4339.00,1.11
4338.00,1.11
4337.00,1.11
4336.00,1.11
4335.00,1.11
4334.00,1.12
4333.00,1.12
4332.00,1.12
4331.00,1.12
4330.00,1.12
4329.00,1.12
4328.00,1.12
4327.00,1.12
4326.00,1.12
4325.00,1.12
4324.00,1.13
4323.00,1.13
4322.00,1.13
4321.00,1.13
4320.00,1.13
4319.00,1.13
4318.00,1.14
4317.00,1.14
4316.00,1.14
4315.00,1.14
4314.00,1.15
4313.00,1.15
4312.00,1.15
4311.00,1.15
4310.00,1.15
4309.00,1.16
4308.00,1.16
4307.00,1.16
4306.00,1.16
4305.00,1.17
4304.00,1.17
4303.00,1.17
4302.00,1.17
4301.00,1.17
4300.00,1.17
4299.00,1.18
4298.00,1.18
4297.00,1.18
4296.00,1.18
4295.00,1.18
4294.00,1.18
4293.00,1.18
4292.00,1.19
4291.00,1.19
4290.00,1.19
4289.00,1.19
4288.00,1.19
4287.00,1.19
4286.00,1.19
4285.00,1.19
4284.00,1.19
4283.00,1.20
4282.00,1.20
4281.00,1.20
4280.00,1.20
4279.00,1.20
4278.00,1.20
4277.00,1.20
4276.00,1.20
4275.00,1.20
4274.00,1.20
4273.00,1.20
4272.00,1.19
4271.00,1.19
4270.00,1.19
4269.00,1.19
4268.00,1.19
4267.00,1.19
4266.00,1.19
4265.00,1.19
4264.00,1.19
4263.00,1.19
4262.00,1.19
4261.00,1.19
4260.00,1.19
4259.00,1.19
4258.00,1.19
4257.00,1.19
4256.00,1.19
4255.00,1.20
4254.00,1.20
4253.00,1.20
4252.00,1.20
4251.00,1.20
4250.00,1.20
4249.00,1.20
4248.00,1.20
4247.00,1.20
4246.00,1.21
4245.00,1.21
4244.00,1.21
4243.00,1.21
4242.00,1.21
4241.00,1.21
4240.00,1.21
4239.00,1.21
4238.00,1.21
4237.00,1.21
4236.00,1.21
4235.00,1.21
4234.00,1.21
4233.00,1.21
4232.00,1.21
4231.00,1.21
4230.00,1.21
4229.00,1.21
4228.00,1.21
4227.00,1.21
4226.00,1.21
4225.00,1.21
4224.00,1.21
4223.00,1.22
4222.00,1.22
4221.00,1.22
4220.00,1.22
4219.00,1.22
4218.00,1.22
4217.00,1.22
4216.00,1.23
4215.00,1.23
4214.00,1.23
4213.00,1.23
4212.00,1.23
4211.00,1.23
4210.00,1.23
4209.00,1.23
4208.00,1.23
4207.00,1.23
4206.00,1.23
4205.00,1.23
4204.00,1.23
4203.00,1.23
4202.00,1.23
4201.00,1.24
4200.00,1.24
4199.00,1.24
4198.00,1.24
4197.00,1.24
4196.00,1.24
4195.00,1.24
4194.00,1.24
4193.00,1.24
4192.00,1.24
4191.00,1.24
4190.00,1.24
4189.00,1.24
4188.00,1.25
4187.00,1.25
4186.00,1.25
4185.00,1.25
4184.00,1.24
4183.00,1.24
4182.00,1.24
4181.00,1.24
4180.00,1.24
4179.00,1.24
4178.00,1.24
4177.00,1.24
4176.00,1.24
4175.00,1.24
4174.00,1.24
4173.00,1.24
4172.00,1.24
4171.00,1.24
4170.00,1.24
4169.00,1.24
4168.00,1.24
4167.00,1.24
4166.00,1.24
4165.00,1.24
4164.00,1.24
4163.00,1.24
4162.00,1.25
4161.00,1.25
4160.00,1.25
4159.00,1.25
4158.00,1.25
4157.00,1.25
4156.00,1.25
4155.00,1.26
4154.00,1.26
4153.00,1.26
4152.00,1.26
4151.00,1.26
4150.00,1.26
4149.00,1.26
4148.00,1.26
4147.00,1.26
4146.00,1.26
4145.00,1.26
4144.00,1.26
4143.00,1.26
4142.00,1.26
4141.00,1.26
4140.00,1.26
4139.00,1.26
4138.00,1.26
4137.00,1.26
4136.00,1.26
4135.00,1.26
4134.00,1.26
4133.00,1.26
4132.00,1.26
4131.00,1.26
4130.00,1.26
4129.00,1.26
4128.00,1.26
4127.00,1.26
4126.00,1.26
4125.00,1.26
4124.00,1.26
4123.00,1.26
4122.00,1.27
4121.00,1.27
4120.00,1.27
4119.00,1.27
4118.00,1.27
4117.00,1.28
4116.00,1.28
4115.00,1.28
4114.00,1.28
4113.00,1.28
4112.00,1.28
4111.00,1.28
4110.00,1.28
4109.00,1.28
4108.00,1.28
4107.00,1.28
4106.00,1.28
4105.00,1.28
4104.00,1.28
4103.00,1.28
4102.00,1.28
4101.00,1.28
4100.00,1.28
4099.00,1.28
4098.00,1.28
4097.00,1.28
4096.00,1.28
4095.00,1.28
4094.00,1.28
4093.00,1.28
4092.00,1.28
4091.00,1.28
4090.00,1.28
4089.00,1.28
4088.00,1.28
4087.00,1.28
4086.00,1.29
4085.00,1.29
4084.00,1.29
4083.00,1.29
4082.00,1.29
4081.00,1.29
4080.00,1.29
4079.00,1.29
4078.00,1.29
4077.00,1.30
4076.00,1.30
4075.00,1.30
4074.00,1.30
4073.00,1.30
4072.00,1.30
4071.00,1.30
4070.00,1.30
4069.00,1.30
4068.00,1.30
4067.00,1.30
4066.00,1.30
4065.00,1.30
4064.00,1.30
4063.00,1.30
4062.00,1.31
4061.00,1.31
4060.00,1.31
4059.00,1.31
4058.00,1.31
4057.00,1.31
4056.00,1.31
4055.00,1.31
4054.00,1.31
4053.00,1.31
4052.00,1.31
4051.00,1.31
4050.00,1.31
4049.00,1.31
4048.00,1.31
4047.00,1.31
4046.00,1.31
4045.00,1.31
4044.00,1.31
4043.00,1.31
4042.00,1.31
4041.00,1.31
4040.00,1.31
4039.00,1.31
4038.00,1.31
4037.00,1.32
4036.00,1.32
4035.00,1.32
4034.00,1.32
4033.00,1.32
4032.00,1.32
4031.00,1.32
4030.00,1.32
4029.00,1.32
4028.00,1.32
4027.00,1.33
4026.00,1.33
4025.00,1.33
4024.00,1.33
4023.00,1.33
4022.00,1.33
4021.00,1.33
4020.00,1.33
4019.00,1.34
4018.00,1.34
4017.00,1.34
4016.00,1.34
4015.00,1.34
4014.00,1.34
4013.00,1.35
4012.00,1.35
4011.00,1.35
4010.00,1.35
4009.00,1.35
4008.00,1.36
4007.00,1.36
4006.00,1.36
4005.00,1.37
4004.00,1.37
4003.00,1.37
4002.00,1.37
4001.00,1.38
4000.00,1.38
