创建为新数据集,样品 009 用户 Administrator 日期 星期二, 十月 31 2017
cm-1,%T
10000.00,1.50
9999.00,1.50
9998.00,1.50
9997.00,1.50
9996.00,1.49
9995.00,1.49
9994.00,1.49
9993.00,1.49
9992.00,1.48
9991.00,1.48
9990.00,1.48
9989.00,1.48
9988.00,1.48
9987.00,1.48
9986.00,1.48
9985.00,1.48
9984.00,1.48
9983.00,1.48
9982.00,1.48
9981.00,1.49
9980.00,1.49
9979.00,1.49
9978.00,1.49
9977.00,1.49
9976.00,1.49
9975.00,1.50
9974.00,1.50
9973.00,1.50
9972.00,1.50
9971.00,1.50
9970.00,1.50
9969.00,1.50
9968.00,1.50
9967.00,1.50
9966.00,1.50
9965.00,1.50
9964.00,1.50
9963.00,1.50
9962.00,1.50
9961.00,1.50
9960.00,1.49
9959.00,1.49
9958.00,1.49
9957.00,1.49
9956.00,1.49
9955.00,1.49
9954.00,1.49
9953.00,1.49
9952.00,1.48
9951.00,1.48
9950.00,1.48
9949.00,1.48
9948.00,1.48
9947.00,1.48
9946.00,1.48
9945.00,1.48
9944.00,1.48
9943.00,1.48
9942.00,1.48
9941.00,1.48
9940.00,1.49
9939.00,1.49
9938.00,1.49
9937.00,1.49
9936.00,1.49
9935.00,1.49
9934.00,1.50
9933.00,1.50
9932.00,1.50
9931.00,1.50
9930.00,1.50
9929.00,1.50
9928.00,1.50
9927.00,1.50
9926.00,1.50
9925.00,1.50
9924.00,1.50
9923.00,1.50
9922.00,1.50
9921.00,1.50
9920.00,1.50
9919.00,1.50
9918.00,1.49
9917.00,1.49
9916.00,1.49
9915.00,1.49
9914.00,1.48
9913.00,1.48
9912.00,1.48
9911.00,1.48
9910.00,1.47
9909.00,1.47
9908.00,1.47
9907.00,1.46
9906.00,1.46
9905.00,1.46
9904.00,1.45
9903.00,1.45
9902.00,1.45
9901.00,1.45
9900.00,1.44
9899.00,1.44
9898.00,1.44
9897.00,1.44
9896.00,1.44
9895.00,1.44
9894.00,1.44
9893.00,1.44
9892.00,1.44
9891.00,1.44
9890.00,1.45
9889.00,1.45
9888.00,1.45
9887.00,1.46
9886.00,1.46
9885.00,1.46
9884.00,1.47
9883.00,1.47
9882.00,1.48
9881.00,1.48
9880.00,1.48
9879.00,1.48
9878.00,1.49
9877.00,1.49
9876.00,1.49
9875.00,1.49
9874.00,1.49
9873.00,1.49
9872.00,1.49
9871.00,1.48
9870.00,1.48
9869.00,1.48
9868.00,1.48
9867.00,1.48
9866.00,1.47
9865.00,1.47
9864.00,1.47
9863.00,1.47
9862.00,1.47
9861.00,1.47
9860.00,1.47
9859.00,1.47
9858.00,1.47
9857.00,1.47
9856.00,1.47
9855.00,1.48
9854.00,1.48
9853.00,1.48
9852.00,1.48
9851.00,1.48
9850.00,1.48
9849.00,1.48
9848.00,1.48
9847.00,1.48
9846.00,1.48
9845.00,1.48
9844.00,1.47
9843.00,1.47
9842.00,1.47
9841.00,1.47
9840.00,1.47
9839.00,1.47
9838.00,1.47
9837.00,1.47
9836.00,1.47
9835.00,1.47
9834.00,1.47
9833.00,1.47
9832.00,1.47
9831.00,1.47
9830.00,1.47
9829.00,1.47
9828.00,1.48
9827.00,1.48
9826.00,1.48
9825.00,1.48
9824.00,1.48
9823.00,1.48
9822.00,1.48
9821.00,1.48
9820.00,1.48
9819.00,1.48
9818.00,1.48
9817.00,1.48
9816.00,1.47
9815.00,1.47
9814.00,1.47
9813.00,1.47
9812.00,1.46
9811.00,1.46
9810.00,1.46
9809.00,1.46
9808.00,1.45
9807.00,1.45
9806.00,1.45
9805.00,1.45
9804.00,1.44
9803.00,1.44
9802.00,1.44
9801.00,1.44
9800.00,1.44
9799.00,1.44
9798.00,1.44
9797.00,1.44
9796.00,1.44
9795.00,1.44
9794.00,1.44
9793.00,1.44
9792.00,1.44
9791.00,1.45
9790.00,1.45
9789.00,1.45
9788.00,1.45
9787.00,1.46
9786.00,1.46
9785.00,1.46
9784.00,1.46
9783.00,1.46
9782.00,1.47
9781.00,1.47
9780.00,1.47
9779.00,1.47
9778.00,1.48
9777.00,1.48
9776.00,1.48
9775.00,1.48
9774.00,1.48
9773.00,1.49
9772.00,1.49
9771.00,1.49
9770.00,1.49
9769.00,1.49
9768.00,1.50
9767.00,1.50
9766.00,1.50
9765.00,1.50
9764.00,1.50
9763.00,1.50
9762.00,1.50
9761.00,1.50
9760.00,1.50
9759.00,1.49
9758.00,1.49
9757.00,1.49
9756.00,1.49
9755.00,1.49
9754.00,1.48
9753.00,1.48
9752.00,1.48
9751.00,1.48
9750.00,1.48
9749.00,1.48
9748.00,1.48
9747.00,1.48
9746.00,1.48
9745.00,1.47
9744.00,1.47
9743.00,1.47
9742.00,1.47
9741.00,1.47
9740.00,1.47
9739.00,1.47
9738.00,1.47
9737.00,1.47
9736.00,1.47
9735.00,1.47
9734.00,1.47
9733.00,1.47
9732.00,1.47
9731.00,1.47
9730.00,1.47
9729.00,1.47
9728.00,1.48
9727.00,1.48
9726.00,1.48
9725.00,1.48
9724.00,1.48
9723.00,1.48
9722.00,1.48
9721.00,1.48
9720.00,1.48
9719.00,1.49
9718.00,1.49
9717.00,1.49
9716.00,1.49
9715.00,1.49
9714.00,1.48
9713.00,1.48
9712.00,1.48
9711.00,1.48
9710.00,1.48
9709.00,1.48
9708.00,1.48
9707.00,1.48
9706.00,1.48
9705.00,1.48
9704.00,1.47
9703.00,1.47
9702.00,1.47
9701.00,1.47
9700.00,1.47
9699.00,1.47
9698.00,1.47
9697.00,1.47
9696.00,1.47
9695.00,1.47
9694.00,1.47
9693.00,1.47
9692.00,1.47
9691.00,1.47
9690.00,1.47
9689.00,1.47
9688.00,1.47
9687.00,1.47
9686.00,1.47
9685.00,1.47
9684.00,1.48
9683.00,1.48
9682.00,1.48
9681.00,1.48
9680.00,1.48
9679.00,1.48
9678.00,1.48
9677.00,1.48
9676.00,1.48
9675.00,1.48
9674.00,1.48
9673.00,1.47
9672.00,1.47
9671.00,1.47
9670.00,1.47
9669.00,1.47
9668.00,1.46
9667.00,1.46
9666.00,1.46
9665.00,1.46
9664.00,1.46
9663.00,1.46
9662.00,1.46
9661.00,1.46
9660.00,1.46
9659.00,1.46
9658.00,1.46
9657.00,1.46
9656.00,1.46
9655.00,1.47
9654.00,1.47
9653.00,1.47
9652.00,1.47
9651.00,1.47
9650.00,1.48
9649.00,1.48
9648.00,1.48
9647.00,1.48
9646.00,1.48
9645.00,1.48
9644.00,1.48
9643.00,1.48
9642.00,1.48
9641.00,1.49
9640.00,1.49
9639.00,1.49
9638.00,1.49
9637.00,1.49
9636.00,1.49
9635.00,1.49
9634.00,1.49
9633.00,1.49
9632.00,1.49
9631.00,1.49
9630.00,1.49
9629.00,1.49
9628.00,1.49
9627.00,1.49
9626.00,1.49
9625.00,1.49
9624.00,1.50
9623.00,1.50
9622.00,1.50
9621.00,1.50
9620.00,1.50
9619.00,1.50
9618.00,1.50
9617.00,1.50
9616.00,1.50
9615.00,1.50
9614.00,1.50
9613.00,1.50
9612.00,1.50
9611.00,1.50
9610.00,1.50
9609.00,1.50
9608.00,1.50
9607.00,1.49
9606.00,1.49
9605.00,1.49
9604.00,1.49
9603.00,1.49
9602.00,1.48
9601.00,1.48
9600.00,1.48
9599.00,1.48
9598.00,1.47
9597.00,1.47
9596.00,1.47
9595.00,1.47
9594.00,1.46
9593.00,1.46
9592.00,1.46
9591.00,1.46
9590.00,1.46
9589.00,1.46
9588.00,1.46
9587.00,1.46
9586.00,1.46
9585.00,1.46
9584.00,1.46
9583.00,1.47
9582.00,1.47
9581.00,1.47
9580.00,1.47
9579.00,1.47
9578.00,1.48
9577.00,1.48
9576.00,1.48
9575.00,1.48
9574.00,1.48
9573.00,1.49
9572.00,1.49
9571.00,1.49
9570.00,1.49
9569.00,1.49
9568.00,1.49
9567.00,1.49
9566.00,1.49
9565.00,1.49
9564.00,1.49
9563.00,1.49
9562.00,1.48
9561.00,1.48
9560.00,1.48
9559.00,1.48
9558.00,1.48
9557.00,1.48
9556.00,1.47
9555.00,1.47
9554.00,1.47
9553.00,1.47
9552.00,1.47
9551.00,1.47
9550.00,1.47
9549.00,1.47
9548.00,1.47
9547.00,1.47
9546.00,1.47
9545.00,1.47
9544.00,1.47
9543.00,1.47
9542.00,1.47
9541.00,1.47
9540.00,1.48
9539.00,1.48
9538.00,1.48
9537.00,1.48
9536.00,1.48
9535.00,1.48
9534.00,1.49
9533.00,1.49
9532.00,1.49
9531.00,1.49
9530.00,1.49
9529.00,1.49
9528.00,1.49
9527.00,1.50
9526.00,1.50
9525.00,1.50
9524.00,1.50
9523.00,1.50
9522.00,1.50
9521.00,1.50
9520.00,1.50
9519.00,1.50
9518.00,1.50
9517.00,1.50
9516.00,1.50
9515.00,1.50
9514.00,1.50
9513.00,1.50
9512.00,1.50
9511.00,1.50
9510.00,1.50
9509.00,1.50
9508.00,1.49
9507.00,1.49
9506.00,1.49
9505.00,1.49
9504.00,1.49
9503.00,1.49
9502.00,1.48
9501.00,1.48
9500.00,1.48
9499.00,1.48
9498.00,1.48
9497.00,1.48
9496.00,1.48
9495.00,1.48
9494.00,1.48
9493.00,1.48
9492.00,1.48
9491.00,1.48
9490.00,1.48
9489.00,1.48
9488.00,1.48
9487.00,1.48
9486.00,1.48
9485.00,1.48
9484.00,1.48
9483.00,1.48
9482.00,1.48
9481.00,1.48
9480.00,1.47
9479.00,1.47
9478.00,1.47
9477.00,1.47
9476.00,1.47
9475.00,1.47
9474.00,1.47
9473.00,1.46
9472.00,1.46
9471.00,1.46
9470.00,1.46
9469.00,1.46
9468.00,1.46
9467.00,1.46
9466.00,1.45
9465.00,1.45
9464.00,1.45
9463.00,1.45
9462.00,1.46
9461.00,1.46
9460.00,1.46
9459.00,1.46
9458.00,1.46
9457.00,1.46
9456.00,1.46
9455.00,1.47
9454.00,1.47
9453.00,1.47
9452.00,1.47
9451.00,1.47
9450.00,1.47
9449.00,1.47
9448.00,1.47
9447.00,1.47
9446.00,1.47
9445.00,1.47
9444.00,1.47
9443.00,1.47
9442.00,1.47
9441.00,1.47
9440.00,1.47
9439.00,1.47
9438.00,1.47
9437.00,1.47
9436.00,1.47
9435.00,1.47
9434.00,1.47
9433.00,1.46
9432.00,1.46
9431.00,1.46
9430.00,1.46
9429.00,1.46
9428.00,1.46
9427.00,1.46
9426.00,1.46
9425.00,1.46
9424.00,1.45
9423.00,1.45
9422.00,1.45
9421.00,1.45
9420.00,1.45
9419.00,1.45
9418.00,1.45
9417.00,1.45
9416.00,1.44
9415.00,1.44
9414.00,1.44
9413.00,1.44
9412.00,1.44
9411.00,1.44
9410.00,1.44
9409.00,1.44
9408.00,1.44
9407.00,1.43
9406.00,1.43
9405.00,1.43
9404.00,1.43
9403.00,1.43
9402.00,1.43
9401.00,1.43
9400.00,1.43
9399.00,1.43
9398.00,1.43
9397.00,1.43
9396.00,1.43
9395.00,1.43
9394.00,1.43
9393.00,1.43
9392.00,1.43
9391.00,1.43
9390.00,1.43
9389.00,1.43
9388.00,1.44
9387.00,1.44
9386.00,1.44
9385.00,1.44
9384.00,1.44
9383.00,1.44
9382.00,1.45
9381.00,1.45
9380.00,1.45
9379.00,1.45
9378.00,1.45
9377.00,1.45
9376.00,1.45
9375.00,1.45
9374.00,1.45
9373.00,1.45
9372.00,1.45
9371.00,1.44
9370.00,1.44
9369.00,1.44
9368.00,1.44
9367.00,1.45
9366.00,1.45
9365.00,1.45
9364.00,1.45
9363.00,1.45
9362.00,1.45
9361.00,1.46
9360.00,1.46
9359.00,1.46
9358.00,1.46
9357.00,1.47
9356.00,1.47
9355.00,1.47
9354.00,1.47
9353.00,1.47
9352.00,1.47
9351.00,1.47
9350.00,1.47
9349.00,1.47
9348.00,1.47
9347.00,1.47
9346.00,1.47
9345.00,1.47
9344.00,1.47
9343.00,1.47
9342.00,1.47
9341.00,1.47
9340.00,1.47
9339.00,1.47
9338.00,1.47
9337.00,1.47
9336.00,1.47
9335.00,1.47
9334.00,1.47
9333.00,1.47
9332.00,1.47
9331.00,1.47
9330.00,1.47
9329.00,1.46
9328.00,1.46
9327.00,1.46
9326.00,1.46
9325.00,1.46
9324.00,1.46
9323.00,1.46
9322.00,1.46
9321.00,1.46
9320.00,1.46
9319.00,1.46
9318.00,1.46
9317.00,1.46
9316.00,1.46
9315.00,1.46
9314.00,1.47
9313.00,1.47
9312.00,1.47
9311.00,1.47
9310.00,1.48
9309.00,1.48
9308.00,1.48
9307.00,1.48
9306.00,1.48
9305.00,1.48
9304.00,1.48
9303.00,1.48
9302.00,1.48
9301.00,1.48
9300.00,1.48
9299.00,1.48
9298.00,1.48
9297.00,1.48
9296.00,1.47
9295.00,1.47
9294.00,1.47
9293.00,1.47
9292.00,1.47
9291.00,1.47
9290.00,1.47
9289.00,1.47
9288.00,1.47
9287.00,1.47
9286.00,1.47
9285.00,1.47
9284.00,1.47
9283.00,1.47
9282.00,1.47
9281.00,1.47
9280.00,1.47
9279.00,1.47
9278.00,1.47
9277.00,1.47
9276.00,1.47
9275.00,1.47
9274.00,1.47
9273.00,1.47
9272.00,1.47
9271.00,1.48
9270.00,1.48
9269.00,1.48
9268.00,1.48
9267.00,1.48
9266.00,1.48
9265.00,1.48
9264.00,1.48
9263.00,1.48
9262.00,1.48
9261.00,1.49
9260.00,1.49
9259.00,1.49
9258.00,1.49
9257.00,1.49
9256.00,1.49
9255.00,1.49
9254.00,1.49
9253.00,1.49
9252.00,1.49
9251.00,1.49
9250.00,1.49
9249.00,1.49
9248.00,1.48
9247.00,1.48
9246.00,1.48
9245.00,1.48
9244.00,1.48
9243.00,1.48
9242.00,1.47
9241.00,1.47
9240.00,1.47
9239.00,1.47
9238.00,1.47
9237.00,1.46
9236.00,1.46
9235.00,1.46
9234.00,1.46
9233.00,1.46
9232.00,1.46
9231.00,1.46
9230.00,1.46
9229.00,1.46
9228.00,1.46
9227.00,1.46
9226.00,1.46
9225.00,1.46
9224.00,1.46
9223.00,1.46
9222.00,1.46
9221.00,1.46
9220.00,1.46
9219.00,1.46
9218.00,1.47
9217.00,1.47
9216.00,1.47
9215.00,1.47
9214.00,1.47
9213.00,1.47
9212.00,1.48
9211.00,1.48
9210.00,1.48
9209.00,1.48
9208.00,1.48
9207.00,1.48
9206.00,1.48
9205.00,1.48
9204.00,1.48
9203.00,1.47
9202.00,1.47
9201.00,1.47
9200.00,1.47
9199.00,1.47
9198.00,1.47
9197.00,1.46
9196.00,1.46
9195.00,1.46
9194.00,1.46
9193.00,1.46
9192.00,1.46
9191.00,1.46
9190.00,1.46
9189.00,1.46
9188.00,1.46
9187.00,1.46
9186.00,1.47
9185.00,1.47
9184.00,1.47
9183.00,1.47
9182.00,1.47
9181.00,1.47
9180.00,1.47
9179.00,1.47
9178.00,1.47
9177.00,1.47
9176.00,1.48
9175.00,1.48
9174.00,1.48
9173.00,1.48
9172.00,1.48
9171.00,1.48
9170.00,1.48
9169.00,1.48
9168.00,1.48
9167.00,1.48
9166.00,1.48
9165.00,1.48
9164.00,1.47
9163.00,1.47
9162.00,1.47
9161.00,1.47
9160.00,1.47
9159.00,1.47
9158.00,1.47
9157.00,1.47
9156.00,1.47
9155.00,1.48
9154.00,1.48
9153.00,1.48
9152.00,1.48
9151.00,1.48
9150.00,1.48
9149.00,1.48
9148.00,1.48
9147.00,1.48
9146.00,1.48
9145.00,1.48
9144.00,1.48
9143.00,1.48
9142.00,1.47
9141.00,1.47
9140.00,1.47
9139.00,1.47
9138.00,1.47
9137.00,1.47
9136.00,1.47
9135.00,1.47
9134.00,1.47
9133.00,1.47
9132.00,1.47
9131.00,1.48
9130.00,1.48
9129.00,1.48
9128.00,1.48
9127.00,1.48
9126.00,1.48
9125.00,1.48
9124.00,1.48
9123.00,1.48
9122.00,1.48
9121.00,1.48
9120.00,1.48
9119.00,1.48
9118.00,1.48
9117.00,1.48
9116.00,1.48
9115.00,1.48
9114.00,1.48
9113.00,1.48
9112.00,1.48
9111.00,1.48
9110.00,1.48
9109.00,1.48
9108.00,1.48
9107.00,1.48
9106.00,1.48
9105.00,1.48
9104.00,1.47
9103.00,1.47
9102.00,1.47
9101.00,1.47
9100.00,1.47
9099.00,1.47
9098.00,1.47
9097.00,1.47
9096.00,1.46
9095.00,1.46
9094.00,1.46
9093.00,1.46
9092.00,1.46
9091.00,1.46
9090.00,1.46
9089.00,1.46
9088.00,1.46
9087.00,1.46
9086.00,1.46
9085.00,1.46
9084.00,1.47
9083.00,1.47
9082.00,1.47
9081.00,1.47
9080.00,1.47
9079.00,1.48
9078.00,1.48
9077.00,1.48
9076.00,1.48
9075.00,1.48
9074.00,1.49
9073.00,1.49
9072.00,1.49
9071.00,1.49
9070.00,1.49
9069.00,1.49
9068.00,1.50
9067.00,1.50
9066.00,1.50
9065.00,1.50
9064.00,1.50
9063.00,1.50
9062.00,1.50
9061.00,1.50
9060.00,1.50
9059.00,1.50
9058.00,1.50
9057.00,1.50
9056.00,1.50
9055.00,1.50
9054.00,1.50
9053.00,1.50
9052.00,1.50
9051.00,1.50
9050.00,1.50
9049.00,1.50
9048.00,1.50
9047.00,1.49
9046.00,1.49
9045.00,1.49
9044.00,1.49
9043.00,1.49
9042.00,1.49
9041.00,1.49
9040.00,1.49
9039.00,1.49
9038.00,1.49
9037.00,1.49
9036.00,1.49
9035.00,1.49
9034.00,1.49
9033.00,1.49
9032.00,1.49
9031.00,1.49
9030.00,1.49
9029.00,1.49
9028.00,1.49
9027.00,1.49
9026.00,1.49
9025.00,1.49
9024.00,1.49
9023.00,1.49
9022.00,1.49
9021.00,1.49
9020.00,1.49
9019.00,1.49
9018.00,1.49
9017.00,1.49
9016.00,1.49
9015.00,1.49
9014.00,1.49
9013.00,1.49
9012.00,1.49
9011.00,1.49
9010.00,1.49
9009.00,1.49
9008.00,1.49
9007.00,1.49
9006.00,1.49
9005.00,1.49
9004.00,1.48
9003.00,1.48
9002.00,1.48
9001.00,1.48
9000.00,1.48
8999.00,1.49
8998.00,1.49
8997.00,1.49
8996.00,1.49
8995.00,1.49
8994.00,1.49
8993.00,1.49
8992.00,1.49
8991.00,1.49
8990.00,1.49
8989.00,1.49
8988.00,1.49
8987.00,1.49
8986.00,1.49
8985.00,1.49
8984.00,1.49
8983.00,1.49
8982.00,1.49
8981.00,1.49
8980.00,1.49
8979.00,1.49
8978.00,1.49
8977.00,1.49
8976.00,1.48
8975.00,1.48
8974.00,1.48
8973.00,1.48
8972.00,1.48
8971.00,1.48
8970.00,1.48
8969.00,1.48
8968.00,1.48
8967.00,1.48
8966.00,1.48
8965.00,1.48
8964.00,1.48
8963.00,1.48
8962.00,1.48
8961.00,1.48
8960.00,1.48
8959.00,1.48
8958.00,1.47
8957.00,1.47
8956.00,1.47
8955.00,1.47
8954.00,1.47
8953.00,1.47
8952.00,1.47
8951.00,1.47
8950.00,1.47
8949.00,1.47
8948.00,1.46
8947.00,1.46
8946.00,1.46
8945.00,1.46
8944.00,1.46
8943.00,1.46
8942.00,1.46
8941.00,1.46
8940.00,1.46
8939.00,1.46
8938.00,1.46
8937.00,1.46
8936.00,1.46
8935.00,1.46
8934.00,1.46
8933.00,1.46
8932.00,1.46
8931.00,1.46
8930.00,1.47
8929.00,1.47
8928.00,1.47
8927.00,1.47
8926.00,1.47
8925.00,1.47
8924.00,1.48
8923.00,1.48
8922.00,1.48
8921.00,1.48
8920.00,1.48
8919.00,1.48
8918.00,1.48
8917.00,1.48
8916.00,1.48
8915.00,1.48
8914.00,1.48
8913.00,1.48
8912.00,1.48
8911.00,1.48
8910.00,1.48
8909.00,1.48
8908.00,1.48
8907.00,1.48
8906.00,1.48
8905.00,1.48
8904.00,1.48
8903.00,1.48
8902.00,1.48
8901.00,1.48
8900.00,1.48
8899.00,1.48
8898.00,1.48
8897.00,1.48
8896.00,1.48
8895.00,1.48
8894.00,1.48
8893.00,1.48
8892.00,1.48
8891.00,1.48
8890.00,1.48
8889.00,1.48
8888.00,1.48
8887.00,1.48
8886.00,1.48
8885.00,1.48
8884.00,1.48
8883.00,1.48
8882.00,1.48
8881.00,1.47
8880.00,1.47
8879.00,1.47
8878.00,1.47
8877.00,1.47
8876.00,1.47
8875.00,1.47
8874.00,1.47
8873.00,1.47
8872.00,1.47
8871.00,1.47
8870.00,1.47
8869.00,1.47
8868.00,1.47
8867.00,1.48
8866.00,1.48
8865.00,1.48
8864.00,1.48
8863.00,1.48
8862.00,1.48
8861.00,1.48
8860.00,1.48
8859.00,1.48
8858.00,1.48
8857.00,1.48
8856.00,1.48
8855.00,1.48
8854.00,1.48
8853.00,1.49
8852.00,1.49
8851.00,1.49
8850.00,1.49
8849.00,1.49
8848.00,1.49
8847.00,1.49
8846.00,1.48
8845.00,1.48
8844.00,1.48
8843.00,1.48
8842.00,1.48
8841.00,1.48
8840.00,1.48
8839.00,1.48
8838.00,1.48
8837.00,1.47
8836.00,1.47
8835.00,1.47
8834.00,1.47
8833.00,1.47
8832.00,1.47
8831.00,1.47
8830.00,1.46
8829.00,1.46
8828.00,1.46
8827.00,1.46
8826.00,1.46
8825.00,1.46
8824.00,1.46
8823.00,1.46
8822.00,1.46
8821.00,1.46
8820.00,1.46
8819.00,1.46
8818.00,1.46
8817.00,1.46
8816.00,1.45
8815.00,1.45
8814.00,1.45
8813.00,1.45
8812.00,1.45
8811.00,1.45
8810.00,1.45
8809.00,1.45
8808.00,1.45
8807.00,1.45
8806.00,1.45
8805.00,1.45
8804.00,1.45
8803.00,1.45
8802.00,1.45
8801.00,1.45
8800.00,1.45
8799.00,1.45
8798.00,1.45
8797.00,1.45
8796.00,1.45
8795.00,1.45
8794.00,1.45
8793.00,1.45
8792.00,1.45
8791.00,1.44
8790.00,1.44
8789.00,1.44
8788.00,1.44
8787.00,1.44
8786.00,1.44
8785.00,1.44
8784.00,1.44
8783.00,1.44
8782.00,1.44
8781.00,1.44
8780.00,1.44
8779.00,1.44
8778.00,1.44
8777.00,1.44
8776.00,1.44
8775.00,1.45
8774.00,1.45
8773.00,1.45
8772.00,1.45
8771.00,1.45
8770.00,1.45
8769.00,1.45
8768.00,1.45
8767.00,1.45
8766.00,1.45
8765.00,1.45
8764.00,1.45
8763.00,1.45
8762.00,1.45
8761.00,1.44
8760.00,1.44
8759.00,1.44
8758.00,1.44
8757.00,1.44
8756.00,1.43
8755.00,1.43
8754.00,1.43
8753.00,1.43
8752.00,1.43
8751.00,1.43
8750.00,1.43
8749.00,1.43
8748.00,1.43
8747.00,1.43
8746.00,1.43
8745.00,1.43
8744.00,1.43
8743.00,1.43
8742.00,1.43
8741.00,1.43
8740.00,1.43
8739.00,1.43
8738.00,1.43
8737.00,1.43
8736.00,1.43
8735.00,1.43
8734.00,1.43
8733.00,1.43
8732.00,1.43
8731.00,1.43
8730.00,1.43
8729.00,1.43
8728.00,1.43
8727.00,1.43
8726.00,1.43
8725.00,1.43
8724.00,1.43
8723.00,1.43
8722.00,1.43
8721.00,1.43
8720.00,1.42
8719.00,1.42
8718.00,1.42
8717.00,1.42
8716.00,1.42
8715.00,1.42
8714.00,1.42
8713.00,1.42
8712.00,1.42
8711.00,1.41
8710.00,1.41
8709.00,1.41
8708.00,1.41
8707.00,1.41
8706.00,1.41
8705.00,1.41
8704.00,1.41
8703.00,1.41
8702.00,1.41
8701.00,1.42
8700.00,1.42
8699.00,1.42
8698.00,1.42
8697.00,1.42
8696.00,1.42
8695.00,1.42
8694.00,1.42
8693.00,1.42
8692.00,1.42
8691.00,1.42
8690.00,1.42
8689.00,1.42
8688.00,1.42
8687.00,1.42
8686.00,1.42
8685.00,1.42
8684.00,1.42
8683.00,1.41
8682.00,1.41
8681.00,1.41
8680.00,1.41
8679.00,1.41
8678.00,1.41
8677.00,1.41
8676.00,1.41
8675.00,1.41
8674.00,1.41
8673.00,1.41
8672.00,1.42
8671.00,1.42
8670.00,1.42
8669.00,1.42
8668.00,1.42
8667.00,1.42
8666.00,1.41
8665.00,1.41
8664.00,1.41
8663.00,1.41
8662.00,1.41
8661.00,1.41
8660.00,1.41
8659.00,1.41
8658.00,1.41
8657.00,1.41
8656.00,1.41
8655.00,1.41
8654.00,1.41
8653.00,1.41
8652.00,1.41
8651.00,1.41
8650.00,1.41
8649.00,1.41
8648.00,1.41
8647.00,1.41
8646.00,1.41
8645.00,1.41
8644.00,1.41
8643.00,1.41
8642.00,1.41
8641.00,1.41
8640.00,1.41
8639.00,1.41
8638.00,1.41
8637.00,1.41
8636.00,1.41
8635.00,1.41
8634.00,1.41
8633.00,1.41
8632.00,1.41
8631.00,1.41
8630.00,1.41
8629.00,1.41
8628.00,1.40
8627.00,1.40
8626.00,1.40
8625.00,1.40
8624.00,1.40
8623.00,1.40
8622.00,1.39
8621.00,1.39
8620.00,1.39
8619.00,1.39
8618.00,1.39
8617.00,1.39
8616.00,1.38
8615.00,1.38
8614.00,1.38
8613.00,1.38
8612.00,1.38
8611.00,1.38
8610.00,1.38
8609.00,1.38
8608.00,1.38
8607.00,1.38
8606.00,1.37
8605.00,1.37
8604.00,1.37
8603.00,1.37
8602.00,1.37
8601.00,1.37
8600.00,1.37
8599.00,1.37
8598.00,1.37
8597.00,1.37
8596.00,1.37
8595.00,1.37
8594.00,1.37
8593.00,1.37
8592.00,1.37
8591.00,1.37
8590.00,1.37
8589.00,1.37
8588.00,1.37
8587.00,1.37
8586.00,1.37
8585.00,1.37
8584.00,1.37
8583.00,1.37
8582.00,1.37
8581.00,1.37
8580.00,1.37
8579.00,1.37
8578.00,1.37
8577.00,1.37
8576.00,1.37
8575.00,1.37
8574.00,1.37
8573.00,1.37
8572.00,1.37
8571.00,1.37
8570.00,1.37
8569.00,1.37
8568.00,1.37
8567.00,1.37
8566.00,1.38
8565.00,1.38
8564.00,1.38
8563.00,1.38
8562.00,1.38
8561.00,1.38
8560.00,1.38
8559.00,1.38
8558.00,1.38
8557.00,1.38
8556.00,1.38
8555.00,1.38
8554.00,1.38
8553.00,1.38
8552.00,1.37
8551.00,1.37
8550.00,1.37
8549.00,1.37
8548.00,1.37
8547.00,1.37
8546.00,1.37
8545.00,1.37
8544.00,1.36
8543.00,1.36
8542.00,1.36
8541.00,1.36
8540.00,1.36
8539.00,1.36
8538.00,1.36
8537.00,1.35
8536.00,1.35
8535.00,1.35
8534.00,1.35
8533.00,1.35
8532.00,1.35
8531.00,1.35
8530.00,1.34
8529.00,1.34
8528.00,1.34
8527.00,1.34
8526.00,1.34
8525.00,1.34
8524.00,1.34
8523.00,1.34
8522.00,1.34
8521.00,1.34
8520.00,1.34
8519.00,1.34
8518.00,1.34
8517.00,1.33
8516.00,1.33
8515.00,1.33
8514.00,1.33
8513.00,1.33
8512.00,1.33
8511.00,1.33
8510.00,1.33
8509.00,1.33
8508.00,1.33
8507.00,1.33
8506.00,1.33
8505.00,1.33
8504.00,1.33
8503.00,1.33
8502.00,1.33
8501.00,1.33
8500.00,1.32
8499.00,1.32
8498.00,1.32
8497.00,1.32
8496.00,1.32
8495.00,1.32
8494.00,1.32
8493.00,1.32
8492.00,1.32
8491.00,1.32
8490.00,1.32
8489.00,1.31
8488.00,1.31
8487.00,1.31
8486.00,1.31
8485.00,1.31
8484.00,1.31
8483.00,1.31
8482.00,1.30
8481.00,1.30
8480.00,1.30
8479.00,1.30
8478.00,1.30
8477.00,1.30
8476.00,1.30
8475.00,1.30
8474.00,1.30
8473.00,1.30
8472.00,1.30
8471.00,1.30
8470.00,1.30
8469.00,1.30
8468.00,1.30
8467.00,1.30
8466.00,1.30
8465.00,1.30
8464.00,1.29
8463.00,1.29
8462.00,1.29
8461.00,1.29
8460.00,1.29
8459.00,1.29
8458.00,1.29
8457.00,1.30
8456.00,1.30
8455.00,1.30
8454.00,1.30
8453.00,1.30
8452.00,1.30
8451.00,1.30
8450.00,1.30
8449.00,1.30
8448.00,1.29
8447.00,1.29
8446.00,1.29
8445.00,1.29
8444.00,1.29
8443.00,1.29
8442.00,1.29
8441.00,1.28
8440.00,1.28
8439.00,1.28
8438.00,1.28
8437.00,1.28
8436.00,1.28
8435.00,1.27
8434.00,1.27
8433.00,1.27
8432.00,1.27
8431.00,1.27
8430.00,1.27
8429.00,1.27
8428.00,1.27
8427.00,1.27
8426.00,1.27
8425.00,1.27
8424.00,1.27
8423.00,1.27
8422.00,1.27
8421.00,1.27
8420.00,1.28
8419.00,1.28
8418.00,1.28
8417.00,1.28
8416.00,1.28
8415.00,1.28
8414.00,1.28
8413.00,1.28
8412.00,1.28
8411.00,1.29
8410.00,1.29
8409.00,1.29
8408.00,1.29
8407.00,1.29
8406.00,1.29
8405.00,1.29
8404.00,1.29
8403.00,1.29
8402.00,1.29
8401.00,1.29
8400.00,1.30
8399.00,1.30
8398.00,1.30
8397.00,1.30
8396.00,1.30
8395.00,1.30
8394.00,1.30
8393.00,1.30
8392.00,1.30
8391.00,1.30
8390.00,1.30
8389.00,1.31
8388.00,1.31
8387.00,1.31
8386.00,1.31
8385.00,1.31
8384.00,1.31
8383.00,1.31
8382.00,1.31
8381.00,1.32
8380.00,1.32
8379.00,1.32
8378.00,1.32
8377.00,1.32
8376.00,1.32
8375.00,1.32
8374.00,1.32
8373.00,1.32
8372.00,1.32
8371.00,1.32
8370.00,1.32
8369.00,1.32
8368.00,1.32
8367.00,1.32
8366.00,1.32
8365.00,1.32
8364.00,1.32
8363.00,1.32
8362.00,1.33
8361.00,1.33
8360.00,1.33
8359.00,1.33
8358.00,1.33
8357.00,1.33
8356.00,1.33
8355.00,1.33
8354.00,1.33
8353.00,1.33
8352.00,1.33
8351.00,1.33
8350.00,1.33
8349.00,1.33
8348.00,1.33
8347.00,1.33
8346.00,1.34
8345.00,1.34
8344.00,1.34
8343.00,1.34
8342.00,1.34
8341.00,1.34
8340.00,1.34
8339.00,1.34
8338.00,1.34
8337.00,1.34
8336.00,1.34
8335.00,1.34
8334.00,1.34
8333.00,1.34
8332.00,1.34
8331.00,1.34
8330.00,1.34
8329.00,1.34
8328.00,1.34
8327.00,1.34
8326.00,1.34
8325.00,1.34
8324.00,1.34
8323.00,1.34
8322.00,1.33
8321.00,1.33
8320.00,1.33
8319.00,1.33
8318.00,1.34
8317.00,1.34
8316.00,1.34
8315.00,1.34
8314.00,1.34
8313.00,1.34
8312.00,1.34
8311.00,1.34
8310.00,1.34
8309.00,1.34
8308.00,1.34
8307.00,1.34
8306.00,1.34
8305.00,1.34
8304.00,1.34
8303.00,1.34
8302.00,1.34
8301.00,1.34
8300.00,1.34
8299.00,1.34
8298.00,1.34
8297.00,1.34
8296.00,1.34
8295.00,1.34
8294.00,1.34
8293.00,1.34
8292.00,1.34
8291.00,1.34
8290.00,1.34
8289.00,1.34
8288.00,1.34
8287.00,1.34
8286.00,1.34
8285.00,1.34
8284.00,1.34
8283.00,1.34
8282.00,1.34
8281.00,1.34
8280.00,1.34
8279.00,1.33
8278.00,1.33
8277.00,1.33
8276.00,1.33
8275.00,1.33
8274.00,1.33
8273.00,1.34
8272.00,1.34
8271.00,1.34
8270.00,1.34
8269.00,1.34
8268.00,1.34
8267.00,1.34
8266.00,1.34
8265.00,1.35
8264.00,1.35
8263.00,1.35
8262.00,1.35
8261.00,1.35
8260.00,1.36
8259.00,1.36
8258.00,1.36
8257.00,1.36
8256.00,1.36
8255.00,1.37
8254.00,1.37
8253.00,1.37
8252.00,1.37
8251.00,1.37
8250.00,1.37
8249.00,1.37
8248.00,1.37
8247.00,1.37
8246.00,1.37
8245.00,1.37
8244.00,1.37
8243.00,1.37
8242.00,1.37
8241.00,1.37
8240.00,1.37
8239.00,1.37
8238.00,1.37
8237.00,1.37
8236.00,1.37
8235.00,1.37
8234.00,1.37
8233.00,1.37
8232.00,1.37
8231.00,1.37
8230.00,1.37
8229.00,1.37
8228.00,1.37
8227.00,1.37
8226.00,1.37
8225.00,1.37
8224.00,1.37
8223.00,1.37
8222.00,1.37
8221.00,1.37
8220.00,1.37
8219.00,1.37
8218.00,1.37
8217.00,1.38
8216.00,1.38
8215.00,1.38
8214.00,1.38
8213.00,1.38
8212.00,1.38
8211.00,1.38
8210.00,1.38
8209.00,1.38
8208.00,1.38
8207.00,1.38
8206.00,1.38
8205.00,1.39
8204.00,1.39
8203.00,1.39
8202.00,1.39
8201.00,1.39
8200.00,1.39
8199.00,1.39
8198.00,1.39
8197.00,1.39
8196.00,1.39
8195.00,1.39
8194.00,1.39
8193.00,1.39
8192.00,1.38
8191.00,1.38
8190.00,1.38
8189.00,1.38
8188.00,1.38
8187.00,1.38
8186.00,1.38
8185.00,1.38
8184.00,1.38
8183.00,1.38
8182.00,1.38
8181.00,1.38
8180.00,1.38
8179.00,1.38
8178.00,1.38
8177.00,1.38
8176.00,1.38
8175.00,1.38
8174.00,1.38
8173.00,1.38
8172.00,1.38
8171.00,1.39
8170.00,1.39
8169.00,1.39
8168.00,1.39
8167.00,1.39
8166.00,1.39
8165.00,1.39
8164.00,1.39
8163.00,1.39
8162.00,1.39
8161.00,1.39
8160.00,1.39
8159.00,1.39
8158.00,1.39
8157.00,1.40
8156.00,1.40
8155.00,1.40
8154.00,1.40
8153.00,1.40
8152.00,1.40
8151.00,1.40
8150.00,1.40
8149.00,1.40
8148.00,1.40
8147.00,1.40
8146.00,1.40
8145.00,1.40
8144.00,1.40
8143.00,1.41
8142.00,1.41
8141.00,1.41
8140.00,1.41
8139.00,1.41
8138.00,1.41
8137.00,1.41
8136.00,1.41
8135.00,1.41
8134.00,1.41
8133.00,1.42
8132.00,1.42
8131.00,1.42
8130.00,1.42
8129.00,1.42
8128.00,1.42
8127.00,1.42
8126.00,1.42
8125.00,1.42
8124.00,1.42
8123.00,1.42
8122.00,1.42
8121.00,1.42
8120.00,1.42
8119.00,1.42
8118.00,1.42
8117.00,1.42
8116.00,1.43
8115.00,1.43
8114.00,1.43
8113.00,1.43
8112.00,1.43
8111.00,1.43
8110.00,1.43
8109.00,1.43
8108.00,1.43
8107.00,1.43
8106.00,1.43
8105.00,1.43
8104.00,1.43
8103.00,1.43
8102.00,1.43
8101.00,1.43
8100.00,1.43
8099.00,1.43
8098.00,1.43
8097.00,1.43
8096.00,1.43
8095.00,1.43
8094.00,1.43
8093.00,1.43
8092.00,1.43
8091.00,1.43
8090.00,1.43
8089.00,1.43
8088.00,1.43
8087.00,1.43
8086.00,1.43
8085.00,1.43
8084.00,1.43
8083.00,1.43
8082.00,1.43
8081.00,1.43
8080.00,1.43
8079.00,1.43
8078.00,1.43
8077.00,1.43
8076.00,1.43
8075.00,1.43
8074.00,1.43
8073.00,1.43
8072.00,1.43
8071.00,1.43
8070.00,1.43
8069.00,1.43
8068.00,1.43
8067.00,1.43
8066.00,1.43
8065.00,1.43
8064.00,1.43
8063.00,1.43
8062.00,1.43
8061.00,1.43
8060.00,1.43
8059.00,1.43
8058.00,1.43
8057.00,1.43
8056.00,1.43
8055.00,1.44
8054.00,1.44
8053.00,1.44
8052.00,1.44
8051.00,1.44
8050.00,1.44
8049.00,1.44
8048.00,1.44
8047.00,1.44
8046.00,1.44
8045.00,1.45
8044.00,1.45
8043.00,1.45
8042.00,1.45
8041.00,1.45
8040.00,1.45
8039.00,1.45
8038.00,1.45
8037.00,1.45
8036.00,1.45
8035.00,1.45
8034.00,1.45
8033.00,1.45
8032.00,1.45
8031.00,1.45
8030.00,1.45
8029.00,1.44
8028.00,1.44
8027.00,1.44
8026.00,1.44
8025.00,1.44
8024.00,1.44
8023.00,1.44
8022.00,1.44
8021.00,1.44
8020.00,1.44
8019.00,1.44
8018.00,1.44
8017.00,1.44
8016.00,1.44
8015.00,1.44
8014.00,1.44
8013.00,1.44
8012.00,1.44
8011.00,1.44
8010.00,1.44
8009.00,1.44
8008.00,1.44
8007.00,1.44
8006.00,1.44
8005.00,1.44
8004.00,1.44
8003.00,1.45
8002.00,1.45
8001.00,1.45
8000.00,1.45
7999.00,1.45
7998.00,1.45
7997.00,1.45
7996.00,1.45
7995.00,1.45
7994.00,1.45
7993.00,1.46
7992.00,1.46
7991.00,1.46
7990.00,1.46
7989.00,1.46
7988.00,1.46
7987.00,1.46
7986.00,1.46
7985.00,1.45
7984.00,1.45
7983.00,1.45
7982.00,1.45
7981.00,1.45
7980.00,1.45
7979.00,1.45
7978.00,1.45
7977.00,1.44
7976.00,1.44
7975.00,1.44
7974.00,1.44
7973.00,1.44
7972.00,1.44
7971.00,1.44
7970.00,1.44
7969.00,1.44
7968.00,1.44
7967.00,1.45
7966.00,1.45
7965.00,1.45
7964.00,1.45
7963.00,1.45
7962.00,1.46
7961.00,1.46
7960.00,1.46
7959.00,1.46
7958.00,1.46
7957.00,1.46
7956.00,1.46
7955.00,1.46
7954.00,1.46
7953.00,1.47
7952.00,1.47
7951.00,1.47
7950.00,1.47
7949.00,1.47
7948.00,1.47
7947.00,1.47
7946.00,1.46
7945.00,1.46
7944.00,1.46
7943.00,1.46
7942.00,1.46
7941.00,1.46
7940.00,1.46
7939.00,1.46
7938.00,1.46
7937.00,1.46
7936.00,1.46
7935.00,1.46
7934.00,1.46
7933.00,1.46
7932.00,1.46
7931.00,1.46
7930.00,1.46
7929.00,1.46
7928.00,1.46
7927.00,1.46
7926.00,1.46
7925.00,1.46
7924.00,1.46
7923.00,1.46
7922.00,1.46
7921.00,1.46
7920.00,1.46
7919.00,1.46
7918.00,1.46
7917.00,1.46
7916.00,1.46
7915.00,1.46
7914.00,1.47
7913.00,1.47
7912.00,1.47
7911.00,1.47
7910.00,1.47
7909.00,1.47
7908.00,1.47
7907.00,1.47
7906.00,1.47
7905.00,1.47
7904.00,1.47
7903.00,1.47
7902.00,1.47
7901.00,1.47
7900.00,1.47
7899.00,1.47
7898.00,1.47
7897.00,1.47
7896.00,1.48
7895.00,1.48
7894.00,1.48
7893.00,1.48
7892.00,1.48
7891.00,1.48
7890.00,1.48
7889.00,1.48
7888.00,1.48
7887.00,1.48
7886.00,1.48
7885.00,1.48
7884.00,1.48
7883.00,1.48
7882.00,1.48
7881.00,1.48
7880.00,1.48
7879.00,1.48
7878.00,1.48
7877.00,1.49
7876.00,1.49
7875.00,1.49
7874.00,1.49
7873.00,1.49
7872.00,1.49
7871.00,1.49
7870.00,1.49
7869.00,1.49
7868.00,1.48
7867.00,1.48
7866.00,1.48
7865.00,1.48
7864.00,1.48
7863.00,1.48
7862.00,1.48
7861.00,1.48
7860.00,1.48
7859.00,1.48
7858.00,1.48
7857.00,1.47
7856.00,1.47
7855.00,1.47
7854.00,1.47
7853.00,1.47
7852.00,1.47
7851.00,1.47
7850.00,1.47
7849.00,1.47
7848.00,1.47
7847.00,1.47
7846.00,1.47
7845.00,1.47
7844.00,1.47
7843.00,1.47
7842.00,1.47
7841.00,1.47
7840.00,1.48
7839.00,1.48
7838.00,1.48
7837.00,1.48
7836.00,1.48
7835.00,1.48
7834.00,1.48
7833.00,1.48
7832.00,1.47
7831.00,1.47
7830.00,1.47
7829.00,1.47
7828.00,1.47
7827.00,1.47
7826.00,1.47
7825.00,1.47
7824.00,1.47
7823.00,1.47
7822.00,1.47
7821.00,1.48
7820.00,1.48
7819.00,1.48
7818.00,1.48
7817.00,1.48
7816.00,1.48
7815.00,1.48
7814.00,1.48
7813.00,1.48
7812.00,1.49
7811.00,1.49
7810.00,1.49
7809.00,1.49
7808.00,1.49
7807.00,1.49
7806.00,1.49
7805.00,1.49
7804.00,1.49
7803.00,1.49
7802.00,1.49
7801.00,1.50
7800.00,1.50
7799.00,1.50
7798.00,1.50
7797.00,1.50
7796.00,1.50
7795.00,1.50
7794.00,1.50
7793.00,1.50
7792.00,1.50
7791.00,1.50
7790.00,1.50
7789.00,1.49
7788.00,1.49
7787.00,1.49
7786.00,1.49
7785.00,1.49
7784.00,1.49
7783.00,1.49
7782.00,1.49
7781.00,1.49
7780.00,1.49
7779.00,1.49
7778.00,1.49
7777.00,1.49
7776.00,1.49
7775.00,1.49
7774.00,1.49
7773.00,1.49
7772.00,1.49
7771.00,1.50
7770.00,1.50
7769.00,1.50
7768.00,1.50
7767.00,1.50
7766.00,1.50
7765.00,1.50
7764.00,1.50
7763.00,1.50
7762.00,1.50
7761.00,1.50
7760.00,1.50
7759.00,1.50
7758.00,1.50
7757.00,1.50
7756.00,1.50
7755.00,1.50
7754.00,1.50
7753.00,1.50
7752.00,1.50
7751.00,1.50
7750.00,1.50
7749.00,1.50
7748.00,1.49
7747.00,1.49
7746.00,1.49
7745.00,1.49
7744.00,1.49
7743.00,1.49
7742.00,1.49
7741.00,1.49
7740.00,1.49
7739.00,1.49
7738.00,1.49
7737.00,1.50
7736.00,1.50
7735.00,1.50
7734.00,1.50
7733.00,1.50
7732.00,1.50
7731.00,1.50
7730.00,1.49
7729.00,1.49
7728.00,1.49
7727.00,1.49
7726.00,1.49
7725.00,1.49
7724.00,1.49
7723.00,1.49
7722.00,1.49
7721.00,1.49
7720.00,1.49
7719.00,1.49
7718.00,1.48
7717.00,1.48
7716.00,1.48
7715.00,1.48
7714.00,1.48
7713.00,1.48
7712.00,1.48
7711.00,1.48
7710.00,1.48
7709.00,1.48
7708.00,1.48
7707.00,1.48
7706.00,1.49
7705.00,1.49
7704.00,1.49
7703.00,1.49
7702.00,1.49
7701.00,1.49
7700.00,1.49
7699.00,1.50
7698.00,1.50
7697.00,1.50
7696.00,1.50
7695.00,1.50
7694.00,1.50
7693.00,1.50
7692.00,1.50
7691.00,1.50
7690.00,1.50
7689.00,1.50
7688.00,1.50
7687.00,1.50
7686.00,1.50
7685.00,1.50
7684.00,1.50
7683.00,1.50
7682.00,1.50
7681.00,1.50
7680.00,1.50
7679.00,1.50
7678.00,1.50
7677.00,1.50
7676.00,1.50
7675.00,1.50
7674.00,1.50
7673.00,1.50
7672.00,1.50
7671.00,1.50
7670.00,1.50
7669.00,1.50
7668.00,1.50
7667.00,1.50
7666.00,1.50
7665.00,1.50
7664.00,1.50
7663.00,1.50
7662.00,1.50
7661.00,1.50
7660.00,1.50
7659.00,1.50
7658.00,1.50
7657.00,1.50
7656.00,1.50
7655.00,1.50
7654.00,1.50
7653.00,1.50
7652.00,1.50
7651.00,1.50
7650.00,1.50
7649.00,1.50
7648.00,1.50
7647.00,1.50
7646.00,1.50
7645.00,1.50
7644.00,1.50
7643.00,1.50
7642.00,1.50
7641.00,1.50
7640.00,1.50
7639.00,1.50
7638.00,1.50
7637.00,1.50
7636.00,1.50
7635.00,1.50
7634.00,1.50
7633.00,1.50
7632.00,1.50
7631.00,1.50
7630.00,1.50
7629.00,1.50
7628.00,1.50
7627.00,1.50
7626.00,1.50
7625.00,1.50
7624.00,1.50
7623.00,1.50
7622.00,1.50
7621.00,1.50
7620.00,1.50
7619.00,1.50
7618.00,1.50
7617.00,1.50
7616.00,1.50
7615.00,1.50
7614.00,1.50
7613.00,1.50
7612.00,1.50
7611.00,1.50
7610.00,1.50
7609.00,1.49
7608.00,1.49
7607.00,1.49
7606.00,1.49
7605.00,1.49
7604.00,1.49
7603.00,1.49
7602.00,1.50
7601.00,1.50
7600.00,1.50
7599.00,1.50
7598.00,1.50
7597.00,1.50
7596.00,1.50
7595.00,1.50
7594.00,1.50
7593.00,1.50
7592.00,1.50
7591.00,1.50
7590.00,1.50
7589.00,1.50
7588.00,1.50
7587.00,1.50
7586.00,1.50
7585.00,1.50
7584.00,1.50
7583.00,1.50
7582.00,1.50
7581.00,1.50
7580.00,1.50
7579.00,1.50
7578.00,1.50
7577.00,1.50
7576.00,1.50
7575.00,1.50
7574.00,1.50
7573.00,1.50
7572.00,1.50
7571.00,1.50
7570.00,1.50
7569.00,1.50
7568.00,1.50
7567.00,1.50
7566.00,1.50
7565.00,1.50
7564.00,1.50
7563.00,1.50
7562.00,1.50
7561.00,1.50
7560.00,1.50
7559.00,1.50
7558.00,1.50
7557.00,1.50
7556.00,1.50
7555.00,1.50
7554.00,1.50
7553.00,1.50
7552.00,1.50
7551.00,1.49
7550.00,1.49
7549.00,1.49
7548.00,1.49
7547.00,1.49
7546.00,1.49
7545.00,1.49
7544.00,1.49
7543.00,1.49
7542.00,1.49
7541.00,1.49
7540.00,1.49
7539.00,1.49
7538.00,1.49
7537.00,1.49
7536.00,1.49
7535.00,1.49
7534.00,1.49
7533.00,1.49
7532.00,1.49
7531.00,1.49
7530.00,1.49
7529.00,1.49
7528.00,1.49
7527.00,1.49
7526.00,1.49
7525.00,1.49
7524.00,1.49
7523.00,1.49
7522.00,1.49
7521.00,1.49
7520.00,1.49
7519.00,1.49
7518.00,1.49
7517.00,1.49
7516.00,1.49
7515.00,1.49
7514.00,1.49
7513.00,1.49
7512.00,1.49
7511.00,1.48
7510.00,1.48
7509.00,1.48
7508.00,1.48
7507.00,1.48
7506.00,1.48
7505.00,1.48
7504.00,1.48
7503.00,1.47
7502.00,1.47
7501.00,1.47
7500.00,1.47
7499.00,1.47
7498.00,1.47
7497.00,1.47
7496.00,1.47
7495.00,1.47
7494.00,1.47
7493.00,1.47
7492.00,1.47
7491.00,1.47
7490.00,1.47
7489.00,1.47
7488.00,1.47
7487.00,1.47
7486.00,1.47
7485.00,1.47
7484.00,1.47
7483.00,1.47
7482.00,1.47
7481.00,1.47
7480.00,1.47
7479.00,1.47
7478.00,1.47
7477.00,1.47
7476.00,1.47
7475.00,1.47
7474.00,1.47
7473.00,1.47
7472.00,1.46
7471.00,1.46
7470.00,1.46
7469.00,1.46
7468.00,1.46
7467.00,1.46
7466.00,1.46
7465.00,1.46
7464.00,1.46
7463.00,1.45
7462.00,1.45
7461.00,1.45
7460.00,1.45
7459.00,1.45
7458.00,1.45
7457.00,1.45
7456.00,1.44
7455.00,1.44
7454.00,1.44
7453.00,1.44
7452.00,1.44
7451.00,1.44
7450.00,1.44
7449.00,1.44
7448.00,1.44
7447.00,1.44
7446.00,1.44
7445.00,1.44
7444.00,1.44
7443.00,1.44
7442.00,1.44
7441.00,1.44
7440.00,1.44
7439.00,1.44
7438.00,1.44
7437.00,1.44
7436.00,1.44
7435.00,1.44
7434.00,1.44
7433.00,1.44
7432.00,1.44
7431.00,1.43
7430.00,1.43
7429.00,1.43
7428.00,1.43
7427.00,1.43
7426.00,1.43
7425.00,1.43
7424.00,1.43
7423.00,1.42
7422.00,1.42
7421.00,1.42
7420.00,1.42
7419.00,1.42
7418.00,1.42
7417.00,1.42
7416.00,1.42
7415.00,1.41
7414.00,1.41
7413.00,1.41
7412.00,1.41
7411.00,1.41
7410.00,1.41
7409.00,1.41
7408.00,1.41
7407.00,1.41
7406.00,1.41
7405.00,1.41
7404.00,1.41
7403.00,1.41
7402.00,1.41
7401.00,1.41
7400.00,1.41
7399.00,1.41
7398.00,1.40
7397.00,1.40
7396.00,1.40
7395.00,1.40
7394.00,1.40
7393.00,1.40
7392.00,1.40
7391.00,1.40
7390.00,1.39
7389.00,1.39
7388.00,1.39
7387.00,1.39
7386.00,1.39
7385.00,1.39
7384.00,1.39
7383.00,1.39
7382.00,1.38
7381.00,1.38
7380.00,1.38
7379.00,1.38
7378.00,1.38
7377.00,1.38
7376.00,1.38
7375.00,1.38
7374.00,1.38
7373.00,1.38
7372.00,1.38
7371.00,1.38
7370.00,1.38
7369.00,1.38
7368.00,1.38
7367.00,1.38
7366.00,1.38
7365.00,1.38
7364.00,1.38
7363.00,1.38
7362.00,1.37
7361.00,1.37
7360.00,1.37
7359.00,1.37
7358.00,1.37
7357.00,1.37
7356.00,1.37
7355.00,1.36
7354.00,1.36
7353.00,1.36
7352.00,1.36
7351.00,1.36
7350.00,1.36
7349.00,1.36
7348.00,1.36
7347.00,1.36
7346.00,1.36
7345.00,1.36
7344.00,1.36
7343.00,1.35
7342.00,1.35
7341.00,1.35
7340.00,1.35
7339.00,1.35
7338.00,1.35
7337.00,1.35
7336.00,1.36
7335.00,1.36
7334.00,1.36
7333.00,1.36
7332.00,1.36
7331.00,1.36
7330.00,1.36
7329.00,1.36
7328.00,1.35
7327.00,1.35
7326.00,1.35
7325.00,1.35
7324.00,1.35
7323.00,1.35
7322.00,1.35
7321.00,1.35
7320.00,1.35
7319.00,1.35
7318.00,1.35
7317.00,1.35
7316.00,1.35
7315.00,1.35
7314.00,1.35
7313.00,1.35
7312.00,1.35
7311.00,1.35
7310.00,1.35
7309.00,1.35
7308.00,1.34
7307.00,1.34
7306.00,1.34
7305.00,1.34
7304.00,1.34
7303.00,1.34
7302.00,1.34
7301.00,1.34
7300.00,1.33
7299.00,1.33
7298.00,1.33
7297.00,1.33
7296.00,1.33
7295.00,1.33
7294.00,1.33
7293.00,1.33
7292.00,1.32
7291.00,1.32
7290.00,1.32
7289.00,1.32
7288.00,1.32
7287.00,1.32
7286.00,1.32
7285.00,1.31
7284.00,1.31
7283.00,1.31
7282.00,1.31
7281.00,1.31
7280.00,1.31
7279.00,1.31
7278.00,1.30
7277.00,1.30
7276.00,1.30
7275.00,1.30
7274.00,1.30
7273.00,1.30
7272.00,1.29
7271.00,1.29
7270.00,1.29
7269.00,1.29
7268.00,1.29
7267.00,1.29
7266.00,1.29
7265.00,1.28
7264.00,1.28
7263.00,1.28
7262.00,1.28
7261.00,1.28
7260.00,1.28
7259.00,1.28
7258.00,1.27
7257.00,1.27
7256.00,1.27
7255.00,1.27
7254.00,1.27
7253.00,1.26
7252.00,1.26
7251.00,1.26
7250.00,1.26
7249.00,1.25
7248.00,1.25
7247.00,1.25
7246.00,1.25
7245.00,1.24
7244.00,1.24
7243.00,1.24
7242.00,1.23
7241.00,1.23
7240.00,1.23
7239.00,1.23
7238.00,1.22
7237.00,1.22
7236.00,1.22
7235.00,1.21
7234.00,1.21
7233.00,1.21
7232.00,1.21
7231.00,1.20
7230.00,1.20
7229.00,1.20
7228.00,1.19
7227.00,1.19
7226.00,1.19
7225.00,1.18
7224.00,1.18
7223.00,1.18
7222.00,1.17
7221.00,1.17
7220.00,1.17
7219.00,1.16
7218.00,1.16
7217.00,1.15
7216.00,1.15
7215.00,1.15
7214.00,1.14
7213.00,1.14
7212.00,1.13
7211.00,1.13
7210.00,1.13
7209.00,1.12
7208.00,1.12
7207.00,1.11
7206.00,1.11
7205.00,1.10
7204.00,1.10
7203.00,1.10
7202.00,1.09
7201.00,1.09
7200.00,1.08
7199.00,1.08
7198.00,1.08
7197.00,1.07
7196.00,1.07
7195.00,1.07
7194.00,1.06
7193.00,1.06
7192.00,1.06
7191.00,1.05
7190.00,1.05
7189.00,1.05
7188.00,1.04
7187.00,1.04
7186.00,1.04
7185.00,1.03
7184.00,1.03
7183.00,1.02
7182.00,1.02
7181.00,1.02
7180.00,1.01
7179.00,1.01
7178.00,1.01
7177.00,1.00
7176.00,1.00
7175.00,0.99
7174.00,0.99
7173.00,0.99
7172.00,0.98
7171.00,0.98
7170.00,0.98
7169.00,0.97
7168.00,0.97
7167.00,0.96
7166.00,0.96
7165.00,0.96
7164.00,0.96
7163.00,0.95
7162.00,0.95
7161.00,0.95
7160.00,0.94
7159.00,0.94
7158.00,0.94
7157.00,0.94
7156.00,0.93
7155.00,0.93
7154.00,0.93
7153.00,0.93
7152.00,0.92
7151.00,0.92
7150.00,0.92
7149.00,0.91
7148.00,0.91
7147.00,0.91
7146.00,0.90
7145.00,0.90
7144.00,0.90
7143.00,0.89
7142.00,0.89
7141.00,0.89
7140.00,0.88
7139.00,0.88
7138.00,0.88
7137.00,0.87
7136.00,0.87
7135.00,0.87
7134.00,0.87
7133.00,0.86
7132.00,0.86
7131.00,0.86
7130.00,0.86
7129.00,0.85
7128.00,0.85
7127.00,0.85
7126.00,0.85
7125.00,0.84
7124.00,0.84
7123.00,0.84
7122.00,0.83
7121.00,0.83
7120.00,0.83
7119.00,0.82
7118.00,0.82
7117.00,0.82
7116.00,0.81
7115.00,0.81
7114.00,0.81
7113.00,0.80
7112.00,0.80
7111.00,0.80
7110.00,0.79
7109.00,0.79
7108.00,0.79
7107.00,0.78
7106.00,0.78
7105.00,0.78
7104.00,0.77
7103.00,0.77
7102.00,0.77
7101.00,0.77
7100.00,0.77
7099.00,0.76
7098.00,0.76
7097.00,0.76
7096.00,0.76
7095.00,0.76
7094.00,0.76
7093.00,0.76
7092.00,0.75
7091.00,0.75
7090.00,0.75
7089.00,0.75
7088.00,0.75
7087.00,0.75
7086.00,0.74
7085.00,0.74
7084.00,0.74
7083.00,0.74
7082.00,0.73
7081.00,0.73
7080.00,0.73
7079.00,0.72
7078.00,0.72
7077.00,0.72
7076.00,0.72
7075.00,0.71
7074.00,0.71
7073.00,0.71
7072.00,0.71
7071.00,0.71
7070.00,0.70
7069.00,0.70
7068.00,0.70
7067.00,0.70
7066.00,0.70
7065.00,0.70
7064.00,0.69
7063.00,0.69
7062.00,0.69
7061.00,0.69
7060.00,0.69
7059.00,0.69
7058.00,0.69
7057.00,0.69
7056.00,0.69
7055.00,0.68
7054.00,0.68
7053.00,0.68
7052.00,0.68
7051.00,0.68
7050.00,0.67
7049.00,0.67
7048.00,0.67
7047.00,0.67
7046.00,0.67
7045.00,0.66
7044.00,0.66
7043.00,0.66
7042.00,0.66
7041.00,0.65
7040.00,0.65
7039.00,0.65
7038.00,0.65
7037.00,0.65
7036.00,0.64
7035.00,0.64
7034.00,0.64
7033.00,0.64
7032.00,0.64
7031.00,0.64
7030.00,0.64
7029.00,0.64
7028.00,0.64
7027.00,0.64
7026.00,0.64
7025.00,0.63
7024.00,0.63
7023.00,0.63
7022.00,0.63
7021.00,0.63
7020.00,0.63
7019.00,0.63
7018.00,0.63
7017.00,0.63
7016.00,0.63
7015.00,0.62
7014.00,0.62
7013.00,0.62
7012.00,0.62
7011.00,0.62
7010.00,0.62
7009.00,0.62
7008.00,0.62
7007.00,0.62
7006.00,0.62
7005.00,0.62
7004.00,0.62
7003.00,0.62
7002.00,0.61
7001.00,0.61
7000.00,0.61
6999.00,0.61
6998.00,0.61
6997.00,0.61
6996.00,0.61
6995.00,0.61
6994.00,0.61
6993.00,0.61
6992.00,0.61
6991.00,0.61
6990.00,0.61
6989.00,0.61
6988.00,0.61
6987.00,0.60
6986.00,0.60
6985.00,0.60
6984.00,0.60
6983.00,0.60
6982.00,0.60
6981.00,0.60
6980.00,0.60
6979.00,0.60
6978.00,0.60
6977.00,0.60
6976.00,0.59
6975.00,0.59
6974.00,0.59
6973.00,0.59
6972.00,0.59
6971.00,0.59
6970.00,0.59
6969.00,0.59
6968.00,0.59
6967.00,0.59
6966.00,0.59
6965.00,0.59
6964.00,0.59
6963.00,0.59
6962.00,0.59
6961.00,0.59
6960.00,0.59
6959.00,0.59
6958.00,0.58
6957.00,0.58
6956.00,0.58
6955.00,0.58
6954.00,0.58
6953.00,0.58
6952.00,0.58
6951.00,0.58
6950.00,0.58
6949.00,0.58
6948.00,0.58
6947.00,0.58
6946.00,0.58
6945.00,0.58
6944.00,0.58
6943.00,0.58
6942.00,0.58
6941.00,0.58
6940.00,0.57
6939.00,0.57
6938.00,0.57
6937.00,0.57
6936.00,0.57
6935.00,0.57
6934.00,0.57
6933.00,0.57
6932.00,0.57
6931.00,0.57
6930.00,0.57
6929.00,0.57
6928.00,0.57
6927.00,0.57
6926.00,0.57
6925.00,0.57
6924.00,0.57
6923.00,0.57
6922.00,0.57
6921.00,0.57
6920.00,0.57
6919.00,0.57
6918.00,0.57
6917.00,0.56
6916.00,0.56
6915.00,0.56
6914.00,0.56
6913.00,0.56
6912.00,0.56
6911.00,0.56
6910.00,0.56
6909.00,0.56
6908.00,0.56
6907.00,0.56
6906.00,0.56
6905.00,0.56
6904.00,0.56
6903.00,0.56
6902.00,0.56
6901.00,0.56
6900.00,0.56
6899.00,0.56
6898.00,0.56
6897.00,0.56
6896.00,0.56
6895.00,0.56
6894.00,0.56
6893.00,0.56
6892.00,0.56
6891.00,0.56
6890.00,0.56
6889.00,0.56
6888.00,0.56
6887.00,0.56
6886.00,0.56
6885.00,0.56
6884.00,0.56
6883.00,0.56
6882.00,0.56
6881.00,0.56
6880.00,0.56
6879.00,0.56
6878.00,0.56
6877.00,0.56
6876.00,0.56
6875.00,0.56
6874.00,0.56
6873.00,0.56
6872.00,0.56
6871.00,0.56
6870.00,0.56
6869.00,0.56
6868.00,0.56
6867.00,0.56
6866.00,0.56
6865.00,0.56
6864.00,0.56
6863.00,0.56
6862.00,0.56
6861.00,0.56
6860.00,0.56
6859.00,0.56
6858.00,0.56
6857.00,0.56
6856.00,0.56
6855.00,0.56
6854.00,0.56
6853.00,0.56
6852.00,0.56
6851.00,0.56
6850.00,0.56
6849.00,0.56
6848.00,0.56
6847.00,0.56
6846.00,0.56
6845.00,0.56
6844.00,0.56
6843.00,0.56
6842.00,0.56
6841.00,0.56
6840.00,0.56
6839.00,0.56
6838.00,0.56
6837.00,0.56
6836.00,0.56
6835.00,0.56
6834.00,0.56
6833.00,0.56
6832.00,0.56
6831.00,0.56
6830.00,0.56
6829.00,0.56
6828.00,0.56
6827.00,0.56
6826.00,0.56
6825.00,0.56
6824.00,0.56
6823.00,0.56
6822.00,0.56
6821.00,0.56
6820.00,0.56
6819.00,0.56
6818.00,0.56
6817.00,0.56
6816.00,0.56
6815.00,0.56
6814.00,0.56
6813.00,0.57
6812.00,0.57
6811.00,0.57
6810.00,0.57
6809.00,0.57
6808.00,0.57
6807.00,0.57
6806.00,0.57
6805.00,0.58
6804.00,0.58
6803.00,0.58
6802.00,0.58
6801.00,0.58
6800.00,0.58
6799.00,0.58
6798.00,0.58
6797.00,0.58
6796.00,0.59
6795.00,0.59
6794.00,0.59
6793.00,0.59
6792.00,0.59
6791.00,0.59
6790.00,0.59
6789.00,0.59
6788.00,0.59
6787.00,0.59
6786.00,0.59
6785.00,0.59
6784.00,0.59
6783.00,0.59
6782.00,0.59
6781.00,0.59
6780.00,0.59
6779.00,0.59
6778.00,0.59
6777.00,0.59
6776.00,0.59
6775.00,0.59
6774.00,0.59
6773.00,0.59
6772.00,0.59
6771.00,0.59
6770.00,0.59
6769.00,0.60
6768.00,0.60
6767.00,0.60
6766.00,0.60
6765.00,0.60
6764.00,0.60
6763.00,0.60
6762.00,0.60
6761.00,0.60
6760.00,0.60
6759.00,0.61
6758.00,0.61
6757.00,0.61
6756.00,0.61
6755.00,0.61
6754.00,0.61
6753.00,0.61
6752.00,0.61
6751.00,0.61
6750.00,0.61
6749.00,0.61
6748.00,0.61
6747.00,0.61
6746.00,0.61
6745.00,0.61
6744.00,0.61
6743.00,0.61
6742.00,0.61
6741.00,0.61
6740.00,0.61
6739.00,0.61
6738.00,0.61
6737.00,0.61
6736.00,0.61
6735.00,0.61
6734.00,0.61
6733.00,0.61
6732.00,0.61
6731.00,0.61
6730.00,0.61
6729.00,0.61
6728.00,0.61
6727.00,0.62
6726.00,0.62
6725.00,0.62
6724.00,0.62
6723.00,0.62
6722.00,0.62
6721.00,0.62
6720.00,0.62
6719.00,0.62
6718.00,0.62
6717.00,0.63
6716.00,0.63
6715.00,0.63
6714.00,0.63
6713.00,0.63
6712.00,0.63
6711.00,0.63
6710.00,0.63
6709.00,0.63
6708.00,0.64
6707.00,0.64
6706.00,0.64
6705.00,0.64
6704.00,0.64
6703.00,0.64
6702.00,0.64
6701.00,0.65
6700.00,0.65
6699.00,0.65
6698.00,0.65
6697.00,0.65
6696.00,0.65
6695.00,0.65
6694.00,0.65
6693.00,0.65
6692.00,0.65
6691.00,0.65
6690.00,0.66
6689.00,0.66
6688.00,0.66
6687.00,0.66
6686.00,0.66
6685.00,0.66
6684.00,0.66
6683.00,0.66
6682.00,0.66
6681.00,0.66
6680.00,0.66
6679.00,0.66
6678.00,0.67
6677.00,0.67
6676.00,0.67
6675.00,0.67
6674.00,0.67
6673.00,0.67
6672.00,0.67
6671.00,0.67
6670.00,0.67
6669.00,0.67
6668.00,0.68
6667.00,0.68
6666.00,0.68
6665.00,0.68
6664.00,0.68
6663.00,0.68
6662.00,0.68
6661.00,0.68
6660.00,0.68
6659.00,0.68
6658.00,0.68
6657.00,0.68
6656.00,0.68
6655.00,0.69
6654.00,0.69
6653.00,0.69
6652.00,0.69
6651.00,0.69
6650.00,0.69
6649.00,0.69
6648.00,0.69
6647.00,0.69
6646.00,0.69
6645.00,0.69
6644.00,0.70
6643.00,0.70
6642.00,0.70
6641.00,0.70
6640.00,0.70
6639.00,0.70
6638.00,0.70
6637.00,0.71
6636.00,0.71
6635.00,0.71
6634.00,0.71
6633.00,0.71
6632.00,0.71
6631.00,0.72
6630.00,0.72
6629.00,0.72
6628.00,0.72
6627.00,0.72
6626.00,0.72
6625.00,0.73
6624.00,0.73
6623.00,0.73
6622.00,0.73
6621.00,0.73
6620.00,0.73
6619.00,0.74
6618.00,0.74
6617.00,0.74
6616.00,0.74
6615.00,0.74
6614.00,0.74
6613.00,0.74
6612.00,0.75
6611.00,0.75
6610.00,0.75
6609.00,0.75
6608.00,0.75
6607.00,0.75
6606.00,0.75
6605.00,0.75
6604.00,0.76
6603.00,0.76
6602.00,0.76
6601.00,0.76
6600.00,0.76
6599.00,0.76
6598.00,0.76
6597.00,0.76
6596.00,0.77
6595.00,0.77
6594.00,0.77
6593.00,0.77
6592.00,0.77
6591.00,0.77
6590.00,0.77
6589.00,0.77
6588.00,0.77
6587.00,0.77
6586.00,0.77
6585.00,0.77
6584.00,0.77
6583.00,0.77
6582.00,0.77
6581.00,0.77
6580.00,0.78
6579.00,0.78
6578.00,0.78
6577.00,0.78
6576.00,0.78
6575.00,0.78
6574.00,0.78
6573.00,0.78
6572.00,0.78
6571.00,0.78
6570.00,0.78
6569.00,0.78
6568.00,0.79
6567.00,0.79
6566.00,0.79
6565.00,0.79
6564.00,0.79
6563.00,0.79
6562.00,0.79
6561.00,0.79
6560.00,0.79
6559.00,0.80
6558.00,0.80
6557.00,0.80
6556.00,0.80
6555.00,0.80
6554.00,0.80
6553.00,0.80
6552.00,0.80
6551.00,0.80
6550.00,0.81
6549.00,0.81
6548.00,0.81
6547.00,0.81
6546.00,0.81
6545.00,0.81
6544.00,0.81
6543.00,0.81
6542.00,0.81
6541.00,0.81
6540.00,0.81
6539.00,0.81
6538.00,0.81
6537.00,0.81
6536.00,0.82
6535.00,0.82
6534.00,0.82
6533.00,0.82
6532.00,0.82
6531.00,0.82
6530.00,0.82
6529.00,0.82
6528.00,0.82
6527.00,0.82
6526.00,0.82
6525.00,0.82
6524.00,0.82
6523.00,0.82
6522.00,0.83
6521.00,0.83
6520.00,0.83
6519.00,0.83
6518.00,0.83
6517.00,0.83
6516.00,0.83
6515.00,0.83
6514.00,0.83
6513.00,0.83
6512.00,0.84
6511.00,0.84
6510.00,0.84
6509.00,0.84
6508.00,0.84
6507.00,0.84
6506.00,0.84
6505.00,0.84
6504.00,0.84
6503.00,0.84
6502.00,0.84
6501.00,0.84
6500.00,0.84
6499.00,0.84
6498.00,0.84
6497.00,0.84
6496.00,0.84
6495.00,0.85
6494.00,0.85
6493.00,0.85
6492.00,0.85
6491.00,0.85
6490.00,0.85
6489.00,0.85
6488.00,0.85
6487.00,0.85
6486.00,0.86
6485.00,0.86
6484.00,0.86
6483.00,0.86
6482.00,0.86
6481.00,0.86
6480.00,0.86
6479.00,0.86
6478.00,0.86
6477.00,0.87
6476.00,0.87
6475.00,0.87
6474.00,0.87
6473.00,0.87
6472.00,0.87
6471.00,0.87
6470.00,0.87
6469.00,0.87
6468.00,0.87
6467.00,0.87
6466.00,0.87
6465.00,0.87
6464.00,0.87
6463.00,0.87
6462.00,0.88
6461.00,0.88
6460.00,0.88
6459.00,0.88
6458.00,0.88
6457.00,0.88
6456.00,0.88
6455.00,0.88
6454.00,0.88
6453.00,0.88
6452.00,0.88
6451.00,0.88
6450.00,0.88
6449.00,0.88
6448.00,0.88
6447.00,0.88
6446.00,0.88
6445.00,0.88
6444.00,0.88
6443.00,0.88
6442.00,0.88
6441.00,0.89
6440.00,0.89
6439.00,0.89
6438.00,0.89
6437.00,0.89
6436.00,0.89
6435.00,0.89
6434.00,0.89
6433.00,0.89
6432.00,0.89
6431.00,0.89
6430.00,0.90
6429.00,0.90
6428.00,0.90
6427.00,0.90
6426.00,0.90
6425.00,0.90
6424.00,0.90
6423.00,0.90
6422.00,0.90
6421.00,0.90
6420.00,0.90
6419.00,0.90
6418.00,0.90
6417.00,0.90
6416.00,0.90
6415.00,0.90
6414.00,0.90
6413.00,0.90
6412.00,0.90
6411.00,0.91
6410.00,0.91
6409.00,0.91
6408.00,0.91
6407.00,0.91
6406.00,0.91
6405.00,0.91
6404.00,0.91
6403.00,0.91
6402.00,0.91
6401.00,0.91
6400.00,0.91
6399.00,0.92
6398.00,0.92
6397.00,0.92
6396.00,0.92
6395.00,0.92
6394.00,0.92
6393.00,0.92
6392.00,0.92
6391.00,0.93
6390.00,0.93
6389.00,0.93
6388.00,0.93
6387.00,0.93
6386.00,0.93
6385.00,0.93
6384.00,0.93
6383.00,0.93
6382.00,0.94
6381.00,0.94
6380.00,0.94
6379.00,0.94
6378.00,0.94
6377.00,0.94
6376.00,0.94
6375.00,0.94
6374.00,0.94
6373.00,0.94
6372.00,0.94
6371.00,0.94
6370.00,0.94
6369.00,0.94
6368.00,0.94
6367.00,0.94
6366.00,0.94
6365.00,0.94
6364.00,0.94
6363.00,0.94
6362.00,0.94
6361.00,0.94
6360.00,0.94
6359.00,0.94
6358.00,0.94
6357.00,0.94
6356.00,0.94
6355.00,0.94
6354.00,0.95
6353.00,0.95
6352.00,0.95
6351.00,0.95
6350.00,0.95
6349.00,0.95
6348.00,0.95
6347.00,0.95
6346.00,0.96
6345.00,0.96
6344.00,0.96
6343.00,0.96
6342.00,0.96
6341.00,0.96
6340.00,0.97
6339.00,0.97
6338.00,0.97
6337.00,0.97
6336.00,0.97
6335.00,0.97
6334.00,0.97
6333.00,0.97
6332.00,0.97
6331.00,0.98
6330.00,0.98
6329.00,0.98
6328.00,0.98
6327.00,0.98
6326.00,0.98
6325.00,0.98
6324.00,0.98
6323.00,0.98
6322.00,0.98
6321.00,0.98
6320.00,0.98
6319.00,0.99
6318.00,0.99
6317.00,0.99
6316.00,0.99
6315.00,0.99
6314.00,0.99
6313.00,0.99
6312.00,1.00
6311.00,1.00
6310.00,1.00
6309.00,1.00
6308.00,1.00
6307.00,1.00
6306.00,1.00
6305.00,1.00
6304.00,1.01
6303.00,1.01
6302.00,1.01
6301.00,1.01
6300.00,1.01
6299.00,1.01
6298.00,1.01
6297.00,1.01
6296.00,1.01
6295.00,1.01
6294.00,1.02
6293.00,1.02
6292.00,1.02
6291.00,1.02
6290.00,1.02
6289.00,1.03
6288.00,1.03
6287.00,1.03
6286.00,1.03
6285.00,1.03
6284.00,1.04
6283.00,1.04
6282.00,1.04
6281.00,1.04
6280.00,1.04
6279.00,1.04
6278.00,1.05
6277.00,1.05
6276.00,1.05
6275.00,1.05
6274.00,1.05
6273.00,1.05
6272.00,1.05
6271.00,1.05
6270.00,1.05
6269.00,1.05
6268.00,1.06
6267.00,1.06
6266.00,1.06
6265.00,1.06
6264.00,1.06
6263.00,1.06
6262.00,1.06
6261.00,1.06
6260.00,1.06
6259.00,1.06
6258.00,1.06
6257.00,1.06
6256.00,1.06
6255.00,1.07
6254.00,1.07
6253.00,1.07
6252.00,1.07
6251.00,1.07
6250.00,1.07
6249.00,1.07
6248.00,1.07
6247.00,1.08
6246.00,1.08
6245.00,1.08
6244.00,1.08
6243.00,1.08
6242.00,1.08
6241.00,1.08
6240.00,1.08
6239.00,1.09
6238.00,1.09
6237.00,1.09
6236.00,1.09
6235.00,1.09
6234.00,1.09
6233.00,1.09
6232.00,1.10
6231.00,1.10
6230.00,1.10
6229.00,1.10
6228.00,1.10
6227.00,1.10
6226.00,1.10
6225.00,1.11
6224.00,1.11
6223.00,1.11
6222.00,1.11
6221.00,1.11
6220.00,1.11
6219.00,1.11
6218.00,1.12
6217.00,1.12
6216.00,1.12
6215.00,1.12
6214.00,1.12
6213.00,1.12
6212.00,1.12
6211.00,1.13
6210.00,1.13
6209.00,1.13
6208.00,1.13
6207.00,1.13
6206.00,1.13
6205.00,1.14
6204.00,1.14
6203.00,1.14
6202.00,1.14
6201.00,1.14
6200.00,1.14
6199.00,1.15
6198.00,1.15
6197.00,1.15
6196.00,1.15
6195.00,1.15
6194.00,1.15
6193.00,1.16
6192.00,1.16
6191.00,1.16
6190.00,1.16
6189.00,1.16
6188.00,1.16
6187.00,1.16
6186.00,1.16
6185.00,1.17
6184.00,1.17
6183.00,1.17
6182.00,1.17
6181.00,1.17
6180.00,1.17
6179.00,1.18
6178.00,1.18
6177.00,1.18
6176.00,1.18
6175.00,1.18
6174.00,1.19
6173.00,1.19
6172.00,1.19
6171.00,1.19
6170.00,1.19
6169.00,1.20
6168.00,1.20
6167.00,1.20
6166.00,1.20
6165.00,1.21
6164.00,1.21
6163.00,1.21
6162.00,1.21
6161.00,1.21
6160.00,1.21
6159.00,1.21
6158.00,1.22
6157.00,1.22
6156.00,1.22
6155.00,1.22
6154.00,1.22
6153.00,1.22
6152.00,1.22
6151.00,1.22
6150.00,1.23
6149.00,1.23
6148.00,1.23
6147.00,1.23
6146.00,1.23
6145.00,1.23
6144.00,1.24
6143.00,1.24
6142.00,1.24
6141.00,1.24
6140.00,1.24
6139.00,1.24
6138.00,1.24
6137.00,1.24
6136.00,1.25
6135.00,1.25
6134.00,1.25
6133.00,1.25
6132.00,1.25
6131.00,1.25
6130.00,1.25
6129.00,1.26
6128.00,1.26
6127.00,1.26
6126.00,1.26
6125.00,1.26
6124.00,1.27
6123.00,1.27
6122.00,1.27
6121.00,1.27
6120.00,1.27
6119.00,1.28
6118.00,1.28
6117.00,1.28
6116.00,1.28
6115.00,1.29
6114.00,1.29
6113.00,1.29
6112.00,1.29
6111.00,1.29
6110.00,1.29
6109.00,1.30
6108.00,1.30
6107.00,1.30
6106.00,1.30
6105.00,1.30
6104.00,1.30
6103.00,1.30
6102.00,1.31
6101.00,1.31
6100.00,1.31
6099.00,1.31
6098.00,1.31
6097.00,1.31
6096.00,1.32
6095.00,1.32
6094.00,1.32
6093.00,1.32
6092.00,1.32
6091.00,1.32
6090.00,1.33
6089.00,1.33
6088.00,1.33
6087.00,1.33
6086.00,1.33
6085.00,1.33
6084.00,1.33
6083.00,1.34
6082.00,1.34
6081.00,1.34
6080.00,1.34
6079.00,1.34
6078.00,1.34
6077.00,1.34
6076.00,1.34
6075.00,1.34
6074.00,1.35
6073.00,1.35
6072.00,1.35
6071.00,1.35
6070.00,1.35
6069.00,1.35
6068.00,1.35
6067.00,1.35
6066.00,1.35
6065.00,1.36
6064.00,1.36
6063.00,1.36
6062.00,1.36
6061.00,1.36
6060.00,1.36
6059.00,1.36
6058.00,1.37
6057.00,1.37
6056.00,1.37
6055.00,1.37
6054.00,1.37
6053.00,1.37
6052.00,1.37
6051.00,1.37
6050.00,1.37
6049.00,1.38
6048.00,1.38
6047.00,1.38
6046.00,1.38
6045.00,1.38
6044.00,1.38
6043.00,1.38
6042.00,1.38
6041.00,1.38
6040.00,1.38
6039.00,1.38
6038.00,1.38
6037.00,1.38
6036.00,1.38
6035.00,1.38
6034.00,1.38
6033.00,1.38
6032.00,1.38
6031.00,1.38
6030.00,1.38
6029.00,1.38
6028.00,1.38
6027.00,1.39
6026.00,1.39
6025.00,1.39
6024.00,1.39
6023.00,1.39
6022.00,1.39
6021.00,1.39
6020.00,1.39
6019.00,1.39
6018.00,1.39
6017.00,1.39
6016.00,1.39
6015.00,1.39
6014.00,1.39
6013.00,1.39
6012.00,1.39
6011.00,1.39
6010.00,1.39
6009.00,1.39
6008.00,1.39
6007.00,1.39
6006.00,1.39
6005.00,1.39
6004.00,1.39
6003.00,1.39
6002.00,1.39
6001.00,1.38
6000.00,1.38
5999.00,1.38
5998.00,1.38
5997.00,1.38
5996.00,1.38
5995.00,1.37
5994.00,1.37
5993.00,1.37
5992.00,1.37
5991.00,1.37
5990.00,1.36
5989.00,1.36
5988.00,1.36
5987.00,1.36
5986.00,1.35
5985.00,1.35
5984.00,1.35
5983.00,1.35
5982.00,1.34
5981.00,1.34
5980.00,1.34
5979.00,1.33
5978.00,1.33
5977.00,1.32
5976.00,1.32
5975.00,1.31
5974.00,1.31
5973.00,1.30
5972.00,1.30
5971.00,1.29
5970.00,1.28
5969.00,1.28
5968.00,1.27
5967.00,1.26
5966.00,1.26
5965.00,1.25
5964.00,1.24
5963.00,1.23
5962.00,1.23
5961.00,1.22
5960.00,1.21
5959.00,1.20
5958.00,1.19
5957.00,1.19
5956.00,1.18
5955.00,1.17
5954.00,1.16
5953.00,1.15
5952.00,1.15
5951.00,1.14
5950.00,1.13
5949.00,1.13
5948.00,1.12
5947.00,1.11
5946.00,1.11
5945.00,1.10
5944.00,1.10
5943.00,1.10
5942.00,1.09
5941.00,1.09
5940.00,1.09
5939.00,1.09
5938.00,1.08
5937.00,1.08
5936.00,1.08
5935.00,1.08
5934.00,1.08
5933.00,1.08
5932.00,1.07
5931.00,1.07
5930.00,1.07
5929.00,1.07
5928.00,1.07
5927.00,1.07
5926.00,1.07
5925.00,1.07
5924.00,1.06
5923.00,1.06
5922.00,1.06
5921.00,1.06
5920.00,1.05
5919.00,1.05
5918.00,1.05
5917.00,1.05
5916.00,1.04
5915.00,1.04
5914.00,1.04
5913.00,1.03
5912.00,1.03
5911.00,1.02
5910.00,1.02
5909.00,1.02
5908.00,1.02
5907.00,1.01
5906.00,1.01
5905.00,1.01
5904.00,1.01
5903.00,1.01
5902.00,1.01
5901.00,1.00
5900.00,1.00
5899.00,1.00
5898.00,1.01
5897.00,1.01
5896.00,1.01
5895.00,1.01
5894.00,1.01
5893.00,1.01
5892.00,1.02
5891.00,1.02
5890.00,1.02
5889.00,1.03
5888.00,1.03
5887.00,1.03
5886.00,1.04
5885.00,1.04
5884.00,1.05
5883.00,1.05
5882.00,1.05
5881.00,1.06
5880.00,1.06
5879.00,1.07
5878.00,1.07
5877.00,1.07
5876.00,1.08
5875.00,1.08
5874.00,1.08
5873.00,1.08
5872.00,1.09
5871.00,1.09
5870.00,1.09
5869.00,1.09
5868.00,1.09
5867.00,1.10
5866.00,1.10
5865.00,1.10
5864.00,1.10
5863.00,1.10
5862.00,1.10
5861.00,1.10
5860.00,1.10
5859.00,1.11
5858.00,1.11
5857.00,1.11
5856.00,1.11
5855.00,1.11
5854.00,1.11
5853.00,1.11
5852.00,1.12
5851.00,1.12
5850.00,1.12
5849.00,1.12
5848.00,1.12
5847.00,1.12
5846.00,1.12
5845.00,1.12
5844.00,1.12
5843.00,1.12
5842.00,1.12
5841.00,1.12
5840.00,1.12
5839.00,1.12
5838.00,1.12
5837.00,1.12
5836.00,1.12
5835.00,1.12
5834.00,1.12
5833.00,1.12
5832.00,1.12
5831.00,1.12
5830.00,1.12
5829.00,1.12
5828.00,1.12
5827.00,1.12
5826.00,1.12
5825.00,1.12
5824.00,1.12
5823.00,1.12
5822.00,1.12
5821.00,1.12
5820.00,1.12
5819.00,1.12
5818.00,1.12
5817.00,1.12
5816.00,1.12
5815.00,1.12
5814.00,1.12
5813.00,1.12
5812.00,1.12
5811.00,1.12
5810.00,1.12
5809.00,1.12
5808.00,1.12
5807.00,1.12
5806.00,1.12
5805.00,1.12
5804.00,1.12
5803.00,1.12
5802.00,1.12
5801.00,1.12
5800.00,1.12
5799.00,1.12
5798.00,1.11
5797.00,1.11
5796.00,1.11
5795.00,1.11
5794.00,1.10
5793.00,1.10
5792.00,1.10
5791.00,1.10
5790.00,1.09
5789.00,1.09
5788.00,1.09
5787.00,1.08
5786.00,1.08
5785.00,1.08
5784.00,1.08
5783.00,1.08
5782.00,1.07
5781.00,1.07
5780.00,1.07
5779.00,1.07
5778.00,1.07
5777.00,1.07
5776.00,1.06
5775.00,1.06
5774.00,1.06
5773.00,1.06
5772.00,1.06
5771.00,1.06
5770.00,1.06
5769.00,1.06
5768.00,1.06
5767.00,1.06
5766.00,1.06
5765.00,1.07
5764.00,1.07
5763.00,1.07
5762.00,1.07
5761.00,1.07
5760.00,1.08
5759.00,1.08
5758.00,1.08
5757.00,1.09
5756.00,1.09
5755.00,1.09
5754.00,1.10
5753.00,1.10
5752.00,1.11
5751.00,1.11
5750.00,1.12
5749.00,1.12
5748.00,1.13
5747.00,1.13
5746.00,1.13
5745.00,1.14
5744.00,1.14
5743.00,1.15
5742.00,1.15
5741.00,1.15
5740.00,1.16
5739.00,1.16
5738.00,1.16
5737.00,1.17
5736.00,1.17
5735.00,1.17
5734.00,1.17
5733.00,1.18
5732.00,1.18
5731.00,1.18
5730.00,1.18
5729.00,1.18
5728.00,1.18
5727.00,1.19
5726.00,1.19
5725.00,1.19
5724.00,1.19
5723.00,1.19
5722.00,1.19
5721.00,1.19
5720.00,1.19
5719.00,1.19
5718.00,1.19
5717.00,1.19
5716.00,1.19
5715.00,1.19
5714.00,1.19
5713.00,1.19
5712.00,1.19
5711.00,1.19
5710.00,1.19
5709.00,1.19
5708.00,1.19
5707.00,1.19
5706.00,1.19
5705.00,1.19
5704.00,1.19
5703.00,1.19
5702.00,1.18
5701.00,1.18
5700.00,1.18
5699.00,1.18
5698.00,1.18
5697.00,1.18
5696.00,1.18
5695.00,1.17
5694.00,1.17
5693.00,1.17
5692.00,1.17
5691.00,1.17
5690.00,1.17
5689.00,1.17
5688.00,1.16
5687.00,1.16
5686.00,1.16
5685.00,1.16
5684.00,1.16
5683.00,1.16
5682.00,1.16
5681.00,1.16
5680.00,1.16
5679.00,1.16
5678.00,1.16
5677.00,1.15
5676.00,1.15
5675.00,1.15
5674.00,1.15
5673.00,1.15
5672.00,1.15
5671.00,1.15
5670.00,1.15
5669.00,1.15
5668.00,1.15
5667.00,1.15
5666.00,1.15
5665.00,1.15
5664.00,1.16
5663.00,1.16
5662.00,1.16
5661.00,1.16
5660.00,1.16
5659.00,1.16
5658.00,1.16
5657.00,1.17
5656.00,1.17
5655.00,1.17
5654.00,1.17
5653.00,1.17
5652.00,1.18
5651.00,1.18
5650.00,1.18
5649.00,1.18
5648.00,1.19
5647.00,1.19
5646.00,1.19
5645.00,1.19
5644.00,1.20
5643.00,1.20
5642.00,1.20
5641.00,1.20
5640.00,1.20
5639.00,1.21
5638.00,1.21
5637.00,1.21
5636.00,1.21
5635.00,1.22
5634.00,1.22
5633.00,1.22
5632.00,1.22
5631.00,1.22
5630.00,1.23
5629.00,1.23
5628.00,1.23
5627.00,1.23
5626.00,1.23
5625.00,1.24
5624.00,1.24
5623.00,1.24
5622.00,1.24
5621.00,1.24
5620.00,1.25
5619.00,1.25
5618.00,1.25
5617.00,1.25
5616.00,1.25
5615.00,1.26
5614.00,1.26
5613.00,1.26
5612.00,1.26
5611.00,1.26
5610.00,1.26
5609.00,1.27
5608.00,1.27
5607.00,1.27
5606.00,1.27
5605.00,1.27
5604.00,1.28
5603.00,1.28
5602.00,1.28
5601.00,1.28
5600.00,1.28
5599.00,1.29
5598.00,1.29
5597.00,1.29
5596.00,1.29
5595.00,1.29
5594.00,1.30
5593.00,1.30
5592.00,1.30
5591.00,1.30
5590.00,1.31
5589.00,1.31
5588.00,1.31
5587.00,1.31
5586.00,1.32
5585.00,1.32
5584.00,1.32
5583.00,1.32
5582.00,1.33
5581.00,1.33
5580.00,1.33
5579.00,1.33
5578.00,1.33
5577.00,1.33
5576.00,1.34
5575.00,1.34
5574.00,1.34
5573.00,1.34
5572.00,1.34
5571.00,1.34
5570.00,1.34
5569.00,1.34
5568.00,1.35
5567.00,1.35
5566.00,1.35
5565.00,1.35
5564.00,1.35
5563.00,1.35
5562.00,1.35
5561.00,1.35
5560.00,1.35
5559.00,1.36
5558.00,1.36
5557.00,1.36
5556.00,1.36
5555.00,1.36
5554.00,1.36
5553.00,1.37
5552.00,1.37
5551.00,1.37
5550.00,1.37
5549.00,1.37
5548.00,1.38
5547.00,1.38
5546.00,1.38
5545.00,1.38
5544.00,1.38
5543.00,1.38
5542.00,1.39
5541.00,1.39
5540.00,1.39
5539.00,1.39
5538.00,1.39
5537.00,1.39
5536.00,1.40
5535.00,1.40
5534.00,1.40
5533.00,1.40
5532.00,1.40
5531.00,1.40
5530.00,1.40
5529.00,1.40
5528.00,1.40
5527.00,1.41
5526.00,1.41
5525.00,1.41
5524.00,1.41
5523.00,1.41
5522.00,1.41
5521.00,1.41
5520.00,1.41
5519.00,1.42
5518.00,1.42
5517.00,1.42
5516.00,1.42
5515.00,1.42
5514.00,1.42
5513.00,1.42
5512.00,1.42
5511.00,1.42
5510.00,1.42
5509.00,1.42
5508.00,1.42
5507.00,1.42
5506.00,1.43
5505.00,1.43
5504.00,1.43
5503.00,1.43
5502.00,1.43
5501.00,1.43
5500.00,1.43
5499.00,1.43
5498.00,1.43
5497.00,1.43
5496.00,1.43
5495.00,1.43
5494.00,1.43
5493.00,1.43
5492.00,1.43
5491.00,1.43
5490.00,1.43
5489.00,1.44
5488.00,1.44
5487.00,1.44
5486.00,1.44
5485.00,1.44
5484.00,1.44
5483.00,1.44
5482.00,1.45
5481.00,1.45
5480.00,1.45
5479.00,1.45
5478.00,1.45
5477.00,1.45
5476.00,1.46
5475.00,1.46
5474.00,1.46
5473.00,1.46
5472.00,1.46
5471.00,1.47
5470.00,1.47
5469.00,1.47
5468.00,1.47
5467.00,1.47
5466.00,1.47
5465.00,1.48
5464.00,1.48
5463.00,1.48
5462.00,1.48
5461.00,1.48
5460.00,1.48
5459.00,1.48
5458.00,1.49
5457.00,1.49
5456.00,1.49
5455.00,1.49
5454.00,1.49
5453.00,1.49
5452.00,1.49
5451.00,1.49
5450.00,1.49
5449.00,1.49
5448.00,1.49
5447.00,1.49
5446.00,1.49
5445.00,1.49
5444.00,1.49
5443.00,1.49
5442.00,1.49
5441.00,1.49
5440.00,1.49
5439.00,1.49
5438.00,1.49
5437.00,1.49
5436.00,1.49
5435.00,1.50
5434.00,1.50
5433.00,1.50
5432.00,1.50
5431.00,1.50
5430.00,1.50
5429.00,1.50
5428.00,1.50
5427.00,1.50
5426.00,1.50
5425.00,1.50
5424.00,1.50
5423.00,1.50
5422.00,1.50
5421.00,1.50
5420.00,1.50
5419.00,1.50
5418.00,1.50
5417.00,1.50
5416.00,1.50
5415.00,1.50
5414.00,1.50
5413.00,1.50
5412.00,1.50
5411.00,1.50
5410.00,1.50
5409.00,1.50
5408.00,1.50
5407.00,1.50
5406.00,1.50
5405.00,1.50
5404.00,1.50
5403.00,1.50
5402.00,1.50
5401.00,1.50
5400.00,1.50
5399.00,1.50
5398.00,1.50
5397.00,1.50
5396.00,1.50
5395.00,1.50
5394.00,1.49
5393.00,1.49
5392.00,1.49
5391.00,1.49
5390.00,1.49
5389.00,1.48
5388.00,1.48
5387.00,1.48
5386.00,1.48
5385.00,1.47
5384.00,1.47
5383.00,1.47
5382.00,1.47
5381.00,1.46
5380.00,1.46
5379.00,1.45
5378.00,1.45
5377.00,1.45
5376.00,1.44
5375.00,1.44
5374.00,1.43
5373.00,1.43
5372.00,1.42
5371.00,1.42
5370.00,1.41
5369.00,1.41
5368.00,1.40
5367.00,1.40
5366.00,1.39
5365.00,1.38
5364.00,1.38
5363.00,1.37
5362.00,1.36
5361.00,1.35
5360.00,1.35
5359.00,1.34
5358.00,1.33
5357.00,1.32
5356.00,1.31
5355.00,1.31
5354.00,1.30
5353.00,1.29
5352.00,1.28
5351.00,1.27
5350.00,1.26
5349.00,1.25
5348.00,1.24
5347.00,1.23
5346.00,1.22
5345.00,1.21
5344.00,1.20
5343.00,1.19
5342.00,1.17
5341.00,1.16
5340.00,1.15
5339.00,1.14
5338.00,1.13
5337.00,1.11
5336.00,1.10
5335.00,1.09
5334.00,1.08
5333.00,1.06
5332.00,1.05
5331.00,1.04
5330.00,1.03
5329.00,1.02
5328.00,1.00
5327.00,0.99
5326.00,0.98
5325.00,0.97
5324.00,0.95
5323.00,0.94
5322.00,0.93
5321.00,0.92
5320.00,0.91
5319.00,0.89
5318.00,0.88
5317.00,0.87
5316.00,0.86
5315.00,0.85
5314.00,0.84
5313.00,0.82
5312.00,0.81
5311.00,0.80
5310.00,0.79
5309.00,0.78
5308.00,0.77
5307.00,0.76
5306.00,0.75
5305.00,0.74
5304.00,0.74
5303.00,0.73
5302.00,0.72
5301.00,0.71
5300.00,0.70
5299.00,0.70
5298.00,0.69
5297.00,0.69
5296.00,0.68
5295.00,0.68
5294.00,0.67
5293.00,0.67
5292.00,0.66
5291.00,0.66
5290.00,0.65
5289.00,0.65
5288.00,0.65
5287.00,0.64
5286.00,0.64
5285.00,0.64
5284.00,0.63
5283.00,0.63
5282.00,0.63
5281.00,0.63
5280.00,0.62
5279.00,0.62
5278.00,0.62
5277.00,0.62
5276.00,0.62
5275.00,0.61
5274.00,0.61
5273.00,0.61
5272.00,0.61
5271.00,0.61
5270.00,0.61
5269.00,0.61
5268.00,0.61
5267.00,0.61
5266.00,0.61
5265.00,0.61
5264.00,0.60
5263.00,0.60
5262.00,0.60
5261.00,0.60
5260.00,0.60
5259.00,0.60
5258.00,0.60
5257.00,0.60
5256.00,0.60
5255.00,0.60
5254.00,0.60
5253.00,0.60
5252.00,0.60
5251.00,0.60
5250.00,0.60
5249.00,0.60
5248.00,0.60
5247.00,0.60
5246.00,0.60
5245.00,0.59
5244.00,0.59
5243.00,0.59
5242.00,0.59
5241.00,0.59
5240.00,0.59
5239.00,0.59
5238.00,0.59
5237.00,0.59
5236.00,0.60
5235.00,0.60
5234.00,0.60
5233.00,0.60
5232.00,0.60
5231.00,0.60
5230.00,0.60
5229.00,0.60
5228.00,0.60
5227.00,0.60
5226.00,0.60
5225.00,0.60
5224.00,0.60
5223.00,0.60
5222.00,0.60
5221.00,0.60
5220.00,0.60
5219.00,0.60
5218.00,0.60
5217.00,0.60
5216.00,0.61
5215.00,0.61
5214.00,0.61
5213.00,0.61
5212.00,0.61
5211.00,0.61
5210.00,0.61
5209.00,0.61
5208.00,0.61
5207.00,0.61
5206.00,0.61
5205.00,0.61
5204.00,0.61
5203.00,0.61
5202.00,0.62
5201.00,0.62
5200.00,0.62
5199.00,0.62
5198.00,0.62
5197.00,0.62
5196.00,0.62
5195.00,0.62
5194.00,0.62
5193.00,0.62
5192.00,0.62
5191.00,0.62
5190.00,0.62
5189.00,0.62
5188.00,0.62
5187.00,0.62
5186.00,0.62
5185.00,0.62
5184.00,0.62
5183.00,0.62
5182.00,0.62
5181.00,0.62
5180.00,0.62
5179.00,0.62
5178.00,0.62
5177.00,0.62
5176.00,0.62
5175.00,0.62
5174.00,0.62
5173.00,0.62
5172.00,0.63
5171.00,0.63
5170.00,0.63
5169.00,0.63
5168.00,0.63
5167.00,0.63
5166.00,0.63
5165.00,0.63
5164.00,0.63
5163.00,0.63
5162.00,0.63
5161.00,0.63
5160.00,0.63
5159.00,0.63
5158.00,0.63
5157.00,0.63
5156.00,0.63
5155.00,0.63
5154.00,0.63
5153.00,0.63
5152.00,0.63
5151.00,0.63
5150.00,0.63
5149.00,0.63
5148.00,0.63
5147.00,0.63
5146.00,0.63
5145.00,0.63
5144.00,0.63
5143.00,0.63
5142.00,0.63
5141.00,0.63
5140.00,0.63
5139.00,0.63
5138.00,0.64
5137.00,0.64
5136.00,0.64
5135.00,0.64
5134.00,0.64
5133.00,0.64
5132.00,0.64
5131.00,0.64
5130.00,0.64
5129.00,0.64
5128.00,0.64
5127.00,0.65
5126.00,0.65
5125.00,0.65
5124.00,0.65
5123.00,0.65
5122.00,0.65
5121.00,0.65
5120.00,0.65
5119.00,0.65
5118.00,0.65
5117.00,0.65
5116.00,0.65
5115.00,0.65
5114.00,0.65
5113.00,0.65
5112.00,0.65
5111.00,0.66
5110.00,0.66
5109.00,0.66
5108.00,0.66
5107.00,0.66
5106.00,0.66
5105.00,0.66
5104.00,0.66
5103.00,0.66
5102.00,0.66
5101.00,0.66
5100.00,0.67
5099.00,0.67
5098.00,0.67
5097.00,0.67
5096.00,0.67
5095.00,0.67
5094.00,0.67
5093.00,0.67
5092.00,0.67
5091.00,0.67
5090.00,0.68
5089.00,0.68
5088.00,0.68
5087.00,0.68
5086.00,0.68
5085.00,0.68
5084.00,0.68
5083.00,0.68
5082.00,0.68
5081.00,0.68
5080.00,0.68
5079.00,0.68
5078.00,0.68
5077.00,0.68
5076.00,0.68
5075.00,0.68
5074.00,0.68
5073.00,0.68
5072.00,0.68
5071.00,0.68
5070.00,0.68
5069.00,0.68
5068.00,0.68
5067.00,0.68
5066.00,0.68
5065.00,0.68
5064.00,0.69
5063.00,0.69
5062.00,0.69
5061.00,0.69
5060.00,0.69
5059.00,0.69
5058.00,0.69
5057.00,0.69
5056.00,0.69
5055.00,0.70
5054.00,0.70
5053.00,0.70
5052.00,0.70
5051.00,0.70
5050.00,0.70
5049.00,0.70
5048.00,0.70
5047.00,0.71
5046.00,0.71
5045.00,0.71
5044.00,0.71
5043.00,0.71
5042.00,0.71
5041.00,0.71
5040.00,0.71
5039.00,0.71
5038.00,0.72
5037.00,0.72
5036.00,0.72
5035.00,0.72
5034.00,0.72
5033.00,0.72
5032.00,0.72
5031.00,0.72
5030.00,0.72
5029.00,0.73
5028.00,0.73
5027.00,0.73
5026.00,0.73
5025.00,0.73
5024.00,0.73
5023.00,0.73
5022.00,0.73
5021.00,0.73
5020.00,0.74
5019.00,0.74
5018.00,0.74
5017.00,0.74
5016.00,0.74
5015.00,0.74
5014.00,0.74
5013.00,0.74
5012.00,0.74
5011.00,0.74
5010.00,0.75
5009.00,0.75
5008.00,0.75
5007.00,0.75
5006.00,0.75
5005.00,0.75
5004.00,0.75
5003.00,0.75
5002.00,0.75
5001.00,0.75
5000.00,0.75
4999.00,0.75
4998.00,0.75
4997.00,0.76
4996.00,0.76
4995.00,0.76
4994.00,0.76
4993.00,0.76
4992.00,0.76
4991.00,0.76
4990.00,0.76
4989.00,0.76
4988.00,0.77
4987.00,0.77
4986.00,0.77
4985.00,0.77
4984.00,0.77
4983.00,0.77
4982.00,0.77
4981.00,0.77
4980.00,0.77
4979.00,0.77
4978.00,0.77
4977.00,0.78
4976.00,0.78
4975.00,0.78
4974.00,0.78
4973.00,0.78
4972.00,0.78
4971.00,0.78
4970.00,0.78
4969.00,0.79
4968.00,0.79
4967.00,0.79
4966.00,0.79
4965.00,0.79
4964.00,0.79
4963.00,0.80
4962.00,0.80
4961.00,0.80
4960.00,0.80
4959.00,0.80
4958.00,0.80
4957.00,0.80
4956.00,0.80
4955.00,0.80
4954.00,0.81
4953.00,0.81
4952.00,0.81
4951.00,0.81
4950.00,0.81
4949.00,0.81
4948.00,0.81
4947.00,0.81
4946.00,0.81
4945.00,0.81
4944.00,0.82
4943.00,0.82
4942.00,0.82
4941.00,0.82
4940.00,0.82
4939.00,0.82
4938.00,0.82
4937.00,0.82
4936.00,0.83
4935.00,0.83
4934.00,0.83
4933.00,0.83
4932.00,0.83
4931.00,0.83
4930.00,0.83
4929.00,0.83
4928.00,0.83
4927.00,0.83
4926.00,0.83
4925.00,0.83
4924.00,0.83
4923.00,0.83
4922.00,0.84
4921.00,0.84
4920.00,0.84
4919.00,0.84
4918.00,0.84
4917.00,0.84
4916.00,0.84
4915.00,0.84
4914.00,0.84
4913.00,0.84
4912.00,0.84
4911.00,0.84
4910.00,0.84
4909.00,0.84
4908.00,0.84
4907.00,0.84
4906.00,0.84
4905.00,0.85
4904.00,0.85
4903.00,0.85
4902.00,0.85
4901.00,0.85
4900.00,0.85
4899.00,0.85
4898.00,0.85
4897.00,0.85
4896.00,0.85
4895.00,0.85
4894.00,0.85
4893.00,0.85
4892.00,0.85
4891.00,0.86
4890.00,0.86
4889.00,0.86
4888.00,0.86
4887.00,0.86
4886.00,0.86
4885.00,0.86
4884.00,0.86
4883.00,0.86
4882.00,0.86
4881.00,0.86
4880.00,0.86
4879.00,0.86
4878.00,0.86
4877.00,0.86
4876.00,0.87
4875.00,0.87
4874.00,0.87
4873.00,0.87
4872.00,0.87
4871.00,0.87
4870.00,0.87
4869.00,0.87
4868.00,0.88
4867.00,0.88
4866.00,0.88
4865.00,0.88
4864.00,0.88
4863.00,0.88
4862.00,0.88
4861.00,0.88
4860.00,0.89
4859.00,0.89
4858.00,0.89
4857.00,0.89
4856.00,0.89
4855.00,0.89
4854.00,0.89
4853.00,0.89
4852.00,0.89
4851.00,0.89
4850.00,0.89
4849.00,0.89
4848.00,0.89
4847.00,0.89
4846.00,0.89
4845.00,0.89
4844.00,0.89
4843.00,0.89
4842.00,0.89
4841.00,0.90
4840.00,0.90
4839.00,0.90
4838.00,0.90
4837.00,0.90
4836.00,0.90
4835.00,0.90
4834.00,0.90
4833.00,0.90
4832.00,0.90
4831.00,0.90
4830.00,0.90
4829.00,0.90
4828.00,0.90
4827.00,0.90
4826.00,0.90
4825.00,0.90
4824.00,0.91
4823.00,0.91
4822.00,0.91
4821.00,0.91
4820.00,0.91
4819.00,0.91
4818.00,0.91
4817.00,0.91
4816.00,0.92
4815.00,0.92
4814.00,0.92
4813.00,0.92
4812.00,0.92
4811.00,0.92
4810.00,0.93
4809.00,0.93
4808.00,0.93
4807.00,0.93
4806.00,0.93
4805.00,0.93
4804.00,0.93
4803.00,0.93
4802.00,0.94
4801.00,0.94
4800.00,0.94
4799.00,0.94
4798.00,0.94
4797.00,0.94
4796.00,0.95
4795.00,0.95
4794.00,0.95
4793.00,0.95
4792.00,0.95
4791.00,0.96
4790.00,0.96
4789.00,0.96
4788.00,0.96
4787.00,0.96
4786.00,0.97
4785.00,0.97
4784.00,0.97
4783.00,0.97
4782.00,0.97
4781.00,0.97
4780.00,0.98
4779.00,0.98
4778.00,0.98
4777.00,0.98
4776.00,0.98
4775.00,0.98
4774.00,0.98
4773.00,0.98
4772.00,0.99
4771.00,0.99
4770.00,0.99
4769.00,0.99
4768.00,0.99
4767.00,0.99
4766.00,0.99
4765.00,1.00
4764.00,1.00
4763.00,1.00
4762.00,1.00
4761.00,1.00
4760.00,1.00
4759.00,1.01
4758.00,1.01
4757.00,1.01
4756.00,1.01
4755.00,1.01
4754.00,1.02
4753.00,1.02
4752.00,1.02
4751.00,1.03
4750.00,1.03
4749.00,1.03
4748.00,1.03
4747.00,1.04
4746.00,1.04
4745.00,1.04
4744.00,1.04
4743.00,1.05
4742.00,1.05
4741.00,1.05
4740.00,1.05
4739.00,1.05
4738.00,1.06
4737.00,1.06
4736.00,1.06
4735.00,1.06
4734.00,1.06
4733.00,1.07
4732.00,1.07
4731.00,1.07
4730.00,1.07
4729.00,1.08
4728.00,1.08
4727.00,1.08
4726.00,1.08
4725.00,1.09
4724.00,1.09
4723.00,1.09
4722.00,1.09
4721.00,1.10
4720.00,1.10
4719.00,1.10
4718.00,1.10
4717.00,1.11
4716.00,1.11
4715.00,1.11
4714.00,1.11
4713.00,1.11
4712.00,1.12
4711.00,1.12
4710.00,1.12
4709.00,1.12
4708.00,1.12
4707.00,1.12
4706.00,1.13
4705.00,1.13
4704.00,1.13
4703.00,1.13
4702.00,1.13
4701.00,1.13
4700.00,1.13
4699.00,1.13
4698.00,1.14
4697.00,1.14
4696.00,1.14
4695.00,1.14
4694.00,1.14
4693.00,1.14
4692.00,1.14
4691.00,1.14
4690.00,1.14
4689.00,1.14
4688.00,1.15
4687.00,1.15
4686.00,1.15
4685.00,1.15
4684.00,1.15
4683.00,1.15
4682.00,1.15
4681.00,1.15
4680.00,1.16
4679.00,1.16
4678.00,1.16
4677.00,1.16
4676.00,1.16
4675.00,1.17
4674.00,1.17
4673.00,1.17
4672.00,1.17
4671.00,1.17
4670.00,1.18
4669.00,1.18
4668.00,1.18
4667.00,1.18
4666.00,1.19
4665.00,1.19
4664.00,1.19
4663.00,1.19
4662.00,1.19
4661.00,1.20
4660.00,1.20
4659.00,1.20
4658.00,1.20
4657.00,1.21
4656.00,1.21
4655.00,1.21
4654.00,1.21
4653.00,1.22
4652.00,1.22
4651.00,1.22
4650.00,1.22
4649.00,1.22
4648.00,1.23
4647.00,1.23
4646.00,1.23
4645.00,1.23
4644.00,1.24
4643.00,1.24
4642.00,1.24
4641.00,1.24
4640.00,1.24
4639.00,1.25
4638.00,1.25
4637.00,1.25
4636.00,1.25
4635.00,1.26
4634.00,1.26
4633.00,1.26
4632.00,1.26
4631.00,1.26
4630.00,1.27
4629.00,1.27
4628.00,1.27
4627.00,1.27
4626.00,1.27
4625.00,1.27
4624.00,1.28
4623.00,1.28
4622.00,1.28
4621.00,1.28
4620.00,1.28
4619.00,1.28
4618.00,1.28
4617.00,1.29
4616.00,1.29
4615.00,1.29
4614.00,1.29
4613.00,1.29
4612.00,1.29
4611.00,1.29
4610.00,1.29
4609.00,1.30
4608.00,1.30
4607.00,1.30
4606.00,1.30
4605.00,1.30
4604.00,1.30
4603.00,1.30
4602.00,1.31
4601.00,1.31
4600.00,1.31
4599.00,1.31
4598.00,1.31
4597.00,1.31
4596.00,1.31
4595.00,1.32
4594.00,1.32
4593.00,1.32
4592.00,1.32
4591.00,1.32
4590.00,1.32
4589.00,1.32
4588.00,1.32
4587.00,1.32
4586.00,1.33
4585.00,1.33
4584.00,1.33
4583.00,1.33
4582.00,1.33
4581.00,1.33
4580.00,1.34
4579.00,1.34
4578.00,1.34
4577.00,1.34
4576.00,1.34
4575.00,1.34
4574.00,1.35
4573.00,1.35
4572.00,1.35
4571.00,1.35
4570.00,1.35
4569.00,1.36
4568.00,1.36
4567.00,1.36
4566.00,1.36
4565.00,1.36
4564.00,1.36
4563.00,1.36
4562.00,1.36
4561.00,1.36
4560.00,1.37
4559.00,1.37
4558.00,1.37
4557.00,1.37
4556.00,1.37
4555.00,1.37
4554.00,1.37
4553.00,1.37
4552.00,1.38
4551.00,1.38
4550.00,1.38
4549.00,1.38
4548.00,1.38
4547.00,1.38
4546.00,1.38
4545.00,1.39
4544.00,1.39
4543.00,1.39
4542.00,1.39
4541.00,1.39
4540.00,1.39
4539.00,1.39
4538.00,1.39
4537.00,1.39
4536.00,1.40
4535.00,1.40
4534.00,1.40
4533.00,1.40
4532.00,1.40
4531.00,1.40
4530.00,1.40
4529.00,1.40
4528.00,1.40
4527.00,1.41
4526.00,1.41
4525.00,1.41
4524.00,1.41
4523.00,1.41
4522.00,1.41
4521.00,1.41
4520.00,1.41
4519.00,1.41
4518.00,1.41
4517.00,1.41
4516.00,1.41
4515.00,1.41
4514.00,1.41
4513.00,1.41
4512.00,1.41
4511.00,1.41
4510.00,1.41
4509.00,1.41
4508.00,1.41
4507.00,1.41
4506.00,1.41
4505.00,1.41
4504.00,1.41
4503.00,1.41
4502.00,1.40
4501.00,1.40
4500.00,1.40
4499.00,1.40
4498.00,1.40
4497.00,1.40
4496.00,1.40
4495.00,1.40
4494.00,1.39
4493.00,1.39
4492.00,1.39
4491.00,1.39
4490.00,1.39
4489.00,1.39
4488.00,1.39
4487.00,1.39
4486.00,1.38
4485.00,1.38
4484.00,1.38
4483.00,1.38
4482.00,1.38
4481.00,1.37
4480.00,1.37
4479.00,1.37
4478.00,1.37
4477.00,1.36
4476.00,1.36
4475.00,1.36
4474.00,1.36
4473.00,1.35
4472.00,1.35
4471.00,1.34
4470.00,1.34
4469.00,1.34
4468.00,1.33
4467.00,1.33
4466.00,1.32
4465.00,1.32
4464.00,1.32
4463.00,1.31
4462.00,1.31
4461.00,1.30
4460.00,1.30
4459.00,1.29
4458.00,1.28
4457.00,1.28
4456.00,1.27
4455.00,1.27
4454.00,1.26
4453.00,1.26
4452.00,1.25
4451.00,1.25
4450.00,1.24
4449.00,1.24
4448.00,1.23
4447.00,1.23
4446.00,1.23
4445.00,1.22
4444.00,1.22
4443.00,1.21
4442.00,1.21
4441.00,1.21
4440.00,1.20
4439.00,1.20
4438.00,1.19
4437.00,1.19
4436.00,1.19
4435.00,1.18
4434.00,1.18
4433.00,1.17
4432.00,1.17
4431.00,1.17
4430.00,1.16
4429.00,1.16
4428.00,1.16
4427.00,1.15
4426.00,1.15
4425.00,1.15
4424.00,1.14
4423.00,1.14
4422.00,1.14
4421.00,1.14
4420.00,1.13
4419.00,1.13
4418.00,1.13
4417.00,1.13
4416.00,1.13
4415.00,1.13
4414.00,1.12
4413.00,1.12
4412.00,1.12
4411.00,1.12
4410.00,1.12
4409.00,1.12
4408.00,1.12
4407.00,1.12
4406.00,1.12
4405.00,1.12
4404.00,1.12
4403.00,1.12
4402.00,1.12
4401.00,1.12
4400.00,1.12
4399.00,1.13
4398.00,1.13
4397.00,1.13
4396.00,1.13
4395.00,1.14
4394.00,1.14
4393.00,1.14
4392.00,1.14
4391.00,1.15
4390.00,1.15
4389.00,1.15
4388.00,1.15
4387.00,1.15
4386.00,1.16
4385.00,1.16
4384.00,1.16
4383.00,1.16
4382.00,1.16
4381.00,1.16
4380.00,1.16
4379.00,1.17
4378.00,1.17
4377.00,1.17
4376.00,1.17
4375.00,1.17
4374.00,1.17
4373.00,1.17
4372.00,1.17
4371.00,1.18
4370.00,1.18
4369.00,1.18
4368.00,1.18
4367.00,1.18
4366.00,1.18
4365.00,1.18
4364.00,1.18
4363.00,1.18
4362.00,1.18
4361.00,1.18
4360.00,1.18
4359.00,1.18
4358.00,1.18
4357.00,1.18
4356.00,1.18
4355.00,1.18
4354.00,1.18
4353.00,1.18
4352.00,1.17
4351.00,1.17
4350.00,1.17
4349.00,1.17
4348.00,1.17
4347.00,1.17
4346.00,1.17
4345.00,1.17
4344.00,1.17
4343.00,1.17
4342.00,1.18
4341.00,1.18
4340.00,1.18
4339.00,1.18
4338.00,1.18
4337.00,1.18
4336.00,1.18
4335.00,1.18
4334.00,1.18
4333.00,1.18
4332.00,1.18
4331.00,1.18
4330.00,1.19
4329.00,1.19
4328.00,1.19
4327.00,1.19
4326.00,1.19
4325.00,1.20
4324.00,1.20
4323.00,1.20
4322.00,1.20
4321.00,1.21
4320.00,1.21
4319.00,1.21
4318.00,1.21
4317.00,1.22
4316.00,1.22
4315.00,1.22
4314.00,1.22
4313.00,1.23
4312.00,1.23
4311.00,1.23
4310.00,1.23
4309.00,1.24
4308.00,1.24
4307.00,1.24
4306.00,1.25
4305.00,1.25
4304.00,1.25
4303.00,1.26
4302.00,1.26
4301.00,1.26
4300.00,1.27
4299.00,1.27
4298.00,1.27
4297.00,1.27
4296.00,1.28
4295.00,1.28
4294.00,1.28
4293.00,1.28
4292.00,1.29
4291.00,1.29
4290.00,1.29
4289.00,1.29
4288.00,1.29
4287.00,1.29
4286.00,1.29
4285.00,1.29
4284.00,1.29
4283.00,1.30
4282.00,1.30
4281.00,1.30
4280.00,1.30
4279.00,1.30
4278.00,1.30
4277.00,1.30
4276.00,1.30
4275.00,1.30
4274.00,1.30
4273.00,1.30
4272.00,1.30
4271.00,1.30
4270.00,1.30
4269.00,1.30
4268.00,1.30
4267.00,1.30
4266.00,1.30
4265.00,1.30
4264.00,1.29
4263.00,1.29
4262.00,1.29
4261.00,1.29
4260.00,1.29
4259.00,1.29
4258.00,1.29
4257.00,1.28
4256.00,1.28
4255.00,1.28
4254.00,1.28
4253.00,1.28
4252.00,1.28
4251.00,1.28
4250.00,1.28
4249.00,1.28
4248.00,1.29
4247.00,1.29
4246.00,1.29
4245.00,1.29
4244.00,1.29
4243.00,1.30
4242.00,1.30
4241.00,1.30
4240.00,1.30
4239.00,1.31
4238.00,1.31
4237.00,1.31
4236.00,1.31
4235.00,1.32
4234.00,1.32
4233.00,1.32
4232.00,1.32
4231.00,1.33
4230.00,1.33
4229.00,1.33
4228.00,1.33
4227.00,1.34
4226.00,1.34
4225.00,1.34
4224.00,1.34
4223.00,1.35
4222.00,1.35
4221.00,1.35
4220.00,1.35
4219.00,1.35
4218.00,1.36
4217.00,1.36
4216.00,1.36
4215.00,1.36
4214.00,1.36
4213.00,1.36
4212.00,1.36
4211.00,1.36
4210.00,1.36
4209.00,1.37
4208.00,1.37
4207.00,1.37
4206.00,1.37
4205.00,1.37
4204.00,1.37
4203.00,1.37
4202.00,1.37
4201.00,1.37
4200.00,1.37
4199.00,1.36
4198.00,1.36
4197.00,1.36
4196.00,1.36
4195.00,1.36
4194.00,1.36
4193.00,1.36
4192.00,1.36
4191.00,1.36
4190.00,1.36
4189.00,1.36
4188.00,1.36
4187.00,1.36
4186.00,1.36
4185.00,1.36
4184.00,1.36
4183.00,1.36
4182.00,1.36
4181.00,1.36
4180.00,1.37
4179.00,1.37
4178.00,1.37
4177.00,1.37
4176.00,1.37
4175.00,1.37
4174.00,1.37
4173.00,1.37
4172.00,1.37
4171.00,1.37
4170.00,1.37
4169.00,1.37
4168.00,1.37
4167.00,1.37
4166.00,1.37
4165.00,1.37
4164.00,1.37
4163.00,1.38
4162.00,1.38
4161.00,1.38
4160.00,1.38
4159.00,1.38
4158.00,1.38
4157.00,1.38
4156.00,1.38
4155.00,1.38
4154.00,1.38
4153.00,1.38
4152.00,1.38
4151.00,1.38
4150.00,1.38
4149.00,1.38
4148.00,1.38
4147.00,1.38
4146.00,1.38
4145.00,1.38
4144.00,1.38
4143.00,1.38
4142.00,1.38
4141.00,1.38
4140.00,1.38
4139.00,1.38
4138.00,1.38
4137.00,1.38
4136.00,1.38
4135.00,1.38
4134.00,1.38
4133.00,1.39
4132.00,1.39
4131.00,1.39
4130.00,1.39
4129.00,1.39
4128.00,1.39
4127.00,1.39
4126.00,1.40
4125.00,1.40
4124.00,1.40
4123.00,1.40
4122.00,1.40
4121.00,1.41
4120.00,1.41
4119.00,1.41
4118.00,1.41
4117.00,1.41
4116.00,1.41
4115.00,1.41
4114.00,1.42
4113.00,1.42
4112.00,1.42
4111.00,1.42
4110.00,1.42
4109.00,1.42
4108.00,1.43
4107.00,1.43
4106.00,1.43
4105.00,1.43
4104.00,1.43
4103.00,1.44
4102.00,1.44
4101.00,1.44
4100.00,1.44
4099.00,1.44
4098.00,1.45
4097.00,1.45
4096.00,1.45
4095.00,1.45
4094.00,1.45
4093.00,1.45
4092.00,1.45
4091.00,1.44
4090.00,1.44
4089.00,1.44
4088.00,1.44
4087.00,1.44
4086.00,1.44
4085.00,1.44
4084.00,1.44
4083.00,1.44
4082.00,1.44
4081.00,1.44
4080.00,1.44
4079.00,1.44
4078.00,1.44
4077.00,1.44
4076.00,1.45
4075.00,1.45
4074.00,1.45
4073.00,1.45
4072.00,1.45
4071.00,1.45
4070.00,1.45
4069.00,1.46
4068.00,1.46
4067.00,1.46
4066.00,1.46
4065.00,1.46
4064.00,1.46
4063.00,1.46
4062.00,1.46
4061.00,1.46
4060.00,1.46
4059.00,1.46
4058.00,1.47
4057.00,1.47
4056.00,1.47
4055.00,1.47
4054.00,1.47
4053.00,1.47
4052.00,1.47
4051.00,1.47
4050.00,1.47
4049.00,1.47
4048.00,1.47
4047.00,1.47
4046.00,1.47
4045.00,1.47
4044.00,1.47
4043.00,1.47
4042.00,1.47
4041.00,1.47
4040.00,1.47
4039.00,1.47
4038.00,1.48
4037.00,1.48
4036.00,1.48
4035.00,1.48
4034.00,1.48
4033.00,1.48
4032.00,1.48
4031.00,1.48
4030.00,1.48
4029.00,1.49
4028.00,1.49
4027.00,1.49
4026.00,1.49
4025.00,1.49
4024.00,1.49
4023.00,1.49
4022.00,1.49
4021.00,1.49
4020.00,1.49
4019.00,1.49
4018.00,1.49
4017.00,1.49
4016.00,1.49
4015.00,1.49
4014.00,1.49
4013.00,1.49
4012.00,1.49
4011.00,1.50
4010.00,1.50
4009.00,1.50
4008.00,1.50
4007.00,1.50
4006.00,1.50
4005.00,1.50
4004.00,1.50
4003.00,1.50
4002.00,1.50
4001.00,1.50
4000.00,1.50
