创建为新数据集,样品 012 用户 Administrator 日期 星期二, 十月 31 2017
cm-1,%T
10000.00,1.35
9999.00,1.36
9998.00,1.36
9997.00,1.36
9996.00,1.37
9995.00,1.37
9994.00,1.37
9993.00,1.37
9992.00,1.38
9991.00,1.38
9990.00,1.38
9989.00,1.38
9988.00,1.38
9987.00,1.38
9986.00,1.38
9985.00,1.38
9984.00,1.38
9983.00,1.38
9982.00,1.38
9981.00,1.38
9980.00,1.38
9979.00,1.38
9978.00,1.38
9977.00,1.38
9976.00,1.38
9975.00,1.37
9974.00,1.37
9973.00,1.37
9972.00,1.37
9971.00,1.37
9970.00,1.37
9969.00,1.37
9968.00,1.36
9967.00,1.36
9966.00,1.36
9965.00,1.36
9964.00,1.36
9963.00,1.36
9962.00,1.36
9961.00,1.36
9960.00,1.36
9959.00,1.36
9958.00,1.35
9957.00,1.35
9956.00,1.35
9955.00,1.35
9954.00,1.35
9953.00,1.36
9952.00,1.36
9951.00,1.36
9950.00,1.36
9949.00,1.36
9948.00,1.36
9947.00,1.36
9946.00,1.36
9945.00,1.35
9944.00,1.35
9943.00,1.35
9942.00,1.35
9941.00,1.35
9940.00,1.35
9939.00,1.35
9938.00,1.35
9937.00,1.35
9936.00,1.34
9935.00,1.34
9934.00,1.34
9933.00,1.35
9932.00,1.35
9931.00,1.35
9930.00,1.35
9929.00,1.35
9928.00,1.35
9927.00,1.36
9926.00,1.36
9925.00,1.36
9924.00,1.36
9923.00,1.37
9922.00,1.37
9921.00,1.37
9920.00,1.37
9919.00,1.37
9918.00,1.37
9917.00,1.37
9916.00,1.37
9915.00,1.37
9914.00,1.37
9913.00,1.37
9912.00,1.36
9911.00,1.36
9910.00,1.36
9909.00,1.36
9908.00,1.36
9907.00,1.36
9906.00,1.36
9905.00,1.36
9904.00,1.36
9903.00,1.36
9902.00,1.37
9901.00,1.37
9900.00,1.37
9899.00,1.37
9898.00,1.37
9897.00,1.38
9896.00,1.38
9895.00,1.38
9894.00,1.38
9893.00,1.38
9892.00,1.38
9891.00,1.38
9890.00,1.38
9889.00,1.38
9888.00,1.38
9887.00,1.38
9886.00,1.37
9885.00,1.37
9884.00,1.37
9883.00,1.36
9882.00,1.36
9881.00,1.36
9880.00,1.35
9879.00,1.35
9878.00,1.34
9877.00,1.34
9876.00,1.34
9875.00,1.33
9874.00,1.33
9873.00,1.33
9872.00,1.33
9871.00,1.33
9870.00,1.33
9869.00,1.33
9868.00,1.33
9867.00,1.33
9866.00,1.33
9865.00,1.33
9864.00,1.34
9863.00,1.34
9862.00,1.34
9861.00,1.34
9860.00,1.35
9859.00,1.35
9858.00,1.35
9857.00,1.35
9856.00,1.35
9855.00,1.35
9854.00,1.35
9853.00,1.35
9852.00,1.35
9851.00,1.35
9850.00,1.35
9849.00,1.35
9848.00,1.34
9847.00,1.34
9846.00,1.34
9845.00,1.34
9844.00,1.34
9843.00,1.33
9842.00,1.33
9841.00,1.33
9840.00,1.33
9839.00,1.33
9838.00,1.33
9837.00,1.33
9836.00,1.33
9835.00,1.33
9834.00,1.33
9833.00,1.33
9832.00,1.33
9831.00,1.33
9830.00,1.33
9829.00,1.33
9828.00,1.33
9827.00,1.33
9826.00,1.33
9825.00,1.33
9824.00,1.33
9823.00,1.33
9822.00,1.33
9821.00,1.33
9820.00,1.33
9819.00,1.34
9818.00,1.34
9817.00,1.34
9816.00,1.34
9815.00,1.34
9814.00,1.34
9813.00,1.34
9812.00,1.34
9811.00,1.34
9810.00,1.34
9809.00,1.34
9808.00,1.34
9807.00,1.34
9806.00,1.34
9805.00,1.34
9804.00,1.34
9803.00,1.34
9802.00,1.35
9801.00,1.35
9800.00,1.35
9799.00,1.35
9798.00,1.35
9797.00,1.35
9796.00,1.35
9795.00,1.35
9794.00,1.35
9793.00,1.35
9792.00,1.35
9791.00,1.35
9790.00,1.35
9789.00,1.35
9788.00,1.34
9787.00,1.34
9786.00,1.34
9785.00,1.34
9784.00,1.34
9783.00,1.34
9782.00,1.34
9781.00,1.34
9780.00,1.34
9779.00,1.35
9778.00,1.35
9777.00,1.35
9776.00,1.35
9775.00,1.35
9774.00,1.35
9773.00,1.35
9772.00,1.35
9771.00,1.36
9770.00,1.36
9769.00,1.36
9768.00,1.36
9767.00,1.36
9766.00,1.36
9765.00,1.36
9764.00,1.36
9763.00,1.36
9762.00,1.36
9761.00,1.37
9760.00,1.37
9759.00,1.37
9758.00,1.37
9757.00,1.37
9756.00,1.37
9755.00,1.38
9754.00,1.38
9753.00,1.38
9752.00,1.38
9751.00,1.38
9750.00,1.38
9749.00,1.38
9748.00,1.38
9747.00,1.38
9746.00,1.38
9745.00,1.38
9744.00,1.38
9743.00,1.37
9742.00,1.37
9741.00,1.36
9740.00,1.36
9739.00,1.36
9738.00,1.35
9737.00,1.35
9736.00,1.35
9735.00,1.34
9734.00,1.34
9733.00,1.34
9732.00,1.33
9731.00,1.33
9730.00,1.33
9729.00,1.33
9728.00,1.33
9727.00,1.33
9726.00,1.33
9725.00,1.33
9724.00,1.33
9723.00,1.34
9722.00,1.34
9721.00,1.34
9720.00,1.34
9719.00,1.34
9718.00,1.35
9717.00,1.35
9716.00,1.35
9715.00,1.35
9714.00,1.35
9713.00,1.36
9712.00,1.36
9711.00,1.36
9710.00,1.36
9709.00,1.36
9708.00,1.36
9707.00,1.36
9706.00,1.36
9705.00,1.36
9704.00,1.36
9703.00,1.36
9702.00,1.36
9701.00,1.36
9700.00,1.36
9699.00,1.35
9698.00,1.35
9697.00,1.35
9696.00,1.35
9695.00,1.35
9694.00,1.35
9693.00,1.35
9692.00,1.35
9691.00,1.35
9690.00,1.35
9689.00,1.35
9688.00,1.35
9687.00,1.35
9686.00,1.35
9685.00,1.35
9684.00,1.34
9683.00,1.34
9682.00,1.34
9681.00,1.34
9680.00,1.35
9679.00,1.35
9678.00,1.35
9677.00,1.35
9676.00,1.35
9675.00,1.35
9674.00,1.35
9673.00,1.35
9672.00,1.35
9671.00,1.35
9670.00,1.35
9669.00,1.35
9668.00,1.35
9667.00,1.35
9666.00,1.35
9665.00,1.35
9664.00,1.35
9663.00,1.34
9662.00,1.34
9661.00,1.34
9660.00,1.34
9659.00,1.34
9658.00,1.34
9657.00,1.33
9656.00,1.33
9655.00,1.33
9654.00,1.33
9653.00,1.33
9652.00,1.34
9651.00,1.34
9650.00,1.34
9649.00,1.34
9648.00,1.34
9647.00,1.35
9646.00,1.35
9645.00,1.35
9644.00,1.35
9643.00,1.36
9642.00,1.36
9641.00,1.36
9640.00,1.36
9639.00,1.36
9638.00,1.36
9637.00,1.36
9636.00,1.36
9635.00,1.36
9634.00,1.36
9633.00,1.36
9632.00,1.36
9631.00,1.36
9630.00,1.35
9629.00,1.35
9628.00,1.35
9627.00,1.35
9626.00,1.34
9625.00,1.34
9624.00,1.34
9623.00,1.33
9622.00,1.33
9621.00,1.33
9620.00,1.33
9619.00,1.33
9618.00,1.33
9617.00,1.33
9616.00,1.33
9615.00,1.33
9614.00,1.33
9613.00,1.33
9612.00,1.33
9611.00,1.33
9610.00,1.33
9609.00,1.34
9608.00,1.34
9607.00,1.34
9606.00,1.35
9605.00,1.35
9604.00,1.35
9603.00,1.35
9602.00,1.36
9601.00,1.36
9600.00,1.36
9599.00,1.36
9598.00,1.36
9597.00,1.37
9596.00,1.37
9595.00,1.37
9594.00,1.37
9593.00,1.37
9592.00,1.37
9591.00,1.37
9590.00,1.37
9589.00,1.37
9588.00,1.37
9587.00,1.37
9586.00,1.37
9585.00,1.36
9584.00,1.36
9583.00,1.36
9582.00,1.36
9581.00,1.36
9580.00,1.36
9579.00,1.36
9578.00,1.36
9577.00,1.36
9576.00,1.36
9575.00,1.36
9574.00,1.36
9573.00,1.36
9572.00,1.36
9571.00,1.36
9570.00,1.37
9569.00,1.37
9568.00,1.37
9567.00,1.37
9566.00,1.37
9565.00,1.37
9564.00,1.37
9563.00,1.37
9562.00,1.37
9561.00,1.37
9560.00,1.37
9559.00,1.37
9558.00,1.37
9557.00,1.37
9556.00,1.37
9555.00,1.37
9554.00,1.37
9553.00,1.37
9552.00,1.36
9551.00,1.36
9550.00,1.36
9549.00,1.36
9548.00,1.36
9547.00,1.36
9546.00,1.36
9545.00,1.36
9544.00,1.36
9543.00,1.36
9542.00,1.36
9541.00,1.36
9540.00,1.36
9539.00,1.36
9538.00,1.36
9537.00,1.36
9536.00,1.36
9535.00,1.36
9534.00,1.36
9533.00,1.36
9532.00,1.36
9531.00,1.35
9530.00,1.35
9529.00,1.35
9528.00,1.35
9527.00,1.35
9526.00,1.35
9525.00,1.35
9524.00,1.35
9523.00,1.35
9522.00,1.35
9521.00,1.35
9520.00,1.35
9519.00,1.35
9518.00,1.36
9517.00,1.36
9516.00,1.36
9515.00,1.36
9514.00,1.36
9513.00,1.36
9512.00,1.36
9511.00,1.36
9510.00,1.37
9509.00,1.37
9508.00,1.37
9507.00,1.37
9506.00,1.37
9505.00,1.37
9504.00,1.37
9503.00,1.37
9502.00,1.37
9501.00,1.37
9500.00,1.36
9499.00,1.36
9498.00,1.36
9497.00,1.36
9496.00,1.36
9495.00,1.36
9494.00,1.35
9493.00,1.35
9492.00,1.35
9491.00,1.35
9490.00,1.35
9489.00,1.35
9488.00,1.35
9487.00,1.35
9486.00,1.35
9485.00,1.35
9484.00,1.35
9483.00,1.35
9482.00,1.35
9481.00,1.35
9480.00,1.35
9479.00,1.35
9478.00,1.35
9477.00,1.35
9476.00,1.35
9475.00,1.35
9474.00,1.35
9473.00,1.35
9472.00,1.35
9471.00,1.35
9470.00,1.35
9469.00,1.35
9468.00,1.35
9467.00,1.35
9466.00,1.35
9465.00,1.35
9464.00,1.35
9463.00,1.35
9462.00,1.35
9461.00,1.35
9460.00,1.36
9459.00,1.36
9458.00,1.36
9457.00,1.36
9456.00,1.36
9455.00,1.36
9454.00,1.36
9453.00,1.36
9452.00,1.36
9451.00,1.36
9450.00,1.36
9449.00,1.36
9448.00,1.36
9447.00,1.36
9446.00,1.36
9445.00,1.36
9444.00,1.37
9443.00,1.37
9442.00,1.37
9441.00,1.37
9440.00,1.37
9439.00,1.37
9438.00,1.37
9437.00,1.37
9436.00,1.37
9435.00,1.37
9434.00,1.37
9433.00,1.37
9432.00,1.37
9431.00,1.37
9430.00,1.37
9429.00,1.37
9428.00,1.37
9427.00,1.37
9426.00,1.37
9425.00,1.37
9424.00,1.37
9423.00,1.37
9422.00,1.37
9421.00,1.37
9420.00,1.37
9419.00,1.37
9418.00,1.37
9417.00,1.37
9416.00,1.37
9415.00,1.37
9414.00,1.37
9413.00,1.37
9412.00,1.37
9411.00,1.37
9410.00,1.37
9409.00,1.37
9408.00,1.37
9407.00,1.37
9406.00,1.37
9405.00,1.37
9404.00,1.37
9403.00,1.37
9402.00,1.37
9401.00,1.37
9400.00,1.37
9399.00,1.37
9398.00,1.37
9397.00,1.37
9396.00,1.37
9395.00,1.38
9394.00,1.38
9393.00,1.38
9392.00,1.38
9391.00,1.38
9390.00,1.38
9389.00,1.38
9388.00,1.37
9387.00,1.37
9386.00,1.37
9385.00,1.37
9384.00,1.37
9383.00,1.36
9382.00,1.36
9381.00,1.36
9380.00,1.36
9379.00,1.35
9378.00,1.35
9377.00,1.35
9376.00,1.35
9375.00,1.35
9374.00,1.34
9373.00,1.34
9372.00,1.34
9371.00,1.34
9370.00,1.34
9369.00,1.34
9368.00,1.34
9367.00,1.34
9366.00,1.34
9365.00,1.34
9364.00,1.34
9363.00,1.34
9362.00,1.35
9361.00,1.35
9360.00,1.35
9359.00,1.35
9358.00,1.36
9357.00,1.36
9356.00,1.36
9355.00,1.37
9354.00,1.37
9353.00,1.37
9352.00,1.38
9351.00,1.38
9350.00,1.38
9349.00,1.38
9348.00,1.38
9347.00,1.38
9346.00,1.38
9345.00,1.38
9344.00,1.38
9343.00,1.38
9342.00,1.37
9341.00,1.37
9340.00,1.37
9339.00,1.36
9338.00,1.36
9337.00,1.36
9336.00,1.36
9335.00,1.35
9334.00,1.35
9333.00,1.35
9332.00,1.35
9331.00,1.35
9330.00,1.35
9329.00,1.35
9328.00,1.35
9327.00,1.35
9326.00,1.35
9325.00,1.36
9324.00,1.36
9323.00,1.36
9322.00,1.36
9321.00,1.36
9320.00,1.37
9319.00,1.37
9318.00,1.37
9317.00,1.37
9316.00,1.37
9315.00,1.37
9314.00,1.37
9313.00,1.38
9312.00,1.38
9311.00,1.38
9310.00,1.37
9309.00,1.37
9308.00,1.37
9307.00,1.37
9306.00,1.37
9305.00,1.37
9304.00,1.37
9303.00,1.37
9302.00,1.37
9301.00,1.37
9300.00,1.36
9299.00,1.36
9298.00,1.36
9297.00,1.36
9296.00,1.36
9295.00,1.36
9294.00,1.36
9293.00,1.36
9292.00,1.36
9291.00,1.36
9290.00,1.35
9289.00,1.35
9288.00,1.35
9287.00,1.35
9286.00,1.35
9285.00,1.35
9284.00,1.35
9283.00,1.35
9282.00,1.35
9281.00,1.35
9280.00,1.35
9279.00,1.35
9278.00,1.35
9277.00,1.35
9276.00,1.35
9275.00,1.35
9274.00,1.35
9273.00,1.35
9272.00,1.35
9271.00,1.35
9270.00,1.36
9269.00,1.36
9268.00,1.36
9267.00,1.36
9266.00,1.36
9265.00,1.36
9264.00,1.36
9263.00,1.36
9262.00,1.36
9261.00,1.36
9260.00,1.37
9259.00,1.37
9258.00,1.37
9257.00,1.37
9256.00,1.37
9255.00,1.37
9254.00,1.37
9253.00,1.37
9252.00,1.37
9251.00,1.37
9250.00,1.37
9249.00,1.37
9248.00,1.37
9247.00,1.37
9246.00,1.37
9245.00,1.37
9244.00,1.37
9243.00,1.37
9242.00,1.36
9241.00,1.36
9240.00,1.36
9239.00,1.36
9238.00,1.36
9237.00,1.36
9236.00,1.36
9235.00,1.36
9234.00,1.36
9233.00,1.36
9232.00,1.36
9231.00,1.36
9230.00,1.36
9229.00,1.36
9228.00,1.36
9227.00,1.36
9226.00,1.36
9225.00,1.36
9224.00,1.36
9223.00,1.36
9222.00,1.36
9221.00,1.36
9220.00,1.36
9219.00,1.36
9218.00,1.36
9217.00,1.36
9216.00,1.37
9215.00,1.37
9214.00,1.37
9213.00,1.37
9212.00,1.37
9211.00,1.37
9210.00,1.37
9209.00,1.37
9208.00,1.37
9207.00,1.37
9206.00,1.37
9205.00,1.37
9204.00,1.37
9203.00,1.37
9202.00,1.37
9201.00,1.37
9200.00,1.38
9199.00,1.38
9198.00,1.38
9197.00,1.38
9196.00,1.38
9195.00,1.38
9194.00,1.38
9193.00,1.38
9192.00,1.38
9191.00,1.38
9190.00,1.38
9189.00,1.38
9188.00,1.38
9187.00,1.38
9186.00,1.38
9185.00,1.37
9184.00,1.37
9183.00,1.37
9182.00,1.37
9181.00,1.37
9180.00,1.37
9179.00,1.37
9178.00,1.37
9177.00,1.37
9176.00,1.37
9175.00,1.37
9174.00,1.37
9173.00,1.37
9172.00,1.37
9171.00,1.37
9170.00,1.37
9169.00,1.37
9168.00,1.37
9167.00,1.37
9166.00,1.37
9165.00,1.37
9164.00,1.36
9163.00,1.36
9162.00,1.36
9161.00,1.36
9160.00,1.36
9159.00,1.36
9158.00,1.36
9157.00,1.36
9156.00,1.36
9155.00,1.36
9154.00,1.36
9153.00,1.36
9152.00,1.36
9151.00,1.36
9150.00,1.36
9149.00,1.36
9148.00,1.36
9147.00,1.36
9146.00,1.36
9145.00,1.36
9144.00,1.36
9143.00,1.36
9142.00,1.37
9141.00,1.37
9140.00,1.37
9139.00,1.37
9138.00,1.37
9137.00,1.37
9136.00,1.38
9135.00,1.38
9134.00,1.38
9133.00,1.38
9132.00,1.38
9131.00,1.38
9130.00,1.38
9129.00,1.38
9128.00,1.38
9127.00,1.38
9126.00,1.38
9125.00,1.38
9124.00,1.38
9123.00,1.38
9122.00,1.38
9121.00,1.37
9120.00,1.37
9119.00,1.37
9118.00,1.37
9117.00,1.37
9116.00,1.37
9115.00,1.37
9114.00,1.37
9113.00,1.37
9112.00,1.37
9111.00,1.37
9110.00,1.37
9109.00,1.37
9108.00,1.37
9107.00,1.37
9106.00,1.37
9105.00,1.37
9104.00,1.37
9103.00,1.37
9102.00,1.37
9101.00,1.37
9100.00,1.37
9099.00,1.37
9098.00,1.37
9097.00,1.37
9096.00,1.36
9095.00,1.36
9094.00,1.36
9093.00,1.36
9092.00,1.36
9091.00,1.36
9090.00,1.36
9089.00,1.35
9088.00,1.35
9087.00,1.35
9086.00,1.35
9085.00,1.35
9084.00,1.35
9083.00,1.35
9082.00,1.35
9081.00,1.35
9080.00,1.35
9079.00,1.35
9078.00,1.35
9077.00,1.35
9076.00,1.35
9075.00,1.36
9074.00,1.36
9073.00,1.36
9072.00,1.36
9071.00,1.36
9070.00,1.36
9069.00,1.37
9068.00,1.37
9067.00,1.37
9066.00,1.37
9065.00,1.37
9064.00,1.37
9063.00,1.37
9062.00,1.37
9061.00,1.37
9060.00,1.37
9059.00,1.37
9058.00,1.37
9057.00,1.36
9056.00,1.36
9055.00,1.36
9054.00,1.36
9053.00,1.36
9052.00,1.36
9051.00,1.36
9050.00,1.36
9049.00,1.36
9048.00,1.36
9047.00,1.35
9046.00,1.35
9045.00,1.35
9044.00,1.35
9043.00,1.35
9042.00,1.35
9041.00,1.35
9040.00,1.35
9039.00,1.35
9038.00,1.35
9037.00,1.35
9036.00,1.35
9035.00,1.35
9034.00,1.35
9033.00,1.35
9032.00,1.35
9031.00,1.36
9030.00,1.36
9029.00,1.36
9028.00,1.36
9027.00,1.36
9026.00,1.36
9025.00,1.36
9024.00,1.36
9023.00,1.36
9022.00,1.37
9021.00,1.37
9020.00,1.37
9019.00,1.37
9018.00,1.37
9017.00,1.37
9016.00,1.37
9015.00,1.37
9014.00,1.37
9013.00,1.37
9012.00,1.37
9011.00,1.37
9010.00,1.37
9009.00,1.37
9008.00,1.37
9007.00,1.37
9006.00,1.37
9005.00,1.37
9004.00,1.37
9003.00,1.37
9002.00,1.37
9001.00,1.37
9000.00,1.37
8999.00,1.37
8998.00,1.37
8997.00,1.37
8996.00,1.37
8995.00,1.37
8994.00,1.37
8993.00,1.37
8992.00,1.37
8991.00,1.37
8990.00,1.37
8989.00,1.37
8988.00,1.37
8987.00,1.37
8986.00,1.37
8985.00,1.37
8984.00,1.37
8983.00,1.37
8982.00,1.36
8981.00,1.36
8980.00,1.36
8979.00,1.36
8978.00,1.36
8977.00,1.36
8976.00,1.36
8975.00,1.36
8974.00,1.36
8973.00,1.36
8972.00,1.36
8971.00,1.36
8970.00,1.36
8969.00,1.36
8968.00,1.36
8967.00,1.36
8966.00,1.36
8965.00,1.36
8964.00,1.36
8963.00,1.36
8962.00,1.36
8961.00,1.36
8960.00,1.37
8959.00,1.37
8958.00,1.37
8957.00,1.37
8956.00,1.37
8955.00,1.37
8954.00,1.37
8953.00,1.37
8952.00,1.37
8951.00,1.37
8950.00,1.37
8949.00,1.37
8948.00,1.37
8947.00,1.37
8946.00,1.37
8945.00,1.37
8944.00,1.36
8943.00,1.36
8942.00,1.36
8941.00,1.36
8940.00,1.36
8939.00,1.36
8938.00,1.35
8937.00,1.35
8936.00,1.35
8935.00,1.35
8934.00,1.35
8933.00,1.35
8932.00,1.35
8931.00,1.35
8930.00,1.35
8929.00,1.35
8928.00,1.35
8927.00,1.35
8926.00,1.35
8925.00,1.35
8924.00,1.35
8923.00,1.35
8922.00,1.35
8921.00,1.36
8920.00,1.36
8919.00,1.36
8918.00,1.36
8917.00,1.36
8916.00,1.36
8915.00,1.36
8914.00,1.36
8913.00,1.36
8912.00,1.37
8911.00,1.37
8910.00,1.37
8909.00,1.37
8908.00,1.37
8907.00,1.37
8906.00,1.37
8905.00,1.36
8904.00,1.36
8903.00,1.36
8902.00,1.36
8901.00,1.36
8900.00,1.35
8899.00,1.35
8898.00,1.35
8897.00,1.35
8896.00,1.34
8895.00,1.34
8894.00,1.34
8893.00,1.34
8892.00,1.34
8891.00,1.34
8890.00,1.33
8889.00,1.34
8888.00,1.34
8887.00,1.34
8886.00,1.34
8885.00,1.34
8884.00,1.35
8883.00,1.35
8882.00,1.35
8881.00,1.36
8880.00,1.36
8879.00,1.36
8878.00,1.37
8877.00,1.37
8876.00,1.37
8875.00,1.37
8874.00,1.38
8873.00,1.38
8872.00,1.38
8871.00,1.38
8870.00,1.38
8869.00,1.38
8868.00,1.38
8867.00,1.38
8866.00,1.38
8865.00,1.38
8864.00,1.38
8863.00,1.38
8862.00,1.38
8861.00,1.38
8860.00,1.38
8859.00,1.38
8858.00,1.38
8857.00,1.37
8856.00,1.37
8855.00,1.37
8854.00,1.37
8853.00,1.37
8852.00,1.37
8851.00,1.37
8850.00,1.37
8849.00,1.37
8848.00,1.36
8847.00,1.36
8846.00,1.36
8845.00,1.36
8844.00,1.36
8843.00,1.36
8842.00,1.36
8841.00,1.36
8840.00,1.36
8839.00,1.36
8838.00,1.36
8837.00,1.36
8836.00,1.36
8835.00,1.36
8834.00,1.35
8833.00,1.35
8832.00,1.35
8831.00,1.35
8830.00,1.35
8829.00,1.35
8828.00,1.35
8827.00,1.35
8826.00,1.35
8825.00,1.34
8824.00,1.34
8823.00,1.34
8822.00,1.34
8821.00,1.34
8820.00,1.34
8819.00,1.34
8818.00,1.34
8817.00,1.34
8816.00,1.34
8815.00,1.34
8814.00,1.34
8813.00,1.34
8812.00,1.34
8811.00,1.34
8810.00,1.34
8809.00,1.34
8808.00,1.34
8807.00,1.34
8806.00,1.34
8805.00,1.34
8804.00,1.34
8803.00,1.34
8802.00,1.34
8801.00,1.34
8800.00,1.34
8799.00,1.34
8798.00,1.34
8797.00,1.34
8796.00,1.34
8795.00,1.34
8794.00,1.34
8793.00,1.34
8792.00,1.34
8791.00,1.34
8790.00,1.34
8789.00,1.34
8788.00,1.34
8787.00,1.34
8786.00,1.34
8785.00,1.34
8784.00,1.34
8783.00,1.34
8782.00,1.34
8781.00,1.34
8780.00,1.34
8779.00,1.34
8778.00,1.34
8777.00,1.34
8776.00,1.34
8775.00,1.34
8774.00,1.34
8773.00,1.34
8772.00,1.34
8771.00,1.35
8770.00,1.35
8769.00,1.35
8768.00,1.35
8767.00,1.35
8766.00,1.34
8765.00,1.34
8764.00,1.34
8763.00,1.34
8762.00,1.34
8761.00,1.34
8760.00,1.34
8759.00,1.34
8758.00,1.34
8757.00,1.34
8756.00,1.33
8755.00,1.33
8754.00,1.33
8753.00,1.33
8752.00,1.33
8751.00,1.33
8750.00,1.33
8749.00,1.33
8748.00,1.33
8747.00,1.33
8746.00,1.33
8745.00,1.33
8744.00,1.33
8743.00,1.32
8742.00,1.32
8741.00,1.32
8740.00,1.32
8739.00,1.32
8738.00,1.32
8737.00,1.31
8736.00,1.31
8735.00,1.31
8734.00,1.31
8733.00,1.31
8732.00,1.31
8731.00,1.31
8730.00,1.31
8729.00,1.31
8728.00,1.32
8727.00,1.32
8726.00,1.32
8725.00,1.32
8724.00,1.32
8723.00,1.32
8722.00,1.32
8721.00,1.32
8720.00,1.33
8719.00,1.33
8718.00,1.33
8717.00,1.32
8716.00,1.32
8715.00,1.32
8714.00,1.32
8713.00,1.32
8712.00,1.32
8711.00,1.32
8710.00,1.32
8709.00,1.32
8708.00,1.31
8707.00,1.31
8706.00,1.31
8705.00,1.31
8704.00,1.31
8703.00,1.31
8702.00,1.31
8701.00,1.31
8700.00,1.31
8699.00,1.31
8698.00,1.31
8697.00,1.31
8696.00,1.31
8695.00,1.31
8694.00,1.31
8693.00,1.31
8692.00,1.31
8691.00,1.31
8690.00,1.31
8689.00,1.31
8688.00,1.31
8687.00,1.31
8686.00,1.31
8685.00,1.31
8684.00,1.31
8683.00,1.31
8682.00,1.31
8681.00,1.31
8680.00,1.30
8679.00,1.30
8678.00,1.30
8677.00,1.31
8676.00,1.31
8675.00,1.31
8674.00,1.31
8673.00,1.31
8672.00,1.31
8671.00,1.31
8670.00,1.31
8669.00,1.31
8668.00,1.32
8667.00,1.32
8666.00,1.32
8665.00,1.32
8664.00,1.32
8663.00,1.32
8662.00,1.32
8661.00,1.32
8660.00,1.32
8659.00,1.33
8658.00,1.33
8657.00,1.33
8656.00,1.33
8655.00,1.33
8654.00,1.33
8653.00,1.33
8652.00,1.33
8651.00,1.33
8650.00,1.33
8649.00,1.33
8648.00,1.33
8647.00,1.33
8646.00,1.33
8645.00,1.33
8644.00,1.33
8643.00,1.32
8642.00,1.32
8641.00,1.32
8640.00,1.32
8639.00,1.32
8638.00,1.32
8637.00,1.32
8636.00,1.32
8635.00,1.31
8634.00,1.31
8633.00,1.31
8632.00,1.31
8631.00,1.31
8630.00,1.31
8629.00,1.30
8628.00,1.30
8627.00,1.30
8626.00,1.30
8625.00,1.30
8624.00,1.30
8623.00,1.30
8622.00,1.30
8621.00,1.30
8620.00,1.30
8619.00,1.30
8618.00,1.30
8617.00,1.30
8616.00,1.30
8615.00,1.30
8614.00,1.30
8613.00,1.31
8612.00,1.31
8611.00,1.31
8610.00,1.31
8609.00,1.31
8608.00,1.31
8607.00,1.31
8606.00,1.31
8605.00,1.30
8604.00,1.30
8603.00,1.30
8602.00,1.30
8601.00,1.30
8600.00,1.29
8599.00,1.29
8598.00,1.29
8597.00,1.29
8596.00,1.29
8595.00,1.28
8594.00,1.28
8593.00,1.28
8592.00,1.28
8591.00,1.28
8590.00,1.28
8589.00,1.28
8588.00,1.28
8587.00,1.28
8586.00,1.28
8585.00,1.28
8584.00,1.28
8583.00,1.28
8582.00,1.28
8581.00,1.28
8580.00,1.28
8579.00,1.28
8578.00,1.28
8577.00,1.28
8576.00,1.28
8575.00,1.28
8574.00,1.28
8573.00,1.28
8572.00,1.28
8571.00,1.28
8570.00,1.28
8569.00,1.28
8568.00,1.28
8567.00,1.28
8566.00,1.28
8565.00,1.28
8564.00,1.28
8563.00,1.28
8562.00,1.28
8561.00,1.28
8560.00,1.28
8559.00,1.28
8558.00,1.28
8557.00,1.28
8556.00,1.27
8555.00,1.27
8554.00,1.27
8553.00,1.27
8552.00,1.27
8551.00,1.27
8550.00,1.27
8549.00,1.27
8548.00,1.27
8547.00,1.26
8546.00,1.26
8545.00,1.26
8544.00,1.26
8543.00,1.26
8542.00,1.26
8541.00,1.26
8540.00,1.26
8539.00,1.26
8538.00,1.26
8537.00,1.27
8536.00,1.27
8535.00,1.27
8534.00,1.27
8533.00,1.27
8532.00,1.27
8531.00,1.27
8530.00,1.27
8529.00,1.27
8528.00,1.27
8527.00,1.27
8526.00,1.27
8525.00,1.26
8524.00,1.26
8523.00,1.26
8522.00,1.26
8521.00,1.26
8520.00,1.26
8519.00,1.26
8518.00,1.26
8517.00,1.26
8516.00,1.26
8515.00,1.26
8514.00,1.26
8513.00,1.27
8512.00,1.27
8511.00,1.27
8510.00,1.27
8509.00,1.27
8508.00,1.27
8507.00,1.27
8506.00,1.27
8505.00,1.27
8504.00,1.27
8503.00,1.27
8502.00,1.27
8501.00,1.27
8500.00,1.27
8499.00,1.27
8498.00,1.27
8497.00,1.26
8496.00,1.26
8495.00,1.26
8494.00,1.26
8493.00,1.25
8492.00,1.25
8491.00,1.25
8490.00,1.25
8489.00,1.24
8488.00,1.24
8487.00,1.24
8486.00,1.24
8485.00,1.24
8484.00,1.24
8483.00,1.24
8482.00,1.24
8481.00,1.24
8480.00,1.24
8479.00,1.23
8478.00,1.23
8477.00,1.23
8476.00,1.23
8475.00,1.23
8474.00,1.23
8473.00,1.24
8472.00,1.24
8471.00,1.24
8470.00,1.24
8469.00,1.24
8468.00,1.24
8467.00,1.24
8466.00,1.24
8465.00,1.24
8464.00,1.24
8463.00,1.24
8462.00,1.24
8461.00,1.24
8460.00,1.24
8459.00,1.24
8458.00,1.24
8457.00,1.24
8456.00,1.24
8455.00,1.24
8454.00,1.24
8453.00,1.24
8452.00,1.24
8451.00,1.24
8450.00,1.24
8449.00,1.24
8448.00,1.24
8447.00,1.23
8446.00,1.23
8445.00,1.23
8444.00,1.23
8443.00,1.23
8442.00,1.22
8441.00,1.22
8440.00,1.22
8439.00,1.22
8438.00,1.22
8437.00,1.22
8436.00,1.22
8435.00,1.22
8434.00,1.22
8433.00,1.22
8432.00,1.22
8431.00,1.22
8430.00,1.22
8429.00,1.22
8428.00,1.22
8427.00,1.22
8426.00,1.22
8425.00,1.22
8424.00,1.22
8423.00,1.22
8422.00,1.22
8421.00,1.22
8420.00,1.22
8419.00,1.22
8418.00,1.22
8417.00,1.22
8416.00,1.22
8415.00,1.22
8414.00,1.23
8413.00,1.23
8412.00,1.23
8411.00,1.23
8410.00,1.23
8409.00,1.23
8408.00,1.23
8407.00,1.23
8406.00,1.23
8405.00,1.23
8404.00,1.23
8403.00,1.23
8402.00,1.23
8401.00,1.23
8400.00,1.23
8399.00,1.23
8398.00,1.23
8397.00,1.23
8396.00,1.23
8395.00,1.23
8394.00,1.23
8393.00,1.23
8392.00,1.23
8391.00,1.23
8390.00,1.23
8389.00,1.23
8388.00,1.23
8387.00,1.23
8386.00,1.23
8385.00,1.23
8384.00,1.23
8383.00,1.23
8382.00,1.23
8381.00,1.23
8380.00,1.23
8379.00,1.23
8378.00,1.23
8377.00,1.23
8376.00,1.23
8375.00,1.23
8374.00,1.24
8373.00,1.24
8372.00,1.24
8371.00,1.24
8370.00,1.24
8369.00,1.24
8368.00,1.25
8367.00,1.25
8366.00,1.25
8365.00,1.25
8364.00,1.26
8363.00,1.26
8362.00,1.26
8361.00,1.27
8360.00,1.27
8359.00,1.27
8358.00,1.28
8357.00,1.28
8356.00,1.28
8355.00,1.28
8354.00,1.29
8353.00,1.29
8352.00,1.29
8351.00,1.29
8350.00,1.29
8349.00,1.29
8348.00,1.29
8347.00,1.29
8346.00,1.29
8345.00,1.29
8344.00,1.29
8343.00,1.29
8342.00,1.29
8341.00,1.29
8340.00,1.29
8339.00,1.29
8338.00,1.29
8337.00,1.28
8336.00,1.28
8335.00,1.28
8334.00,1.28
8333.00,1.28
8332.00,1.28
8331.00,1.28
8330.00,1.28
8329.00,1.28
8328.00,1.28
8327.00,1.28
8326.00,1.28
8325.00,1.27
8324.00,1.27
8323.00,1.27
8322.00,1.27
8321.00,1.27
8320.00,1.27
8319.00,1.27
8318.00,1.27
8317.00,1.28
8316.00,1.28
8315.00,1.28
8314.00,1.28
8313.00,1.28
8312.00,1.28
8311.00,1.28
8310.00,1.28
8309.00,1.28
8308.00,1.28
8307.00,1.28
8306.00,1.28
8305.00,1.28
8304.00,1.28
8303.00,1.28
8302.00,1.28
8301.00,1.28
8300.00,1.28
8299.00,1.28
8298.00,1.28
8297.00,1.28
8296.00,1.28
8295.00,1.28
8294.00,1.28
8293.00,1.28
8292.00,1.28
8291.00,1.28
8290.00,1.28
8289.00,1.28
8288.00,1.28
8287.00,1.28
8286.00,1.28
8285.00,1.28
8284.00,1.28
8283.00,1.28
8282.00,1.28
8281.00,1.28
8280.00,1.28
8279.00,1.28
8278.00,1.28
8277.00,1.28
8276.00,1.28
8275.00,1.28
8274.00,1.28
8273.00,1.28
8272.00,1.28
8271.00,1.28
8270.00,1.27
8269.00,1.27
8268.00,1.27
8267.00,1.27
8266.00,1.27
8265.00,1.27
8264.00,1.27
8263.00,1.27
8262.00,1.27
8261.00,1.27
8260.00,1.26
8259.00,1.26
8258.00,1.26
8257.00,1.26
8256.00,1.27
8255.00,1.27
8254.00,1.27
8253.00,1.27
8252.00,1.27
8251.00,1.27
8250.00,1.27
8249.00,1.27
8248.00,1.27
8247.00,1.28
8246.00,1.28
8245.00,1.28
8244.00,1.28
8243.00,1.28
8242.00,1.28
8241.00,1.28
8240.00,1.28
8239.00,1.28
8238.00,1.28
8237.00,1.28
8236.00,1.29
8235.00,1.29
8234.00,1.29
8233.00,1.29
8232.00,1.29
8231.00,1.29
8230.00,1.29
8229.00,1.29
8228.00,1.29
8227.00,1.29
8226.00,1.29
8225.00,1.29
8224.00,1.29
8223.00,1.29
8222.00,1.29
8221.00,1.29
8220.00,1.29
8219.00,1.28
8218.00,1.28
8217.00,1.28
8216.00,1.28
8215.00,1.28
8214.00,1.28
8213.00,1.28
8212.00,1.28
8211.00,1.29
8210.00,1.29
8209.00,1.29
8208.00,1.29
8207.00,1.29
8206.00,1.29
8205.00,1.29
8204.00,1.29
8203.00,1.29
8202.00,1.29
8201.00,1.29
8200.00,1.29
8199.00,1.29
8198.00,1.29
8197.00,1.29
8196.00,1.30
8195.00,1.30
8194.00,1.30
8193.00,1.30
8192.00,1.30
8191.00,1.30
8190.00,1.30
8189.00,1.30
8188.00,1.30
8187.00,1.30
8186.00,1.30
8185.00,1.30
8184.00,1.30
8183.00,1.30
8182.00,1.30
8181.00,1.30
8180.00,1.30
8179.00,1.30
8178.00,1.30
8177.00,1.30
8176.00,1.30
8175.00,1.30
8174.00,1.30
8173.00,1.30
8172.00,1.30
8171.00,1.30
8170.00,1.30
8169.00,1.30
8168.00,1.30
8167.00,1.30
8166.00,1.30
8165.00,1.30
8164.00,1.30
8163.00,1.30
8162.00,1.30
8161.00,1.30
8160.00,1.30
8159.00,1.30
8158.00,1.30
8157.00,1.30
8156.00,1.30
8155.00,1.30
8154.00,1.30
8153.00,1.30
8152.00,1.30
8151.00,1.31
8150.00,1.31
8149.00,1.31
8148.00,1.31
8147.00,1.31
8146.00,1.31
8145.00,1.31
8144.00,1.31
8143.00,1.31
8142.00,1.31
8141.00,1.31
8140.00,1.31
8139.00,1.31
8138.00,1.31
8137.00,1.32
8136.00,1.32
8135.00,1.32
8134.00,1.32
8133.00,1.32
8132.00,1.32
8131.00,1.32
8130.00,1.32
8129.00,1.32
8128.00,1.32
8127.00,1.32
8126.00,1.32
8125.00,1.32
8124.00,1.32
8123.00,1.32
8122.00,1.32
8121.00,1.32
8120.00,1.32
8119.00,1.32
8118.00,1.32
8117.00,1.32
8116.00,1.32
8115.00,1.32
8114.00,1.32
8113.00,1.32
8112.00,1.32
8111.00,1.32
8110.00,1.32
8109.00,1.32
8108.00,1.32
8107.00,1.32
8106.00,1.32
8105.00,1.32
8104.00,1.32
8103.00,1.32
8102.00,1.32
8101.00,1.32
8100.00,1.33
8099.00,1.33
8098.00,1.33
8097.00,1.33
8096.00,1.33
8095.00,1.33
8094.00,1.33
8093.00,1.33
8092.00,1.33
8091.00,1.33
8090.00,1.33
8089.00,1.33
8088.00,1.33
8087.00,1.33
8086.00,1.33
8085.00,1.33
8084.00,1.33
8083.00,1.33
8082.00,1.33
8081.00,1.33
8080.00,1.33
8079.00,1.33
8078.00,1.33
8077.00,1.33
8076.00,1.33
8075.00,1.33
8074.00,1.33
8073.00,1.33
8072.00,1.33
8071.00,1.32
8070.00,1.32
8069.00,1.32
8068.00,1.32
8067.00,1.32
8066.00,1.32
8065.00,1.32
8064.00,1.32
8063.00,1.32
8062.00,1.32
8061.00,1.32
8060.00,1.33
8059.00,1.33
8058.00,1.33
8057.00,1.33
8056.00,1.33
8055.00,1.33
8054.00,1.33
8053.00,1.33
8052.00,1.33
8051.00,1.33
8050.00,1.33
8049.00,1.33
8048.00,1.33
8047.00,1.33
8046.00,1.33
8045.00,1.33
8044.00,1.33
8043.00,1.33
8042.00,1.33
8041.00,1.33
8040.00,1.33
8039.00,1.33
8038.00,1.33
8037.00,1.33
8036.00,1.33
8035.00,1.33
8034.00,1.33
8033.00,1.33
8032.00,1.33
8031.00,1.33
8030.00,1.33
8029.00,1.33
8028.00,1.33
8027.00,1.33
8026.00,1.33
8025.00,1.33
8024.00,1.33
8023.00,1.33
8022.00,1.33
8021.00,1.33
8020.00,1.34
8019.00,1.34
8018.00,1.34
8017.00,1.34
8016.00,1.34
8015.00,1.34
8014.00,1.34
8013.00,1.34
8012.00,1.34
8011.00,1.34
8010.00,1.34
8009.00,1.34
8008.00,1.34
8007.00,1.34
8006.00,1.34
8005.00,1.34
8004.00,1.34
8003.00,1.35
8002.00,1.35
8001.00,1.35
8000.00,1.35
7999.00,1.35
7998.00,1.35
7997.00,1.35
7996.00,1.35
7995.00,1.35
7994.00,1.35
7993.00,1.35
7992.00,1.35
7991.00,1.35
7990.00,1.35
7989.00,1.35
7988.00,1.35
7987.00,1.35
7986.00,1.35
7985.00,1.35
7984.00,1.35
7983.00,1.35
7982.00,1.35
7981.00,1.35
7980.00,1.35
7979.00,1.35
7978.00,1.35
7977.00,1.35
7976.00,1.35
7975.00,1.35
7974.00,1.35
7973.00,1.35
7972.00,1.35
7971.00,1.35
7970.00,1.35
7969.00,1.35
7968.00,1.35
7967.00,1.35
7966.00,1.35
7965.00,1.35
7964.00,1.35
7963.00,1.35
7962.00,1.35
7961.00,1.35
7960.00,1.35
7959.00,1.35
7958.00,1.35
7957.00,1.35
7956.00,1.35
7955.00,1.35
7954.00,1.35
7953.00,1.35
7952.00,1.35
7951.00,1.35
7950.00,1.35
7949.00,1.35
7948.00,1.35
7947.00,1.35
7946.00,1.35
7945.00,1.35
7944.00,1.35
7943.00,1.35
7942.00,1.35
7941.00,1.35
7940.00,1.35
7939.00,1.35
7938.00,1.35
7937.00,1.35
7936.00,1.35
7935.00,1.35
7934.00,1.35
7933.00,1.35
7932.00,1.35
7931.00,1.35
7930.00,1.35
7929.00,1.35
7928.00,1.35
7927.00,1.36
7926.00,1.36
7925.00,1.36
7924.00,1.36
7923.00,1.36
7922.00,1.36
7921.00,1.36
7920.00,1.36
7919.00,1.36
7918.00,1.36
7917.00,1.36
7916.00,1.36
7915.00,1.36
7914.00,1.36
7913.00,1.36
7912.00,1.36
7911.00,1.36
7910.00,1.36
7909.00,1.36
7908.00,1.36
7907.00,1.36
7906.00,1.36
7905.00,1.36
7904.00,1.36
7903.00,1.36
7902.00,1.36
7901.00,1.36
7900.00,1.36
7899.00,1.36
7898.00,1.36
7897.00,1.36
7896.00,1.36
7895.00,1.36
7894.00,1.36
7893.00,1.36
7892.00,1.36
7891.00,1.36
7890.00,1.36
7889.00,1.36
7888.00,1.36
7887.00,1.37
7886.00,1.37
7885.00,1.37
7884.00,1.37
7883.00,1.37
7882.00,1.37
7881.00,1.37
7880.00,1.37
7879.00,1.37
7878.00,1.37
7877.00,1.37
7876.00,1.37
7875.00,1.38
7874.00,1.38
7873.00,1.38
7872.00,1.38
7871.00,1.38
7870.00,1.38
7869.00,1.38
7868.00,1.37
7867.00,1.37
7866.00,1.37
7865.00,1.37
7864.00,1.37
7863.00,1.37
7862.00,1.37
7861.00,1.37
7860.00,1.37
7859.00,1.37
7858.00,1.37
7857.00,1.37
7856.00,1.37
7855.00,1.37
7854.00,1.37
7853.00,1.37
7852.00,1.37
7851.00,1.37
7850.00,1.37
7849.00,1.37
7848.00,1.37
7847.00,1.37
7846.00,1.37
7845.00,1.37
7844.00,1.37
7843.00,1.37
7842.00,1.37
7841.00,1.37
7840.00,1.37
7839.00,1.37
7838.00,1.37
7837.00,1.37
7836.00,1.37
7835.00,1.37
7834.00,1.37
7833.00,1.37
7832.00,1.37
7831.00,1.37
7830.00,1.37
7829.00,1.36
7828.00,1.36
7827.00,1.36
7826.00,1.36
7825.00,1.36
7824.00,1.36
7823.00,1.36
7822.00,1.36
7821.00,1.36
7820.00,1.37
7819.00,1.37
7818.00,1.37
7817.00,1.37
7816.00,1.37
7815.00,1.37
7814.00,1.37
7813.00,1.37
7812.00,1.37
7811.00,1.38
7810.00,1.38
7809.00,1.38
7808.00,1.38
7807.00,1.38
7806.00,1.38
7805.00,1.38
7804.00,1.38
7803.00,1.38
7802.00,1.38
7801.00,1.38
7800.00,1.38
7799.00,1.38
7798.00,1.38
7797.00,1.38
7796.00,1.38
7795.00,1.38
7794.00,1.38
7793.00,1.38
7792.00,1.38
7791.00,1.38
7790.00,1.38
7789.00,1.38
7788.00,1.38
7787.00,1.38
7786.00,1.38
7785.00,1.38
7784.00,1.38
7783.00,1.38
7782.00,1.38
7781.00,1.38
7780.00,1.38
7779.00,1.38
7778.00,1.38
7777.00,1.38
7776.00,1.38
7775.00,1.38
7774.00,1.38
7773.00,1.38
7772.00,1.38
7771.00,1.38
7770.00,1.38
7769.00,1.38
7768.00,1.38
7767.00,1.38
7766.00,1.38
7765.00,1.38
7764.00,1.38
7763.00,1.38
7762.00,1.38
7761.00,1.38
7760.00,1.38
7759.00,1.38
7758.00,1.38
7757.00,1.38
7756.00,1.38
7755.00,1.38
7754.00,1.38
7753.00,1.38
7752.00,1.38
7751.00,1.38
7750.00,1.38
7749.00,1.38
7748.00,1.38
7747.00,1.38
7746.00,1.38
7745.00,1.38
7744.00,1.38
7743.00,1.38
7742.00,1.38
7741.00,1.38
7740.00,1.38
7739.00,1.38
7738.00,1.38
7737.00,1.38
7736.00,1.38
7735.00,1.38
7734.00,1.38
7733.00,1.38
7732.00,1.38
7731.00,1.38
7730.00,1.38
7729.00,1.38
7728.00,1.38
7727.00,1.38
7726.00,1.38
7725.00,1.38
7724.00,1.38
7723.00,1.38
7722.00,1.38
7721.00,1.38
7720.00,1.38
7719.00,1.38
7718.00,1.38
7717.00,1.38
7716.00,1.38
7715.00,1.38
7714.00,1.38
7713.00,1.37
7712.00,1.37
7711.00,1.37
7710.00,1.37
7709.00,1.37
7708.00,1.37
7707.00,1.37
7706.00,1.37
7705.00,1.37
7704.00,1.37
7703.00,1.37
7702.00,1.37
7701.00,1.37
7700.00,1.37
7699.00,1.37
7698.00,1.37
7697.00,1.37
7696.00,1.37
7695.00,1.37
7694.00,1.37
7693.00,1.37
7692.00,1.37
7691.00,1.37
7690.00,1.37
7689.00,1.37
7688.00,1.37
7687.00,1.37
7686.00,1.37
7685.00,1.37
7684.00,1.37
7683.00,1.37
7682.00,1.37
7681.00,1.37
7680.00,1.37
7679.00,1.37
7678.00,1.37
7677.00,1.37
7676.00,1.38
7675.00,1.38
7674.00,1.38
7673.00,1.38
7672.00,1.38
7671.00,1.38
7670.00,1.38
7669.00,1.38
7668.00,1.38
7667.00,1.38
7666.00,1.38
7665.00,1.38
7664.00,1.38
7663.00,1.38
7662.00,1.38
7661.00,1.38
7660.00,1.38
7659.00,1.38
7658.00,1.38
7657.00,1.38
7656.00,1.39
7655.00,1.39
7654.00,1.39
7653.00,1.39
7652.00,1.38
7651.00,1.38
7650.00,1.38
7649.00,1.38
7648.00,1.38
7647.00,1.38
7646.00,1.38
7645.00,1.38
7644.00,1.38
7643.00,1.38
7642.00,1.38
7641.00,1.38
7640.00,1.38
7639.00,1.38
7638.00,1.38
7637.00,1.38
7636.00,1.38
7635.00,1.38
7634.00,1.38
7633.00,1.38
7632.00,1.38
7631.00,1.38
7630.00,1.38
7629.00,1.38
7628.00,1.38
7627.00,1.38
7626.00,1.38
7625.00,1.38
7624.00,1.38
7623.00,1.38
7622.00,1.38
7621.00,1.38
7620.00,1.38
7619.00,1.38
7618.00,1.38
7617.00,1.38
7616.00,1.38
7615.00,1.38
7614.00,1.38
7613.00,1.38
7612.00,1.38
7611.00,1.38
7610.00,1.38
7609.00,1.38
7608.00,1.38
7607.00,1.38
7606.00,1.38
7605.00,1.38
7604.00,1.38
7603.00,1.38
7602.00,1.38
7601.00,1.38
7600.00,1.38
7599.00,1.38
7598.00,1.38
7597.00,1.38
7596.00,1.38
7595.00,1.38
7594.00,1.38
7593.00,1.38
7592.00,1.38
7591.00,1.38
7590.00,1.38
7589.00,1.38
7588.00,1.38
7587.00,1.38
7586.00,1.38
7585.00,1.38
7584.00,1.38
7583.00,1.38
7582.00,1.38
7581.00,1.38
7580.00,1.38
7579.00,1.37
7578.00,1.37
7577.00,1.37
7576.00,1.37
7575.00,1.37
7574.00,1.37
7573.00,1.37
7572.00,1.37
7571.00,1.37
7570.00,1.37
7569.00,1.37
7568.00,1.37
7567.00,1.37
7566.00,1.37
7565.00,1.37
7564.00,1.36
7563.00,1.36
7562.00,1.36
7561.00,1.36
7560.00,1.36
7559.00,1.36
7558.00,1.36
7557.00,1.36
7556.00,1.36
7555.00,1.36
7554.00,1.36
7553.00,1.36
7552.00,1.36
7551.00,1.36
7550.00,1.36
7549.00,1.37
7548.00,1.37
7547.00,1.37
7546.00,1.37
7545.00,1.37
7544.00,1.37
7543.00,1.37
7542.00,1.37
7541.00,1.37
7540.00,1.37
7539.00,1.37
7538.00,1.37
7537.00,1.37
7536.00,1.37
7535.00,1.37
7534.00,1.37
7533.00,1.37
7532.00,1.37
7531.00,1.37
7530.00,1.37
7529.00,1.37
7528.00,1.37
7527.00,1.37
7526.00,1.37
7525.00,1.37
7524.00,1.37
7523.00,1.37
7522.00,1.37
7521.00,1.37
7520.00,1.37
7519.00,1.37
7518.00,1.37
7517.00,1.37
7516.00,1.37
7515.00,1.37
7514.00,1.37
7513.00,1.37
7512.00,1.37
7511.00,1.37
7510.00,1.37
7509.00,1.37
7508.00,1.36
7507.00,1.36
7506.00,1.36
7505.00,1.36
7504.00,1.36
7503.00,1.36
7502.00,1.36
7501.00,1.36
7500.00,1.36
7499.00,1.36
7498.00,1.36
7497.00,1.36
7496.00,1.36
7495.00,1.36
7494.00,1.36
7493.00,1.36
7492.00,1.36
7491.00,1.36
7490.00,1.36
7489.00,1.36
7488.00,1.36
7487.00,1.36
7486.00,1.36
7485.00,1.36
7484.00,1.36
7483.00,1.36
7482.00,1.36
7481.00,1.36
7480.00,1.36
7479.00,1.36
7478.00,1.36
7477.00,1.36
7476.00,1.36
7475.00,1.36
7474.00,1.36
7473.00,1.36
7472.00,1.36
7471.00,1.36
7470.00,1.36
7469.00,1.36
7468.00,1.36
7467.00,1.36
7466.00,1.36
7465.00,1.36
7464.00,1.36
7463.00,1.36
7462.00,1.36
7461.00,1.35
7460.00,1.35
7459.00,1.35
7458.00,1.35
7457.00,1.35
7456.00,1.35
7455.00,1.35
7454.00,1.35
7453.00,1.34
7452.00,1.34
7451.00,1.34
7450.00,1.34
7449.00,1.34
7448.00,1.34
7447.00,1.34
7446.00,1.34
7445.00,1.34
7444.00,1.34
7443.00,1.34
7442.00,1.34
7441.00,1.34
7440.00,1.34
7439.00,1.34
7438.00,1.34
7437.00,1.34
7436.00,1.34
7435.00,1.34
7434.00,1.34
7433.00,1.34
7432.00,1.34
7431.00,1.33
7430.00,1.33
7429.00,1.33
7428.00,1.33
7427.00,1.33
7426.00,1.33
7425.00,1.33
7424.00,1.33
7423.00,1.33
7422.00,1.33
7421.00,1.33
7420.00,1.33
7419.00,1.33
7418.00,1.32
7417.00,1.32
7416.00,1.32
7415.00,1.32
7414.00,1.32
7413.00,1.32
7412.00,1.32
7411.00,1.32
7410.00,1.32
7409.00,1.32
7408.00,1.32
7407.00,1.32
7406.00,1.32
7405.00,1.32
7404.00,1.32
7403.00,1.32
7402.00,1.31
7401.00,1.31
7400.00,1.31
7399.00,1.31
7398.00,1.31
7397.00,1.31
7396.00,1.31
7395.00,1.31
7394.00,1.30
7393.00,1.30
7392.00,1.30
7391.00,1.30
7390.00,1.30
7389.00,1.29
7388.00,1.29
7387.00,1.29
7386.00,1.29
7385.00,1.29
7384.00,1.29
7383.00,1.28
7382.00,1.28
7381.00,1.28
7380.00,1.28
7379.00,1.28
7378.00,1.28
7377.00,1.28
7376.00,1.28
7375.00,1.28
7374.00,1.28
7373.00,1.28
7372.00,1.28
7371.00,1.29
7370.00,1.29
7369.00,1.29
7368.00,1.29
7367.00,1.29
7366.00,1.29
7365.00,1.29
7364.00,1.29
7363.00,1.29
7362.00,1.29
7361.00,1.29
7360.00,1.29
7359.00,1.29
7358.00,1.29
7357.00,1.29
7356.00,1.29
7355.00,1.29
7354.00,1.29
7353.00,1.29
7352.00,1.29
7351.00,1.29
7350.00,1.29
7349.00,1.28
7348.00,1.28
7347.00,1.28
7346.00,1.28
7345.00,1.28
7344.00,1.28
7343.00,1.28
7342.00,1.28
7341.00,1.28
7340.00,1.28
7339.00,1.28
7338.00,1.27
7337.00,1.27
7336.00,1.27
7335.00,1.27
7334.00,1.27
7333.00,1.27
7332.00,1.27
7331.00,1.27
7330.00,1.27
7329.00,1.27
7328.00,1.27
7327.00,1.27
7326.00,1.27
7325.00,1.27
7324.00,1.27
7323.00,1.27
7322.00,1.27
7321.00,1.27
7320.00,1.27
7319.00,1.27
7318.00,1.27
7317.00,1.27
7316.00,1.27
7315.00,1.27
7314.00,1.27
7313.00,1.27
7312.00,1.27
7311.00,1.27
7310.00,1.26
7309.00,1.26
7308.00,1.26
7307.00,1.26
7306.00,1.26
7305.00,1.26
7304.00,1.25
7303.00,1.25
7302.00,1.25
7301.00,1.25
7300.00,1.25
7299.00,1.25
7298.00,1.25
7297.00,1.25
7296.00,1.25
7295.00,1.25
7294.00,1.25
7293.00,1.25
7292.00,1.25
7291.00,1.25
7290.00,1.25
7289.00,1.25
7288.00,1.25
7287.00,1.25
7286.00,1.25
7285.00,1.25
7284.00,1.25
7283.00,1.25
7282.00,1.25
7281.00,1.24
7280.00,1.24
7279.00,1.24
7278.00,1.24
7277.00,1.24
7276.00,1.24
7275.00,1.23
7274.00,1.23
7273.00,1.23
7272.00,1.23
7271.00,1.23
7270.00,1.23
7269.00,1.23
7268.00,1.23
7267.00,1.22
7266.00,1.22
7265.00,1.22
7264.00,1.22
7263.00,1.22
7262.00,1.22
7261.00,1.22
7260.00,1.22
7259.00,1.22
7258.00,1.22
7257.00,1.21
7256.00,1.21
7255.00,1.21
7254.00,1.21
7253.00,1.21
7252.00,1.21
7251.00,1.20
7250.00,1.20
7249.00,1.20
7248.00,1.20
7247.00,1.20
7246.00,1.20
7245.00,1.19
7244.00,1.19
7243.00,1.19
7242.00,1.19
7241.00,1.19
7240.00,1.18
7239.00,1.18
7238.00,1.18
7237.00,1.18
7236.00,1.18
7235.00,1.17
7234.00,1.17
7233.00,1.17
7232.00,1.16
7231.00,1.16
7230.00,1.16
7229.00,1.16
7228.00,1.15
7227.00,1.15
7226.00,1.15
7225.00,1.14
7224.00,1.14
7223.00,1.14
7222.00,1.13
7221.00,1.13
7220.00,1.13
7219.00,1.12
7218.00,1.12
7217.00,1.12
7216.00,1.12
7215.00,1.11
7214.00,1.11
7213.00,1.11
7212.00,1.11
7211.00,1.10
7210.00,1.10
7209.00,1.10
7208.00,1.10
7207.00,1.09
7206.00,1.09
7205.00,1.09
7204.00,1.09
7203.00,1.09
7202.00,1.08
7201.00,1.08
7200.00,1.08
7199.00,1.08
7198.00,1.07
7197.00,1.07
7196.00,1.07
7195.00,1.07
7194.00,1.07
7193.00,1.06
7192.00,1.06
7191.00,1.06
7190.00,1.05
7189.00,1.05
7188.00,1.05
7187.00,1.05
7186.00,1.04
7185.00,1.04
7184.00,1.04
7183.00,1.03
7182.00,1.03
7181.00,1.03
7180.00,1.03
7179.00,1.02
7178.00,1.02
7177.00,1.02
7176.00,1.02
7175.00,1.01
7174.00,1.01
7173.00,1.01
7172.00,1.01
7171.00,1.00
7170.00,1.00
7169.00,1.00
7168.00,0.99
7167.00,0.99
7166.00,0.99
7165.00,0.99
7164.00,0.98
7163.00,0.98
7162.00,0.98
7161.00,0.98
7160.00,0.97
7159.00,0.97
7158.00,0.97
7157.00,0.97
7156.00,0.97
7155.00,0.96
7154.00,0.96
7153.00,0.96
7152.00,0.96
7151.00,0.95
7150.00,0.95
7149.00,0.95
7148.00,0.95
7147.00,0.95
7146.00,0.94
7145.00,0.94
7144.00,0.94
7143.00,0.94
7142.00,0.93
7141.00,0.93
7140.00,0.93
7139.00,0.93
7138.00,0.92
7137.00,0.92
7136.00,0.92
7135.00,0.92
7134.00,0.91
7133.00,0.91
7132.00,0.91
7131.00,0.90
7130.00,0.90
7129.00,0.90
7128.00,0.89
7127.00,0.89
7126.00,0.89
7125.00,0.89
7124.00,0.88
7123.00,0.88
7122.00,0.88
7121.00,0.88
7120.00,0.87
7119.00,0.87
7118.00,0.87
7117.00,0.87
7116.00,0.86
7115.00,0.86
7114.00,0.86
7113.00,0.86
7112.00,0.85
7111.00,0.85
7110.00,0.85
7109.00,0.85
7108.00,0.84
7107.00,0.84
7106.00,0.84
7105.00,0.84
7104.00,0.83
7103.00,0.83
7102.00,0.83
7101.00,0.82
7100.00,0.82
7099.00,0.82
7098.00,0.82
7097.00,0.82
7096.00,0.81
7095.00,0.81
7094.00,0.81
7093.00,0.81
7092.00,0.81
7091.00,0.81
7090.00,0.81
7089.00,0.80
7088.00,0.80
7087.00,0.80
7086.00,0.80
7085.00,0.80
7084.00,0.80
7083.00,0.80
7082.00,0.80
7081.00,0.79
7080.00,0.79
7079.00,0.79
7078.00,0.79
7077.00,0.79
7076.00,0.79
7075.00,0.78
7074.00,0.78
7073.00,0.78
7072.00,0.78
7071.00,0.78
7070.00,0.77
7069.00,0.77
7068.00,0.77
7067.00,0.77
7066.00,0.77
7065.00,0.77
7064.00,0.76
7063.00,0.76
7062.00,0.76
7061.00,0.76
7060.00,0.76
7059.00,0.76
7058.00,0.76
7057.00,0.76
7056.00,0.76
7055.00,0.76
7054.00,0.76
7053.00,0.75
7052.00,0.75
7051.00,0.75
7050.00,0.75
7049.00,0.75
7048.00,0.75
7047.00,0.75
7046.00,0.75
7045.00,0.75
7044.00,0.75
7043.00,0.75
7042.00,0.75
7041.00,0.75
7040.00,0.74
7039.00,0.74
7038.00,0.74
7037.00,0.74
7036.00,0.74
7035.00,0.74
7034.00,0.74
7033.00,0.73
7032.00,0.73
7031.00,0.73
7030.00,0.73
7029.00,0.73
7028.00,0.73
7027.00,0.72
7026.00,0.72
7025.00,0.72
7024.00,0.72
7023.00,0.72
7022.00,0.72
7021.00,0.72
7020.00,0.72
7019.00,0.72
7018.00,0.71
7017.00,0.71
7016.00,0.71
7015.00,0.71
7014.00,0.71
7013.00,0.71
7012.00,0.71
7011.00,0.71
7010.00,0.71
7009.00,0.71
7008.00,0.71
7007.00,0.71
7006.00,0.71
7005.00,0.71
7004.00,0.71
7003.00,0.71
7002.00,0.71
7001.00,0.71
7000.00,0.70
6999.00,0.70
6998.00,0.70
6997.00,0.70
6996.00,0.70
6995.00,0.70
6994.00,0.70
6993.00,0.70
6992.00,0.70
6991.00,0.69
6990.00,0.69
6989.00,0.69
6988.00,0.69
6987.00,0.69
6986.00,0.69
6985.00,0.69
6984.00,0.69
6983.00,0.69
6982.00,0.68
6981.00,0.68
6980.00,0.68
6979.00,0.68
6978.00,0.68
6977.00,0.68
6976.00,0.68
6975.00,0.68
6974.00,0.68
6973.00,0.68
6972.00,0.68
6971.00,0.68
6970.00,0.68
6969.00,0.67
6968.00,0.67
6967.00,0.67
6966.00,0.67
6965.00,0.67
6964.00,0.67
6963.00,0.67
6962.00,0.67
6961.00,0.67
6960.00,0.67
6959.00,0.67
6958.00,0.67
6957.00,0.67
6956.00,0.67
6955.00,0.67
6954.00,0.67
6953.00,0.67
6952.00,0.68
6951.00,0.68
6950.00,0.68
6949.00,0.68
6948.00,0.68
6947.00,0.67
6946.00,0.67
6945.00,0.67
6944.00,0.67
6943.00,0.67
6942.00,0.67
6941.00,0.67
6940.00,0.67
6939.00,0.67
6938.00,0.67
6937.00,0.67
6936.00,0.67
6935.00,0.66
6934.00,0.66
6933.00,0.66
6932.00,0.66
6931.00,0.66
6930.00,0.67
6929.00,0.67
6928.00,0.67
6927.00,0.67
6926.00,0.67
6925.00,0.67
6924.00,0.67
6923.00,0.67
6922.00,0.67
6921.00,0.67
6920.00,0.67
6919.00,0.67
6918.00,0.67
6917.00,0.67
6916.00,0.67
6915.00,0.67
6914.00,0.67
6913.00,0.67
6912.00,0.67
6911.00,0.67
6910.00,0.67
6909.00,0.67
6908.00,0.67
6907.00,0.66
6906.00,0.66
6905.00,0.66
6904.00,0.66
6903.00,0.66
6902.00,0.66
6901.00,0.66
6900.00,0.66
6899.00,0.66
6898.00,0.66
6897.00,0.66
6896.00,0.66
6895.00,0.66
6894.00,0.66
6893.00,0.66
6892.00,0.66
6891.00,0.66
6890.00,0.66
6889.00,0.66
6888.00,0.66
6887.00,0.66
6886.00,0.66
6885.00,0.66
6884.00,0.66
6883.00,0.66
6882.00,0.66
6881.00,0.66
6880.00,0.66
6879.00,0.66
6878.00,0.66
6877.00,0.66
6876.00,0.66
6875.00,0.66
6874.00,0.65
6873.00,0.65
6872.00,0.65
6871.00,0.65
6870.00,0.65
6869.00,0.66
6868.00,0.66
6867.00,0.66
6866.00,0.66
6865.00,0.66
6864.00,0.66
6863.00,0.66
6862.00,0.66
6861.00,0.66
6860.00,0.66
6859.00,0.66
6858.00,0.65
6857.00,0.65
6856.00,0.65
6855.00,0.65
6854.00,0.65
6853.00,0.65
6852.00,0.65
6851.00,0.65
6850.00,0.65
6849.00,0.65
6848.00,0.65
6847.00,0.65
6846.00,0.65
6845.00,0.65
6844.00,0.65
6843.00,0.65
6842.00,0.65
6841.00,0.65
6840.00,0.65
6839.00,0.65
6838.00,0.65
6837.00,0.65
6836.00,0.65
6835.00,0.65
6834.00,0.65
6833.00,0.65
6832.00,0.65
6831.00,0.65
6830.00,0.65
6829.00,0.65
6828.00,0.65
6827.00,0.65
6826.00,0.65
6825.00,0.65
6824.00,0.65
6823.00,0.65
6822.00,0.65
6821.00,0.65
6820.00,0.65
6819.00,0.65
6818.00,0.65
6817.00,0.65
6816.00,0.65
6815.00,0.65
6814.00,0.65
6813.00,0.66
6812.00,0.66
6811.00,0.66
6810.00,0.66
6809.00,0.66
6808.00,0.66
6807.00,0.66
6806.00,0.66
6805.00,0.66
6804.00,0.66
6803.00,0.66
6802.00,0.66
6801.00,0.66
6800.00,0.66
6799.00,0.66
6798.00,0.66
6797.00,0.66
6796.00,0.67
6795.00,0.67
6794.00,0.67
6793.00,0.67
6792.00,0.67
6791.00,0.67
6790.00,0.67
6789.00,0.67
6788.00,0.67
6787.00,0.67
6786.00,0.67
6785.00,0.67
6784.00,0.67
6783.00,0.67
6782.00,0.67
6781.00,0.67
6780.00,0.67
6779.00,0.67
6778.00,0.67
6777.00,0.68
6776.00,0.68
6775.00,0.68
6774.00,0.68
6773.00,0.68
6772.00,0.68
6771.00,0.68
6770.00,0.68
6769.00,0.68
6768.00,0.68
6767.00,0.68
6766.00,0.68
6765.00,0.68
6764.00,0.68
6763.00,0.68
6762.00,0.68
6761.00,0.68
6760.00,0.69
6759.00,0.69
6758.00,0.69
6757.00,0.69
6756.00,0.69
6755.00,0.69
6754.00,0.69
6753.00,0.69
6752.00,0.69
6751.00,0.69
6750.00,0.69
6749.00,0.69
6748.00,0.69
6747.00,0.69
6746.00,0.69
6745.00,0.69
6744.00,0.69
6743.00,0.70
6742.00,0.70
6741.00,0.70
6740.00,0.70
6739.00,0.70
6738.00,0.70
6737.00,0.70
6736.00,0.70
6735.00,0.70
6734.00,0.70
6733.00,0.71
6732.00,0.71
6731.00,0.71
6730.00,0.71
6729.00,0.71
6728.00,0.71
6727.00,0.71
6726.00,0.71
6725.00,0.71
6724.00,0.71
6723.00,0.71
6722.00,0.71
6721.00,0.71
6720.00,0.71
6719.00,0.71
6718.00,0.71
6717.00,0.71
6716.00,0.71
6715.00,0.71
6714.00,0.71
6713.00,0.71
6712.00,0.71
6711.00,0.71
6710.00,0.72
6709.00,0.72
6708.00,0.72
6707.00,0.72
6706.00,0.72
6705.00,0.72
6704.00,0.72
6703.00,0.72
6702.00,0.72
6701.00,0.72
6700.00,0.72
6699.00,0.72
6698.00,0.73
6697.00,0.73
6696.00,0.73
6695.00,0.73
6694.00,0.73
6693.00,0.73
6692.00,0.73
6691.00,0.73
6690.00,0.73
6689.00,0.73
6688.00,0.73
6687.00,0.73
6686.00,0.74
6685.00,0.74
6684.00,0.74
6683.00,0.74
6682.00,0.74
6681.00,0.74
6680.00,0.74
6679.00,0.75
6678.00,0.75
6677.00,0.75
6676.00,0.75
6675.00,0.75
6674.00,0.75
6673.00,0.75
6672.00,0.75
6671.00,0.75
6670.00,0.75
6669.00,0.75
6668.00,0.75
6667.00,0.75
6666.00,0.75
6665.00,0.75
6664.00,0.75
6663.00,0.75
6662.00,0.75
6661.00,0.76
6660.00,0.76
6659.00,0.76
6658.00,0.76
6657.00,0.76
6656.00,0.76
6655.00,0.76
6654.00,0.76
6653.00,0.77
6652.00,0.77
6651.00,0.77
6650.00,0.77
6649.00,0.77
6648.00,0.77
6647.00,0.77
6646.00,0.78
6645.00,0.78
6644.00,0.78
6643.00,0.78
6642.00,0.78
6641.00,0.78
6640.00,0.78
6639.00,0.78
6638.00,0.78
6637.00,0.78
6636.00,0.78
6635.00,0.78
6634.00,0.78
6633.00,0.78
6632.00,0.78
6631.00,0.78
6630.00,0.78
6629.00,0.78
6628.00,0.78
6627.00,0.78
6626.00,0.78
6625.00,0.79
6624.00,0.79
6623.00,0.79
6622.00,0.79
6621.00,0.79
6620.00,0.79
6619.00,0.79
6618.00,0.79
6617.00,0.80
6616.00,0.80
6615.00,0.80
6614.00,0.80
6613.00,0.80
6612.00,0.80
6611.00,0.80
6610.00,0.81
6609.00,0.81
6608.00,0.81
6607.00,0.81
6606.00,0.81
6605.00,0.81
6604.00,0.81
6603.00,0.81
6602.00,0.81
6601.00,0.81
6600.00,0.81
6599.00,0.81
6598.00,0.81
6597.00,0.82
6596.00,0.82
6595.00,0.82
6594.00,0.82
6593.00,0.82
6592.00,0.82
6591.00,0.82
6590.00,0.82
6589.00,0.82
6588.00,0.82
6587.00,0.82
6586.00,0.82
6585.00,0.82
6584.00,0.83
6583.00,0.83
6582.00,0.83
6581.00,0.83
6580.00,0.83
6579.00,0.83
6578.00,0.83
6577.00,0.83
6576.00,0.84
6575.00,0.84
6574.00,0.84
6573.00,0.84
6572.00,0.84
6571.00,0.84
6570.00,0.85
6569.00,0.85
6568.00,0.85
6567.00,0.85
6566.00,0.85
6565.00,0.85
6564.00,0.85
6563.00,0.85
6562.00,0.85
6561.00,0.86
6560.00,0.86
6559.00,0.86
6558.00,0.86
6557.00,0.86
6556.00,0.86
6555.00,0.86
6554.00,0.86
6553.00,0.86
6552.00,0.86
6551.00,0.86
6550.00,0.86
6549.00,0.86
6548.00,0.87
6547.00,0.87
6546.00,0.87
6545.00,0.87
6544.00,0.87
6543.00,0.87
6542.00,0.87
6541.00,0.87
6540.00,0.87
6539.00,0.87
6538.00,0.87
6537.00,0.87
6536.00,0.87
6535.00,0.87
6534.00,0.87
6533.00,0.87
6532.00,0.87
6531.00,0.87
6530.00,0.87
6529.00,0.87
6528.00,0.87
6527.00,0.87
6526.00,0.87
6525.00,0.87
6524.00,0.87
6523.00,0.88
6522.00,0.88
6521.00,0.88
6520.00,0.88
6519.00,0.88
6518.00,0.88
6517.00,0.88
6516.00,0.88
6515.00,0.88
6514.00,0.89
6513.00,0.89
6512.00,0.89
6511.00,0.89
6510.00,0.89
6509.00,0.89
6508.00,0.89
6507.00,0.89
6506.00,0.89
6505.00,0.89
6504.00,0.89
6503.00,0.89
6502.00,0.89
6501.00,0.89
6500.00,0.89
6499.00,0.89
6498.00,0.89
6497.00,0.89
6496.00,0.89
6495.00,0.89
6494.00,0.89
6493.00,0.89
6492.00,0.89
6491.00,0.90
6490.00,0.90
6489.00,0.90
6488.00,0.90
6487.00,0.90
6486.00,0.90
6485.00,0.90
6484.00,0.90
6483.00,0.90
6482.00,0.90
6481.00,0.90
6480.00,0.91
6479.00,0.91
6478.00,0.91
6477.00,0.91
6476.00,0.91
6475.00,0.91
6474.00,0.91
6473.00,0.91
6472.00,0.91
6471.00,0.91
6470.00,0.91
6469.00,0.91
6468.00,0.92
6467.00,0.92
6466.00,0.92
6465.00,0.92
6464.00,0.92
6463.00,0.92
6462.00,0.92
6461.00,0.92
6460.00,0.92
6459.00,0.92
6458.00,0.92
6457.00,0.92
6456.00,0.92
6455.00,0.92
6454.00,0.92
6453.00,0.92
6452.00,0.92
6451.00,0.92
6450.00,0.93
6449.00,0.93
6448.00,0.93
6447.00,0.93
6446.00,0.93
6445.00,0.93
6444.00,0.93
6443.00,0.93
6442.00,0.93
6441.00,0.93
6440.00,0.93
6439.00,0.93
6438.00,0.93
6437.00,0.93
6436.00,0.93
6435.00,0.93
6434.00,0.93
6433.00,0.93
6432.00,0.93
6431.00,0.93
6430.00,0.93
6429.00,0.93
6428.00,0.93
6427.00,0.93
6426.00,0.93
6425.00,0.93
6424.00,0.93
6423.00,0.93
6422.00,0.93
6421.00,0.93
6420.00,0.94
6419.00,0.94
6418.00,0.94
6417.00,0.94
6416.00,0.94
6415.00,0.94
6414.00,0.94
6413.00,0.94
6412.00,0.94
6411.00,0.94
6410.00,0.94
6409.00,0.94
6408.00,0.94
6407.00,0.94
6406.00,0.94
6405.00,0.94
6404.00,0.94
6403.00,0.94
6402.00,0.94
6401.00,0.94
6400.00,0.94
6399.00,0.94
6398.00,0.94
6397.00,0.94
6396.00,0.94
6395.00,0.94
6394.00,0.94
6393.00,0.94
6392.00,0.94
6391.00,0.94
6390.00,0.94
6389.00,0.94
6388.00,0.95
6387.00,0.95
6386.00,0.95
6385.00,0.95
6384.00,0.95
6383.00,0.95
6382.00,0.95
6381.00,0.95
6380.00,0.95
6379.00,0.95
6378.00,0.95
6377.00,0.95
6376.00,0.95
6375.00,0.95
6374.00,0.95
6373.00,0.95
6372.00,0.95
6371.00,0.95
6370.00,0.96
6369.00,0.96
6368.00,0.96
6367.00,0.96
6366.00,0.96
6365.00,0.96
6364.00,0.96
6363.00,0.96
6362.00,0.96
6361.00,0.96
6360.00,0.97
6359.00,0.97
6358.00,0.97
6357.00,0.97
6356.00,0.97
6355.00,0.97
6354.00,0.97
6353.00,0.97
6352.00,0.97
6351.00,0.97
6350.00,0.97
6349.00,0.98
6348.00,0.98
6347.00,0.98
6346.00,0.98
6345.00,0.98
6344.00,0.98
6343.00,0.98
6342.00,0.98
6341.00,0.98
6340.00,0.98
6339.00,0.98
6338.00,0.98
6337.00,0.98
6336.00,0.99
6335.00,0.99
6334.00,0.99
6333.00,0.99
6332.00,0.99
6331.00,0.99
6330.00,0.99
6329.00,0.99
6328.00,0.99
6327.00,0.99
6326.00,0.99
6325.00,0.99
6324.00,0.99
6323.00,1.00
6322.00,1.00
6321.00,1.00
6320.00,1.00
6319.00,1.00
6318.00,1.00
6317.00,1.00
6316.00,1.00
6315.00,1.00
6314.00,1.00
6313.00,1.00
6312.00,1.01
6311.00,1.01
6310.00,1.01
6309.00,1.01
6308.00,1.01
6307.00,1.01
6306.00,1.01
6305.00,1.01
6304.00,1.02
6303.00,1.02
6302.00,1.02
6301.00,1.02
6300.00,1.02
6299.00,1.02
6298.00,1.02
6297.00,1.03
6296.00,1.03
6295.00,1.03
6294.00,1.03
6293.00,1.03
6292.00,1.03
6291.00,1.03
6290.00,1.03
6289.00,1.03
6288.00,1.03
6287.00,1.03
6286.00,1.03
6285.00,1.03
6284.00,1.03
6283.00,1.03
6282.00,1.03
6281.00,1.03
6280.00,1.03
6279.00,1.03
6278.00,1.03
6277.00,1.03
6276.00,1.03
6275.00,1.04
6274.00,1.04
6273.00,1.04
6272.00,1.04
6271.00,1.04
6270.00,1.04
6269.00,1.04
6268.00,1.04
6267.00,1.04
6266.00,1.04
6265.00,1.04
6264.00,1.05
6263.00,1.05
6262.00,1.05
6261.00,1.05
6260.00,1.05
6259.00,1.05
6258.00,1.05
6257.00,1.05
6256.00,1.06
6255.00,1.06
6254.00,1.06
6253.00,1.06
6252.00,1.06
6251.00,1.06
6250.00,1.06
6249.00,1.06
6248.00,1.06
6247.00,1.06
6246.00,1.06
6245.00,1.06
6244.00,1.07
6243.00,1.07
6242.00,1.07
6241.00,1.07
6240.00,1.07
6239.00,1.07
6238.00,1.07
6237.00,1.07
6236.00,1.07
6235.00,1.07
6234.00,1.07
6233.00,1.08
6232.00,1.08
6231.00,1.08
6230.00,1.08
6229.00,1.08
6228.00,1.08
6227.00,1.08
6226.00,1.08
6225.00,1.08
6224.00,1.09
6223.00,1.09
6222.00,1.09
6221.00,1.09
6220.00,1.09
6219.00,1.09
6218.00,1.10
6217.00,1.10
6216.00,1.10
6215.00,1.10
6214.00,1.10
6213.00,1.11
6212.00,1.11
6211.00,1.11
6210.00,1.11
6209.00,1.11
6208.00,1.12
6207.00,1.12
6206.00,1.12
6205.00,1.12
6204.00,1.12
6203.00,1.12
6202.00,1.12
6201.00,1.12
6200.00,1.13
6199.00,1.13
6198.00,1.13
6197.00,1.13
6196.00,1.13
6195.00,1.13
6194.00,1.13
6193.00,1.13
6192.00,1.13
6191.00,1.13
6190.00,1.14
6189.00,1.14
6188.00,1.14
6187.00,1.14
6186.00,1.14
6185.00,1.14
6184.00,1.14
6183.00,1.14
6182.00,1.14
6181.00,1.15
6180.00,1.15
6179.00,1.15
6178.00,1.15
6177.00,1.15
6176.00,1.15
6175.00,1.15
6174.00,1.15
6173.00,1.16
6172.00,1.16
6171.00,1.16
6170.00,1.16
6169.00,1.16
6168.00,1.16
6167.00,1.16
6166.00,1.16
6165.00,1.17
6164.00,1.17
6163.00,1.17
6162.00,1.17
6161.00,1.17
6160.00,1.17
6159.00,1.17
6158.00,1.18
6157.00,1.18
6156.00,1.18
6155.00,1.18
6154.00,1.18
6153.00,1.18
6152.00,1.18
6151.00,1.18
6150.00,1.18
6149.00,1.18
6148.00,1.19
6147.00,1.19
6146.00,1.19
6145.00,1.19
6144.00,1.19
6143.00,1.19
6142.00,1.19
6141.00,1.19
6140.00,1.20
6139.00,1.20
6138.00,1.20
6137.00,1.20
6136.00,1.20
6135.00,1.20
6134.00,1.20
6133.00,1.21
6132.00,1.21
6131.00,1.21
6130.00,1.21
6129.00,1.21
6128.00,1.21
6127.00,1.21
6126.00,1.21
6125.00,1.21
6124.00,1.22
6123.00,1.22
6122.00,1.22
6121.00,1.22
6120.00,1.22
6119.00,1.22
6118.00,1.22
6117.00,1.22
6116.00,1.22
6115.00,1.22
6114.00,1.23
6113.00,1.23
6112.00,1.23
6111.00,1.23
6110.00,1.23
6109.00,1.23
6108.00,1.23
6107.00,1.24
6106.00,1.24
6105.00,1.24
6104.00,1.24
6103.00,1.24
6102.00,1.24
6101.00,1.24
6100.00,1.25
6099.00,1.25
6098.00,1.25
6097.00,1.25
6096.00,1.25
6095.00,1.25
6094.00,1.25
6093.00,1.26
6092.00,1.26
6091.00,1.26
6090.00,1.26
6089.00,1.26
6088.00,1.26
6087.00,1.26
6086.00,1.26
6085.00,1.26
6084.00,1.26
6083.00,1.27
6082.00,1.27
6081.00,1.27
6080.00,1.27
6079.00,1.27
6078.00,1.27
6077.00,1.27
6076.00,1.27
6075.00,1.27
6074.00,1.27
6073.00,1.27
6072.00,1.28
6071.00,1.28
6070.00,1.28
6069.00,1.28
6068.00,1.28
6067.00,1.28
6066.00,1.28
6065.00,1.28
6064.00,1.28
6063.00,1.28
6062.00,1.28
6061.00,1.28
6060.00,1.28
6059.00,1.28
6058.00,1.28
6057.00,1.28
6056.00,1.28
6055.00,1.29
6054.00,1.29
6053.00,1.29
6052.00,1.29
6051.00,1.29
6050.00,1.29
6049.00,1.29
6048.00,1.29
6047.00,1.29
6046.00,1.29
6045.00,1.29
6044.00,1.29
6043.00,1.29
6042.00,1.29
6041.00,1.29
6040.00,1.29
6039.00,1.30
6038.00,1.30
6037.00,1.30
6036.00,1.30
6035.00,1.30
6034.00,1.30
6033.00,1.30
6032.00,1.30
6031.00,1.30
6030.00,1.30
6029.00,1.30
6028.00,1.30
6027.00,1.30
6026.00,1.30
6025.00,1.31
6024.00,1.31
6023.00,1.31
6022.00,1.31
6021.00,1.31
6020.00,1.31
6019.00,1.31
6018.00,1.31
6017.00,1.31
6016.00,1.31
6015.00,1.31
6014.00,1.31
6013.00,1.31
6012.00,1.31
6011.00,1.31
6010.00,1.31
6009.00,1.31
6008.00,1.31
6007.00,1.31
6006.00,1.31
6005.00,1.31
6004.00,1.31
6003.00,1.30
6002.00,1.30
6001.00,1.30
6000.00,1.30
5999.00,1.30
5998.00,1.30
5997.00,1.30
5996.00,1.30
5995.00,1.30
5994.00,1.29
5993.00,1.29
5992.00,1.29
5991.00,1.29
5990.00,1.29
5989.00,1.29
5988.00,1.29
5987.00,1.28
5986.00,1.28
5985.00,1.28
5984.00,1.28
5983.00,1.28
5982.00,1.27
5981.00,1.27
5980.00,1.27
5979.00,1.26
5978.00,1.26
5977.00,1.26
5976.00,1.25
5975.00,1.25
5974.00,1.25
5973.00,1.24
5972.00,1.24
5971.00,1.23
5970.00,1.23
5969.00,1.22
5968.00,1.22
5967.00,1.21
5966.00,1.20
5965.00,1.20
5964.00,1.19
5963.00,1.19
5962.00,1.18
5961.00,1.17
5960.00,1.17
5959.00,1.16
5958.00,1.16
5957.00,1.15
5956.00,1.14
5955.00,1.14
5954.00,1.13
5953.00,1.13
5952.00,1.12
5951.00,1.12
5950.00,1.11
5949.00,1.11
5948.00,1.10
5947.00,1.10
5946.00,1.09
5945.00,1.09
5944.00,1.09
5943.00,1.08
5942.00,1.08
5941.00,1.08
5940.00,1.08
5939.00,1.07
5938.00,1.07
5937.00,1.07
5936.00,1.07
5935.00,1.07
5934.00,1.07
5933.00,1.07
5932.00,1.07
5931.00,1.07
5930.00,1.07
5929.00,1.07
5928.00,1.07
5927.00,1.07
5926.00,1.07
5925.00,1.06
5924.00,1.06
5923.00,1.06
5922.00,1.06
5921.00,1.06
5920.00,1.06
5919.00,1.06
5918.00,1.05
5917.00,1.05
5916.00,1.05
5915.00,1.05
5914.00,1.04
5913.00,1.04
5912.00,1.04
5911.00,1.04
5910.00,1.03
5909.00,1.03
5908.00,1.03
5907.00,1.03
5906.00,1.03
5905.00,1.03
5904.00,1.03
5903.00,1.02
5902.00,1.02
5901.00,1.02
5900.00,1.02
5899.00,1.02
5898.00,1.02
5897.00,1.02
5896.00,1.02
5895.00,1.03
5894.00,1.03
5893.00,1.03
5892.00,1.03
5891.00,1.03
5890.00,1.03
5889.00,1.03
5888.00,1.04
5887.00,1.04
5886.00,1.04
5885.00,1.04
5884.00,1.04
5883.00,1.05
5882.00,1.05
5881.00,1.05
5880.00,1.05
5879.00,1.06
5878.00,1.06
5877.00,1.06
5876.00,1.06
5875.00,1.07
5874.00,1.07
5873.00,1.07
5872.00,1.07
5871.00,1.08
5870.00,1.08
5869.00,1.08
5868.00,1.08
5867.00,1.09
5866.00,1.09
5865.00,1.09
5864.00,1.09
5863.00,1.10
5862.00,1.10
5861.00,1.10
5860.00,1.10
5859.00,1.10
5858.00,1.10
5857.00,1.11
5856.00,1.11
5855.00,1.11
5854.00,1.11
5853.00,1.11
5852.00,1.11
5851.00,1.11
5850.00,1.11
5849.00,1.12
5848.00,1.12
5847.00,1.12
5846.00,1.12
5845.00,1.12
5844.00,1.12
5843.00,1.12
5842.00,1.12
5841.00,1.12
5840.00,1.12
5839.00,1.12
5838.00,1.12
5837.00,1.12
5836.00,1.12
5835.00,1.12
5834.00,1.12
5833.00,1.12
5832.00,1.12
5831.00,1.12
5830.00,1.12
5829.00,1.12
5828.00,1.12
5827.00,1.12
5826.00,1.12
5825.00,1.12
5824.00,1.12
5823.00,1.12
5822.00,1.12
5821.00,1.12
5820.00,1.12
5819.00,1.12
5818.00,1.12
5817.00,1.12
5816.00,1.12
5815.00,1.12
5814.00,1.12
5813.00,1.12
5812.00,1.12
5811.00,1.12
5810.00,1.12
5809.00,1.12
5808.00,1.12
5807.00,1.12
5806.00,1.11
5805.00,1.11
5804.00,1.11
5803.00,1.11
5802.00,1.11
5801.00,1.11
5800.00,1.11
5799.00,1.11
5798.00,1.11
5797.00,1.11
5796.00,1.11
5795.00,1.10
5794.00,1.10
5793.00,1.10
5792.00,1.10
5791.00,1.09
5790.00,1.09
5789.00,1.09
5788.00,1.09
5787.00,1.08
5786.00,1.08
5785.00,1.08
5784.00,1.08
5783.00,1.08
5782.00,1.07
5781.00,1.07
5780.00,1.07
5779.00,1.07
5778.00,1.07
5777.00,1.07
5776.00,1.07
5775.00,1.07
5774.00,1.07
5773.00,1.07
5772.00,1.07
5771.00,1.07
5770.00,1.07
5769.00,1.07
5768.00,1.07
5767.00,1.07
5766.00,1.07
5765.00,1.07
5764.00,1.08
5763.00,1.08
5762.00,1.08
5761.00,1.08
5760.00,1.09
5759.00,1.09
5758.00,1.09
5757.00,1.09
5756.00,1.10
5755.00,1.10
5754.00,1.10
5753.00,1.11
5752.00,1.11
5751.00,1.11
5750.00,1.12
5749.00,1.12
5748.00,1.12
5747.00,1.13
5746.00,1.13
5745.00,1.13
5744.00,1.13
5743.00,1.14
5742.00,1.14
5741.00,1.14
5740.00,1.14
5739.00,1.15
5738.00,1.15
5737.00,1.15
5736.00,1.15
5735.00,1.15
5734.00,1.15
5733.00,1.16
5732.00,1.16
5731.00,1.16
5730.00,1.16
5729.00,1.16
5728.00,1.16
5727.00,1.16
5726.00,1.16
5725.00,1.16
5724.00,1.16
5723.00,1.16
5722.00,1.16
5721.00,1.16
5720.00,1.16
5719.00,1.16
5718.00,1.16
5717.00,1.16
5716.00,1.16
5715.00,1.17
5714.00,1.17
5713.00,1.17
5712.00,1.17
5711.00,1.17
5710.00,1.17
5709.00,1.17
5708.00,1.17
5707.00,1.17
5706.00,1.16
5705.00,1.16
5704.00,1.16
5703.00,1.16
5702.00,1.16
5701.00,1.16
5700.00,1.16
5699.00,1.16
5698.00,1.16
5697.00,1.15
5696.00,1.15
5695.00,1.15
5694.00,1.15
5693.00,1.15
5692.00,1.15
5691.00,1.15
5690.00,1.14
5689.00,1.14
5688.00,1.14
5687.00,1.14
5686.00,1.14
5685.00,1.14
5684.00,1.14
5683.00,1.14
5682.00,1.13
5681.00,1.13
5680.00,1.13
5679.00,1.13
5678.00,1.13
5677.00,1.13
5676.00,1.13
5675.00,1.13
5674.00,1.13
5673.00,1.13
5672.00,1.13
5671.00,1.13
5670.00,1.14
5669.00,1.14
5668.00,1.14
5667.00,1.14
5666.00,1.14
5665.00,1.14
5664.00,1.14
5663.00,1.15
5662.00,1.15
5661.00,1.15
5660.00,1.15
5659.00,1.15
5658.00,1.15
5657.00,1.15
5656.00,1.16
5655.00,1.16
5654.00,1.16
5653.00,1.16
5652.00,1.16
5651.00,1.16
5650.00,1.16
5649.00,1.16
5648.00,1.16
5647.00,1.16
5646.00,1.16
5645.00,1.16
5644.00,1.16
5643.00,1.17
5642.00,1.17
5641.00,1.17
5640.00,1.17
5639.00,1.17
5638.00,1.17
5637.00,1.17
5636.00,1.17
5635.00,1.17
5634.00,1.18
5633.00,1.18
5632.00,1.18
5631.00,1.18
5630.00,1.18
5629.00,1.19
5628.00,1.19
5627.00,1.19
5626.00,1.19
5625.00,1.20
5624.00,1.20
5623.00,1.20
5622.00,1.20
5621.00,1.20
5620.00,1.21
5619.00,1.21
5618.00,1.21
5617.00,1.21
5616.00,1.21
5615.00,1.21
5614.00,1.21
5613.00,1.22
5612.00,1.22
5611.00,1.22
5610.00,1.22
5609.00,1.22
5608.00,1.22
5607.00,1.22
5606.00,1.22
5605.00,1.23
5604.00,1.23
5603.00,1.23
5602.00,1.23
5601.00,1.23
5600.00,1.23
5599.00,1.23
5598.00,1.24
5597.00,1.24
5596.00,1.24
5595.00,1.24
5594.00,1.24
5593.00,1.24
5592.00,1.25
5591.00,1.25
5590.00,1.25
5589.00,1.25
5588.00,1.25
5587.00,1.25
5586.00,1.26
5585.00,1.26
5584.00,1.26
5583.00,1.26
5582.00,1.26
5581.00,1.26
5580.00,1.26
5579.00,1.26
5578.00,1.27
5577.00,1.27
5576.00,1.27
5575.00,1.27
5574.00,1.27
5573.00,1.27
5572.00,1.27
5571.00,1.27
5570.00,1.28
5569.00,1.28
5568.00,1.28
5567.00,1.28
5566.00,1.28
5565.00,1.28
5564.00,1.28
5563.00,1.28
5562.00,1.29
5561.00,1.29
5560.00,1.29
5559.00,1.29
5558.00,1.29
5557.00,1.29
5556.00,1.29
5555.00,1.29
5554.00,1.29
5553.00,1.29
5552.00,1.29
5551.00,1.29
5550.00,1.29
5549.00,1.30
5548.00,1.30
5547.00,1.30
5546.00,1.30
5545.00,1.30
5544.00,1.30
5543.00,1.30
5542.00,1.30
5541.00,1.31
5540.00,1.31
5539.00,1.31
5538.00,1.31
5537.00,1.31
5536.00,1.31
5535.00,1.31
5534.00,1.31
5533.00,1.31
5532.00,1.32
5531.00,1.32
5530.00,1.32
5529.00,1.32
5528.00,1.32
5527.00,1.32
5526.00,1.32
5525.00,1.32
5524.00,1.32
5523.00,1.32
5522.00,1.32
5521.00,1.32
5520.00,1.32
5519.00,1.33
5518.00,1.33
5517.00,1.33
5516.00,1.33
5515.00,1.33
5514.00,1.33
5513.00,1.33
5512.00,1.33
5511.00,1.33
5510.00,1.33
5509.00,1.33
5508.00,1.33
5507.00,1.33
5506.00,1.33
5505.00,1.33
5504.00,1.33
5503.00,1.33
5502.00,1.34
5501.00,1.34
5500.00,1.34
5499.00,1.34
5498.00,1.34
5497.00,1.34
5496.00,1.34
5495.00,1.34
5494.00,1.34
5493.00,1.34
5492.00,1.34
5491.00,1.34
5490.00,1.34
5489.00,1.34
5488.00,1.34
5487.00,1.34
5486.00,1.34
5485.00,1.35
5484.00,1.35
5483.00,1.35
5482.00,1.35
5481.00,1.35
5480.00,1.35
5479.00,1.35
5478.00,1.35
5477.00,1.36
5476.00,1.36
5475.00,1.36
5474.00,1.36
5473.00,1.36
5472.00,1.36
5471.00,1.36
5470.00,1.36
5469.00,1.37
5468.00,1.37
5467.00,1.37
5466.00,1.37
5465.00,1.37
5464.00,1.37
5463.00,1.37
5462.00,1.37
5461.00,1.37
5460.00,1.37
5459.00,1.37
5458.00,1.38
5457.00,1.38
5456.00,1.38
5455.00,1.38
5454.00,1.38
5453.00,1.38
5452.00,1.38
5451.00,1.38
5450.00,1.38
5449.00,1.38
5448.00,1.38
5447.00,1.38
5446.00,1.38
5445.00,1.38
5444.00,1.38
5443.00,1.39
5442.00,1.39
5441.00,1.39
5440.00,1.39
5439.00,1.39
5438.00,1.39
5437.00,1.39
5436.00,1.39
5435.00,1.39
5434.00,1.39
5433.00,1.38
5432.00,1.38
5431.00,1.38
5430.00,1.38
5429.00,1.38
5428.00,1.38
5427.00,1.38
5426.00,1.38
5425.00,1.38
5424.00,1.38
5423.00,1.38
5422.00,1.38
5421.00,1.38
5420.00,1.38
5419.00,1.38
5418.00,1.38
5417.00,1.38
5416.00,1.38
5415.00,1.38
5414.00,1.38
5413.00,1.39
5412.00,1.39
5411.00,1.39
5410.00,1.39
5409.00,1.39
5408.00,1.39
5407.00,1.39
5406.00,1.39
5405.00,1.39
5404.00,1.39
5403.00,1.38
5402.00,1.38
5401.00,1.38
5400.00,1.38
5399.00,1.38
5398.00,1.38
5397.00,1.38
5396.00,1.38
5395.00,1.38
5394.00,1.37
5393.00,1.37
5392.00,1.37
5391.00,1.37
5390.00,1.37
5389.00,1.37
5388.00,1.36
5387.00,1.36
5386.00,1.36
5385.00,1.36
5384.00,1.36
5383.00,1.36
5382.00,1.35
5381.00,1.35
5380.00,1.35
5379.00,1.35
5378.00,1.34
5377.00,1.34
5376.00,1.34
5375.00,1.34
5374.00,1.33
5373.00,1.33
5372.00,1.33
5371.00,1.32
5370.00,1.32
5369.00,1.32
5368.00,1.31
5367.00,1.31
5366.00,1.30
5365.00,1.30
5364.00,1.30
5363.00,1.29
5362.00,1.29
5361.00,1.28
5360.00,1.28
5359.00,1.27
5358.00,1.26
5357.00,1.26
5356.00,1.25
5355.00,1.25
5354.00,1.24
5353.00,1.23
5352.00,1.22
5351.00,1.22
5350.00,1.21
5349.00,1.20
5348.00,1.19
5347.00,1.18
5346.00,1.18
5345.00,1.17
5344.00,1.16
5343.00,1.15
5342.00,1.14
5341.00,1.13
5340.00,1.12
5339.00,1.11
5338.00,1.10
5337.00,1.09
5336.00,1.08
5335.00,1.07
5334.00,1.06
5333.00,1.05
5332.00,1.04
5331.00,1.03
5330.00,1.02
5329.00,1.01
5328.00,1.00
5327.00,0.99
5326.00,0.98
5325.00,0.98
5324.00,0.97
5323.00,0.96
5322.00,0.95
5321.00,0.94
5320.00,0.93
5319.00,0.92
5318.00,0.91
5317.00,0.90
5316.00,0.89
5315.00,0.89
5314.00,0.88
5313.00,0.87
5312.00,0.86
5311.00,0.85
5310.00,0.84
5309.00,0.84
5308.00,0.83
5307.00,0.82
5306.00,0.81
5305.00,0.81
5304.00,0.80
5303.00,0.79
5302.00,0.79
5301.00,0.78
5300.00,0.78
5299.00,0.77
5298.00,0.77
5297.00,0.76
5296.00,0.76
5295.00,0.75
5294.00,0.75
5293.00,0.75
5292.00,0.74
5291.00,0.74
5290.00,0.74
5289.00,0.73
5288.00,0.73
5287.00,0.73
5286.00,0.73
5285.00,0.72
5284.00,0.72
5283.00,0.72
5282.00,0.72
5281.00,0.71
5280.00,0.71
5279.00,0.71
5278.00,0.71
5277.00,0.71
5276.00,0.70
5275.00,0.70
5274.00,0.70
5273.00,0.70
5272.00,0.70
5271.00,0.70
5270.00,0.70
5269.00,0.70
5268.00,0.70
5267.00,0.70
5266.00,0.70
5265.00,0.70
5264.00,0.70
5263.00,0.70
5262.00,0.70
5261.00,0.70
5260.00,0.70
5259.00,0.70
5258.00,0.70
5257.00,0.70
5256.00,0.70
5255.00,0.70
5254.00,0.70
5253.00,0.70
5252.00,0.70
5251.00,0.70
5250.00,0.70
5249.00,0.70
5248.00,0.70
5247.00,0.70
5246.00,0.70
5245.00,0.70
5244.00,0.70
5243.00,0.69
5242.00,0.69
5241.00,0.69
5240.00,0.69
5239.00,0.69
5238.00,0.69
5237.00,0.69
5236.00,0.69
5235.00,0.69
5234.00,0.69
5233.00,0.69
5232.00,0.69
5231.00,0.70
5230.00,0.70
5229.00,0.70
5228.00,0.70
5227.00,0.70
5226.00,0.70
5225.00,0.70
5224.00,0.70
5223.00,0.70
5222.00,0.70
5221.00,0.70
5220.00,0.70
5219.00,0.70
5218.00,0.70
5217.00,0.70
5216.00,0.70
5215.00,0.70
5214.00,0.70
5213.00,0.70
5212.00,0.70
5211.00,0.70
5210.00,0.70
5209.00,0.70
5208.00,0.70
5207.00,0.70
5206.00,0.70
5205.00,0.70
5204.00,0.70
5203.00,0.70
5202.00,0.70
5201.00,0.70
5200.00,0.70
5199.00,0.70
5198.00,0.70
5197.00,0.71
5196.00,0.71
5195.00,0.71
5194.00,0.71
5193.00,0.71
5192.00,0.71
5191.00,0.71
5190.00,0.71
5189.00,0.71
5188.00,0.71
5187.00,0.71
5186.00,0.71
5185.00,0.71
5184.00,0.71
5183.00,0.71
5182.00,0.71
5181.00,0.71
5180.00,0.71
5179.00,0.71
5178.00,0.71
5177.00,0.71
5176.00,0.71
5175.00,0.71
5174.00,0.72
5173.00,0.72
5172.00,0.72
5171.00,0.72
5170.00,0.72
5169.00,0.72
5168.00,0.72
5167.00,0.72
5166.00,0.72
5165.00,0.72
5164.00,0.72
5163.00,0.72
5162.00,0.72
5161.00,0.72
5160.00,0.72
5159.00,0.72
5158.00,0.73
5157.00,0.73
5156.00,0.73
5155.00,0.73
5154.00,0.73
5153.00,0.73
5152.00,0.73
5151.00,0.73
5150.00,0.73
5149.00,0.73
5148.00,0.73
5147.00,0.73
5146.00,0.73
5145.00,0.73
5144.00,0.73
5143.00,0.73
5142.00,0.73
5141.00,0.73
5140.00,0.73
5139.00,0.74
5138.00,0.74
5137.00,0.74
5136.00,0.74
5135.00,0.74
5134.00,0.74
5133.00,0.74
5132.00,0.74
5131.00,0.74
5130.00,0.74
5129.00,0.74
5128.00,0.74
5127.00,0.74
5126.00,0.74
5125.00,0.74
5124.00,0.74
5123.00,0.74
5122.00,0.74
5121.00,0.74
5120.00,0.74
5119.00,0.74
5118.00,0.74
5117.00,0.74
5116.00,0.74
5115.00,0.74
5114.00,0.74
5113.00,0.75
5112.00,0.75
5111.00,0.75
5110.00,0.75
5109.00,0.75
5108.00,0.75
5107.00,0.75
5106.00,0.75
5105.00,0.75
5104.00,0.74
5103.00,0.74
5102.00,0.74
5101.00,0.74
5100.00,0.74
5099.00,0.74
5098.00,0.74
5097.00,0.74
5096.00,0.74
5095.00,0.74
5094.00,0.74
5093.00,0.74
5092.00,0.75
5091.00,0.75
5090.00,0.75
5089.00,0.75
5088.00,0.75
5087.00,0.75
5086.00,0.75
5085.00,0.75
5084.00,0.75
5083.00,0.75
5082.00,0.76
5081.00,0.76
5080.00,0.76
5079.00,0.76
5078.00,0.76
5077.00,0.76
5076.00,0.76
5075.00,0.76
5074.00,0.76
5073.00,0.76
5072.00,0.77
5071.00,0.77
5070.00,0.77
5069.00,0.77
5068.00,0.77
5067.00,0.77
5066.00,0.77
5065.00,0.77
5064.00,0.77
5063.00,0.77
5062.00,0.77
5061.00,0.77
5060.00,0.77
5059.00,0.77
5058.00,0.77
5057.00,0.77
5056.00,0.77
5055.00,0.78
5054.00,0.78
5053.00,0.78
5052.00,0.78
5051.00,0.78
5050.00,0.78
5049.00,0.78
5048.00,0.78
5047.00,0.78
5046.00,0.78
5045.00,0.79
5044.00,0.79
5043.00,0.79
5042.00,0.79
5041.00,0.79
5040.00,0.79
5039.00,0.79
5038.00,0.79
5037.00,0.79
5036.00,0.79
5035.00,0.79
5034.00,0.79
5033.00,0.79
5032.00,0.79
5031.00,0.79
5030.00,0.79
5029.00,0.79
5028.00,0.79
5027.00,0.79
5026.00,0.80
5025.00,0.80
5024.00,0.80
5023.00,0.80
5022.00,0.80
5021.00,0.80
5020.00,0.80
5019.00,0.80
5018.00,0.80
5017.00,0.80
5016.00,0.80
5015.00,0.80
5014.00,0.80
5013.00,0.80
5012.00,0.80
5011.00,0.80
5010.00,0.80
5009.00,0.80
5008.00,0.80
5007.00,0.81
5006.00,0.81
5005.00,0.81
5004.00,0.81
5003.00,0.81
5002.00,0.81
5001.00,0.81
5000.00,0.81
4999.00,0.81
4998.00,0.81
4997.00,0.82
4996.00,0.82
4995.00,0.82
4994.00,0.82
4993.00,0.82
4992.00,0.82
4991.00,0.82
4990.00,0.82
4989.00,0.82
4988.00,0.82
4987.00,0.83
4986.00,0.83
4985.00,0.83
4984.00,0.83
4983.00,0.83
4982.00,0.83
4981.00,0.83
4980.00,0.83
4979.00,0.83
4978.00,0.83
4977.00,0.83
4976.00,0.84
4975.00,0.84
4974.00,0.84
4973.00,0.84
4972.00,0.84
4971.00,0.84
4970.00,0.84
4969.00,0.84
4968.00,0.84
4967.00,0.84
4966.00,0.84
4965.00,0.84
4964.00,0.84
4963.00,0.84
4962.00,0.84
4961.00,0.84
4960.00,0.84
4959.00,0.84
4958.00,0.84
4957.00,0.84
4956.00,0.84
4955.00,0.84
4954.00,0.84
4953.00,0.84
4952.00,0.84
4951.00,0.85
4950.00,0.85
4949.00,0.85
4948.00,0.85
4947.00,0.85
4946.00,0.85
4945.00,0.85
4944.00,0.85
4943.00,0.86
4942.00,0.86
4941.00,0.86
4940.00,0.86
4939.00,0.86
4938.00,0.86
4937.00,0.86
4936.00,0.87
4935.00,0.87
4934.00,0.87
4933.00,0.87
4932.00,0.87
4931.00,0.88
4930.00,0.88
4929.00,0.88
4928.00,0.88
4927.00,0.88
4926.00,0.88
4925.00,0.88
4924.00,0.89
4923.00,0.89
4922.00,0.89
4921.00,0.89
4920.00,0.89
4919.00,0.89
4918.00,0.89
4917.00,0.89
4916.00,0.89
4915.00,0.89
4914.00,0.89
4913.00,0.89
4912.00,0.89
4911.00,0.89
4910.00,0.89
4909.00,0.89
4908.00,0.89
4907.00,0.89
4906.00,0.89
4905.00,0.89
4904.00,0.89
4903.00,0.89
4902.00,0.89
4901.00,0.89
4900.00,0.89
4899.00,0.89
4898.00,0.89
4897.00,0.89
4896.00,0.89
4895.00,0.89
4894.00,0.89
4893.00,0.89
4892.00,0.89
4891.00,0.89
4890.00,0.89
4889.00,0.89
4888.00,0.90
4887.00,0.90
4886.00,0.90
4885.00,0.90
4884.00,0.90
4883.00,0.90
4882.00,0.90
4881.00,0.90
4880.00,0.90
4879.00,0.90
4878.00,0.90
4877.00,0.90
4876.00,0.90
4875.00,0.91
4874.00,0.91
4873.00,0.91
4872.00,0.91
4871.00,0.91
4870.00,0.91
4869.00,0.91
4868.00,0.91
4867.00,0.91
4866.00,0.91
4865.00,0.91
4864.00,0.91
4863.00,0.91
4862.00,0.91
4861.00,0.91
4860.00,0.91
4859.00,0.91
4858.00,0.91
4857.00,0.91
4856.00,0.92
4855.00,0.92
4854.00,0.92
4853.00,0.92
4852.00,0.92
4851.00,0.92
4850.00,0.92
4849.00,0.92
4848.00,0.92
4847.00,0.92
4846.00,0.92
4845.00,0.92
4844.00,0.92
4843.00,0.92
4842.00,0.93
4841.00,0.93
4840.00,0.93
4839.00,0.93
4838.00,0.93
4837.00,0.93
4836.00,0.93
4835.00,0.93
4834.00,0.93
4833.00,0.93
4832.00,0.93
4831.00,0.94
4830.00,0.94
4829.00,0.94
4828.00,0.94
4827.00,0.94
4826.00,0.94
4825.00,0.94
4824.00,0.94
4823.00,0.94
4822.00,0.94
4821.00,0.94
4820.00,0.94
4819.00,0.94
4818.00,0.94
4817.00,0.94
4816.00,0.94
4815.00,0.94
4814.00,0.94
4813.00,0.95
4812.00,0.95
4811.00,0.95
4810.00,0.95
4809.00,0.95
4808.00,0.95
4807.00,0.95
4806.00,0.95
4805.00,0.96
4804.00,0.96
4803.00,0.96
4802.00,0.96
4801.00,0.96
4800.00,0.96
4799.00,0.96
4798.00,0.96
4797.00,0.96
4796.00,0.97
4795.00,0.97
4794.00,0.97
4793.00,0.97
4792.00,0.97
4791.00,0.97
4790.00,0.97
4789.00,0.97
4788.00,0.98
4787.00,0.98
4786.00,0.98
4785.00,0.98
4784.00,0.98
4783.00,0.98
4782.00,0.98
4781.00,0.98
4780.00,0.98
4779.00,0.98
4778.00,0.98
4777.00,0.98
4776.00,0.98
4775.00,0.98
4774.00,0.98
4773.00,0.98
4772.00,0.99
4771.00,0.99
4770.00,0.99
4769.00,0.99
4768.00,0.99
4767.00,0.99
4766.00,0.99
4765.00,0.99
4764.00,0.99
4763.00,1.00
4762.00,1.00
4761.00,1.00
4760.00,1.00
4759.00,1.00
4758.00,1.01
4757.00,1.01
4756.00,1.01
4755.00,1.01
4754.00,1.01
4753.00,1.02
4752.00,1.02
4751.00,1.02
4750.00,1.02
4749.00,1.02
4748.00,1.02
4747.00,1.03
4746.00,1.03
4745.00,1.03
4744.00,1.03
4743.00,1.03
4742.00,1.03
4741.00,1.03
4740.00,1.04
4739.00,1.04
4738.00,1.04
4737.00,1.04
4736.00,1.04
4735.00,1.05
4734.00,1.05
4733.00,1.05
4732.00,1.05
4731.00,1.05
4730.00,1.05
4729.00,1.06
4728.00,1.06
4727.00,1.06
4726.00,1.06
4725.00,1.06
4724.00,1.06
4723.00,1.07
4722.00,1.07
4721.00,1.07
4720.00,1.07
4719.00,1.07
4718.00,1.07
4717.00,1.08
4716.00,1.08
4715.00,1.08
4714.00,1.08
4713.00,1.08
4712.00,1.09
4711.00,1.09
4710.00,1.09
4709.00,1.09
4708.00,1.09
4707.00,1.10
4706.00,1.10
4705.00,1.10
4704.00,1.10
4703.00,1.10
4702.00,1.10
4701.00,1.10
4700.00,1.10
4699.00,1.10
4698.00,1.11
4697.00,1.11
4696.00,1.11
4695.00,1.11
4694.00,1.11
4693.00,1.11
4692.00,1.11
4691.00,1.11
4690.00,1.11
4689.00,1.12
4688.00,1.12
4687.00,1.12
4686.00,1.12
4685.00,1.12
4684.00,1.13
4683.00,1.13
4682.00,1.13
4681.00,1.13
4680.00,1.13
4679.00,1.13
4678.00,1.13
4677.00,1.14
4676.00,1.14
4675.00,1.14
4674.00,1.14
4673.00,1.14
4672.00,1.14
4671.00,1.14
4670.00,1.14
4669.00,1.15
4668.00,1.15
4667.00,1.15
4666.00,1.15
4665.00,1.15
4664.00,1.15
4663.00,1.15
4662.00,1.15
4661.00,1.16
4660.00,1.16
4659.00,1.16
4658.00,1.16
4657.00,1.16
4656.00,1.16
4655.00,1.16
4654.00,1.17
4653.00,1.17
4652.00,1.17
4651.00,1.17
4650.00,1.17
4649.00,1.17
4648.00,1.17
4647.00,1.18
4646.00,1.18
4645.00,1.18
4644.00,1.18
4643.00,1.18
4642.00,1.19
4641.00,1.19
4640.00,1.19
4639.00,1.19
4638.00,1.19
4637.00,1.19
4636.00,1.20
4635.00,1.20
4634.00,1.20
4633.00,1.20
4632.00,1.20
4631.00,1.20
4630.00,1.20
4629.00,1.20
4628.00,1.20
4627.00,1.20
4626.00,1.21
4625.00,1.21
4624.00,1.21
4623.00,1.21
4622.00,1.21
4621.00,1.21
4620.00,1.21
4619.00,1.21
4618.00,1.21
4617.00,1.22
4616.00,1.22
4615.00,1.22
4614.00,1.22
4613.00,1.22
4612.00,1.22
4611.00,1.22
4610.00,1.22
4609.00,1.22
4608.00,1.23
4607.00,1.23
4606.00,1.23
4605.00,1.23
4604.00,1.23
4603.00,1.23
4602.00,1.23
4601.00,1.23
4600.00,1.23
4599.00,1.23
4598.00,1.23
4597.00,1.23
4596.00,1.24
4595.00,1.24
4594.00,1.24
4593.00,1.24
4592.00,1.24
4591.00,1.24
4590.00,1.24
4589.00,1.24
4588.00,1.24
4587.00,1.24
4586.00,1.24
4585.00,1.25
4584.00,1.25
4583.00,1.25
4582.00,1.25
4581.00,1.25
4580.00,1.25
4579.00,1.25
4578.00,1.25
4577.00,1.25
4576.00,1.26
4575.00,1.26
4574.00,1.26
4573.00,1.26
4572.00,1.26
4571.00,1.26
4570.00,1.27
4569.00,1.27
4568.00,1.27
4567.00,1.27
4566.00,1.27
4565.00,1.27
4564.00,1.27
4563.00,1.28
4562.00,1.28
4561.00,1.28
4560.00,1.28
4559.00,1.28
4558.00,1.28
4557.00,1.28
4556.00,1.28
4555.00,1.28
4554.00,1.29
4553.00,1.29
4552.00,1.29
4551.00,1.29
4550.00,1.29
4549.00,1.29
4548.00,1.29
4547.00,1.29
4546.00,1.29
4545.00,1.29
4544.00,1.29
4543.00,1.29
4542.00,1.29
4541.00,1.29
4540.00,1.29
4539.00,1.29
4538.00,1.29
4537.00,1.29
4536.00,1.29
4535.00,1.29
4534.00,1.29
4533.00,1.30
4532.00,1.30
4531.00,1.30
4530.00,1.30
4529.00,1.30
4528.00,1.30
4527.00,1.30
4526.00,1.30
4525.00,1.31
4524.00,1.31
4523.00,1.31
4522.00,1.31
4521.00,1.31
4520.00,1.31
4519.00,1.31
4518.00,1.31
4517.00,1.31
4516.00,1.31
4515.00,1.31
4514.00,1.31
4513.00,1.31
4512.00,1.31
4511.00,1.31
4510.00,1.31
4509.00,1.31
4508.00,1.31
4507.00,1.31
4506.00,1.31
4505.00,1.31
4504.00,1.31
4503.00,1.31
4502.00,1.31
4501.00,1.31
4500.00,1.31
4499.00,1.31
4498.00,1.31
4497.00,1.31
4496.00,1.31
4495.00,1.31
4494.00,1.30
4493.00,1.30
4492.00,1.30
4491.00,1.30
4490.00,1.30
4489.00,1.29
4488.00,1.29
4487.00,1.29
4486.00,1.29
4485.00,1.29
4484.00,1.28
4483.00,1.28
4482.00,1.28
4481.00,1.28
4480.00,1.28
4479.00,1.28
4478.00,1.27
4477.00,1.27
4476.00,1.27
4475.00,1.27
4474.00,1.27
4473.00,1.26
4472.00,1.26
4471.00,1.26
4470.00,1.26
4469.00,1.25
4468.00,1.25
4467.00,1.25
4466.00,1.24
4465.00,1.24
4464.00,1.24
4463.00,1.23
4462.00,1.23
4461.00,1.23
4460.00,1.22
4459.00,1.22
4458.00,1.22
4457.00,1.21
4456.00,1.21
4455.00,1.21
4454.00,1.20
4453.00,1.20
4452.00,1.20
4451.00,1.19
4450.00,1.19
4449.00,1.18
4448.00,1.18
4447.00,1.18
4446.00,1.17
4445.00,1.17
4444.00,1.17
4443.00,1.16
4442.00,1.16
4441.00,1.15
4440.00,1.15
4439.00,1.15
4438.00,1.14
4437.00,1.14
4436.00,1.13
4435.00,1.13
4434.00,1.13
4433.00,1.12
4432.00,1.12
4431.00,1.12
4430.00,1.12
4429.00,1.11
4428.00,1.11
4427.00,1.11
4426.00,1.11
4425.00,1.10
4424.00,1.10
4423.00,1.10
4422.00,1.10
4421.00,1.10
4420.00,1.10
4419.00,1.09
4418.00,1.09
4417.00,1.09
4416.00,1.09
4415.00,1.09
4414.00,1.09
4413.00,1.09
4412.00,1.09
4411.00,1.09
4410.00,1.09
4409.00,1.09
4408.00,1.09
4407.00,1.09
4406.00,1.09
4405.00,1.10
4404.00,1.10
4403.00,1.10
4402.00,1.10
4401.00,1.10
4400.00,1.10
4399.00,1.10
4398.00,1.10
4397.00,1.10
4396.00,1.10
4395.00,1.10
4394.00,1.10
4393.00,1.10
4392.00,1.11
4391.00,1.11
4390.00,1.11
4389.00,1.11
4388.00,1.11
4387.00,1.11
4386.00,1.11
4385.00,1.11
4384.00,1.11
4383.00,1.11
4382.00,1.11
4381.00,1.11
4380.00,1.11
4379.00,1.12
4378.00,1.12
4377.00,1.12
4376.00,1.12
4375.00,1.12
4374.00,1.12
4373.00,1.12
4372.00,1.12
4371.00,1.12
4370.00,1.12
4369.00,1.12
4368.00,1.12
4367.00,1.12
4366.00,1.12
4365.00,1.12
4364.00,1.12
4363.00,1.12
4362.00,1.12
4361.00,1.12
4360.00,1.12
4359.00,1.12
4358.00,1.12
4357.00,1.12
4356.00,1.12
4355.00,1.12
4354.00,1.12
4353.00,1.12
4352.00,1.12
4351.00,1.12
4350.00,1.12
4349.00,1.12
4348.00,1.12
4347.00,1.12
4346.00,1.12
4345.00,1.12
4344.00,1.12
4343.00,1.13
4342.00,1.13
4341.00,1.13
4340.00,1.13
4339.00,1.13
4338.00,1.13
4337.00,1.13
4336.00,1.13
4335.00,1.13
4334.00,1.13
4333.00,1.13
4332.00,1.13
4331.00,1.14
4330.00,1.14
4329.00,1.14
4328.00,1.14
4327.00,1.14
4326.00,1.14
4325.00,1.15
4324.00,1.15
4323.00,1.15
4322.00,1.15
4321.00,1.15
4320.00,1.15
4319.00,1.16
4318.00,1.16
4317.00,1.16
4316.00,1.16
4315.00,1.16
4314.00,1.16
4313.00,1.17
4312.00,1.17
4311.00,1.17
4310.00,1.17
4309.00,1.17
4308.00,1.18
4307.00,1.18
4306.00,1.18
4305.00,1.18
4304.00,1.18
4303.00,1.19
4302.00,1.19
4301.00,1.19
4300.00,1.19
4299.00,1.20
4298.00,1.20
4297.00,1.20
4296.00,1.20
4295.00,1.20
4294.00,1.21
4293.00,1.21
4292.00,1.21
4291.00,1.21
4290.00,1.21
4289.00,1.21
4288.00,1.21
4287.00,1.21
4286.00,1.21
4285.00,1.20
4284.00,1.20
4283.00,1.20
4282.00,1.20
4281.00,1.20
4280.00,1.20
4279.00,1.20
4278.00,1.20
4277.00,1.20
4276.00,1.20
4275.00,1.20
4274.00,1.20
4273.00,1.20
4272.00,1.20
4271.00,1.20
4270.00,1.20
4269.00,1.20
4268.00,1.20
4267.00,1.19
4266.00,1.19
4265.00,1.19
4264.00,1.19
4263.00,1.19
4262.00,1.19
4261.00,1.19
4260.00,1.19
4259.00,1.19
4258.00,1.19
4257.00,1.19
4256.00,1.19
4255.00,1.20
4254.00,1.20
4253.00,1.20
4252.00,1.20
4251.00,1.20
4250.00,1.20
4249.00,1.21
4248.00,1.21
4247.00,1.21
4246.00,1.21
4245.00,1.21
4244.00,1.21
4243.00,1.21
4242.00,1.22
4241.00,1.22
4240.00,1.22
4239.00,1.22
4238.00,1.22
4237.00,1.22
4236.00,1.22
4235.00,1.22
4234.00,1.22
4233.00,1.22
4232.00,1.22
4231.00,1.22
4230.00,1.22
4229.00,1.23
4228.00,1.23
4227.00,1.23
4226.00,1.23
4225.00,1.23
4224.00,1.23
4223.00,1.23
4222.00,1.24
4221.00,1.24
4220.00,1.24
4219.00,1.24
4218.00,1.25
4217.00,1.25
4216.00,1.25
4215.00,1.25
4214.00,1.26
4213.00,1.26
4212.00,1.26
4211.00,1.26
4210.00,1.26
4209.00,1.26
4208.00,1.26
4207.00,1.26
4206.00,1.27
4205.00,1.27
4204.00,1.27
4203.00,1.27
4202.00,1.27
4201.00,1.27
4200.00,1.27
4199.00,1.27
4198.00,1.27
4197.00,1.27
4196.00,1.27
4195.00,1.27
4194.00,1.27
4193.00,1.27
4192.00,1.27
4191.00,1.27
4190.00,1.27
4189.00,1.27
4188.00,1.27
4187.00,1.27
4186.00,1.27
4185.00,1.27
4184.00,1.27
4183.00,1.27
4182.00,1.27
4181.00,1.27
4180.00,1.27
4179.00,1.26
4178.00,1.26
4177.00,1.26
4176.00,1.26
4175.00,1.26
4174.00,1.26
4173.00,1.27
4172.00,1.27
4171.00,1.27
4170.00,1.27
4169.00,1.27
4168.00,1.27
4167.00,1.27
4166.00,1.27
4165.00,1.27
4164.00,1.27
4163.00,1.27
4162.00,1.27
4161.00,1.27
4160.00,1.27
4159.00,1.27
4158.00,1.27
4157.00,1.26
4156.00,1.26
4155.00,1.26
4154.00,1.26
4153.00,1.26
4152.00,1.26
4151.00,1.26
4150.00,1.26
4149.00,1.26
4148.00,1.27
4147.00,1.27
4146.00,1.27
4145.00,1.27
4144.00,1.27
4143.00,1.27
4142.00,1.27
4141.00,1.27
4140.00,1.27
4139.00,1.27
4138.00,1.27
4137.00,1.27
4136.00,1.27
4135.00,1.27
4134.00,1.27
4133.00,1.27
4132.00,1.27
4131.00,1.27
4130.00,1.28
4129.00,1.28
4128.00,1.28
4127.00,1.28
4126.00,1.28
4125.00,1.28
4124.00,1.28
4123.00,1.28
4122.00,1.29
4121.00,1.29
4120.00,1.29
4119.00,1.29
4118.00,1.29
4117.00,1.29
4116.00,1.30
4115.00,1.30
4114.00,1.30
4113.00,1.30
4112.00,1.30
4111.00,1.30
4110.00,1.30
4109.00,1.30
4108.00,1.30
4107.00,1.30
4106.00,1.30
4105.00,1.30
4104.00,1.30
4103.00,1.30
4102.00,1.30
4101.00,1.30
4100.00,1.30
4099.00,1.30
4098.00,1.30
4097.00,1.30
4096.00,1.30
4095.00,1.29
4094.00,1.29
4093.00,1.29
4092.00,1.29
4091.00,1.29
4090.00,1.29
4089.00,1.29
4088.00,1.29
4087.00,1.29
4086.00,1.29
4085.00,1.29
4084.00,1.29
4083.00,1.29
4082.00,1.29
4081.00,1.29
4080.00,1.29
4079.00,1.29
4078.00,1.29
4077.00,1.29
4076.00,1.29
4075.00,1.29
4074.00,1.29
4073.00,1.29
4072.00,1.29
4071.00,1.29
4070.00,1.29
4069.00,1.29
4068.00,1.29
4067.00,1.30
4066.00,1.30
4065.00,1.30
4064.00,1.30
4063.00,1.30
4062.00,1.30
4061.00,1.30
4060.00,1.31
4059.00,1.31
4058.00,1.31
4057.00,1.31
4056.00,1.31
4055.00,1.31
4054.00,1.32
4053.00,1.32
4052.00,1.32
4051.00,1.32
4050.00,1.32
4049.00,1.32
4048.00,1.32
4047.00,1.32
4046.00,1.32
4045.00,1.32
4044.00,1.32
4043.00,1.32
4042.00,1.32
4041.00,1.32
4040.00,1.32
4039.00,1.32
4038.00,1.32
4037.00,1.32
4036.00,1.33
4035.00,1.33
4034.00,1.33
4033.00,1.33
4032.00,1.33
4031.00,1.33
4030.00,1.33
4029.00,1.34
4028.00,1.34
4027.00,1.34
4026.00,1.34
4025.00,1.35
4024.00,1.35
4023.00,1.35
4022.00,1.36
4021.00,1.36
4020.00,1.36
4019.00,1.37
4018.00,1.37
4017.00,1.37
4016.00,1.37
4015.00,1.37
4014.00,1.37
4013.00,1.37
4012.00,1.38
4011.00,1.38
4010.00,1.38
4009.00,1.38
4008.00,1.38
4007.00,1.38
4006.00,1.38
4005.00,1.38
4004.00,1.38
4003.00,1.38
4002.00,1.38
4001.00,1.39
4000.00,1.39
