创建为新数据集,样品 052 用户 Administrator 日期 星期三, 十一月 01 2017
cm-1,%T
10000.00,1.34
9999.00,1.34
9998.00,1.34
9997.00,1.34
9996.00,1.34
9995.00,1.34
9994.00,1.34
9993.00,1.34
9992.00,1.34
9991.00,1.34
9990.00,1.34
9989.00,1.34
9988.00,1.34
9987.00,1.34
9986.00,1.34
9985.00,1.34
9984.00,1.34
9983.00,1.34
9982.00,1.34
9981.00,1.34
9980.00,1.34
9979.00,1.34
9978.00,1.34
9977.00,1.34
9976.00,1.34
9975.00,1.33
9974.00,1.33
9973.00,1.33
9972.00,1.33
9971.00,1.33
9970.00,1.33
9969.00,1.32
9968.00,1.32
9967.00,1.32
9966.00,1.32
9965.00,1.32
9964.00,1.31
9963.00,1.31
9962.00,1.31
9961.00,1.31
9960.00,1.31
9959.00,1.31
9958.00,1.31
9957.00,1.31
9956.00,1.31
9955.00,1.31
9954.00,1.31
9953.00,1.31
9952.00,1.32
9951.00,1.32
9950.00,1.32
9949.00,1.32
9948.00,1.32
9947.00,1.32
9946.00,1.32
9945.00,1.32
9944.00,1.32
9943.00,1.32
9942.00,1.32
9941.00,1.32
9940.00,1.32
9939.00,1.32
9938.00,1.32
9937.00,1.32
9936.00,1.32
9935.00,1.32
9934.00,1.32
9933.00,1.32
9932.00,1.32
9931.00,1.32
9930.00,1.32
9929.00,1.32
9928.00,1.32
9927.00,1.32
9926.00,1.32
9925.00,1.32
9924.00,1.32
9923.00,1.32
9922.00,1.32
9921.00,1.32
9920.00,1.32
9919.00,1.32
9918.00,1.32
9917.00,1.32
9916.00,1.32
9915.00,1.32
9914.00,1.32
9913.00,1.32
9912.00,1.32
9911.00,1.32
9910.00,1.32
9909.00,1.32
9908.00,1.32
9907.00,1.32
9906.00,1.32
9905.00,1.32
9904.00,1.32
9903.00,1.32
9902.00,1.32
9901.00,1.33
9900.00,1.33
9899.00,1.33
9898.00,1.33
9897.00,1.33
9896.00,1.33
9895.00,1.33
9894.00,1.33
9893.00,1.33
9892.00,1.32
9891.00,1.32
9890.00,1.32
9889.00,1.32
9888.00,1.32
9887.00,1.32
9886.00,1.32
9885.00,1.32
9884.00,1.32
9883.00,1.32
9882.00,1.32
9881.00,1.32
9880.00,1.32
9879.00,1.32
9878.00,1.33
9877.00,1.33
9876.00,1.33
9875.00,1.33
9874.00,1.33
9873.00,1.33
9872.00,1.33
9871.00,1.34
9870.00,1.34
9869.00,1.34
9868.00,1.34
9867.00,1.34
9866.00,1.34
9865.00,1.33
9864.00,1.33
9863.00,1.33
9862.00,1.33
9861.00,1.33
9860.00,1.32
9859.00,1.32
9858.00,1.32
9857.00,1.32
9856.00,1.31
9855.00,1.31
9854.00,1.31
9853.00,1.31
9852.00,1.31
9851.00,1.31
9850.00,1.31
9849.00,1.31
9848.00,1.31
9847.00,1.32
9846.00,1.32
9845.00,1.32
9844.00,1.32
9843.00,1.32
9842.00,1.32
9841.00,1.32
9840.00,1.33
9839.00,1.33
9838.00,1.33
9837.00,1.33
9836.00,1.33
9835.00,1.33
9834.00,1.33
9833.00,1.33
9832.00,1.33
9831.00,1.33
9830.00,1.33
9829.00,1.33
9828.00,1.33
9827.00,1.33
9826.00,1.33
9825.00,1.33
9824.00,1.33
9823.00,1.33
9822.00,1.33
9821.00,1.33
9820.00,1.33
9819.00,1.33
9818.00,1.33
9817.00,1.33
9816.00,1.33
9815.00,1.33
9814.00,1.33
9813.00,1.33
9812.00,1.33
9811.00,1.33
9810.00,1.33
9809.00,1.32
9808.00,1.32
9807.00,1.32
9806.00,1.32
9805.00,1.32
9804.00,1.31
9803.00,1.31
9802.00,1.31
9801.00,1.31
9800.00,1.31
9799.00,1.30
9798.00,1.30
9797.00,1.30
9796.00,1.30
9795.00,1.30
9794.00,1.30
9793.00,1.30
9792.00,1.30
9791.00,1.30
9790.00,1.30
9789.00,1.31
9788.00,1.31
9787.00,1.31
9786.00,1.31
9785.00,1.31
9784.00,1.31
9783.00,1.31
9782.00,1.31
9781.00,1.32
9780.00,1.32
9779.00,1.32
9778.00,1.32
9777.00,1.32
9776.00,1.32
9775.00,1.32
9774.00,1.33
9773.00,1.33
9772.00,1.33
9771.00,1.33
9770.00,1.33
9769.00,1.33
9768.00,1.33
9767.00,1.33
9766.00,1.33
9765.00,1.33
9764.00,1.33
9763.00,1.33
9762.00,1.33
9761.00,1.33
9760.00,1.33
9759.00,1.33
9758.00,1.33
9757.00,1.33
9756.00,1.33
9755.00,1.33
9754.00,1.32
9753.00,1.32
9752.00,1.32
9751.00,1.32
9750.00,1.32
9749.00,1.32
9748.00,1.32
9747.00,1.32
9746.00,1.32
9745.00,1.32
9744.00,1.32
9743.00,1.32
9742.00,1.32
9741.00,1.32
9740.00,1.32
9739.00,1.32
9738.00,1.32
9737.00,1.32
9736.00,1.32
9735.00,1.32
9734.00,1.32
9733.00,1.32
9732.00,1.33
9731.00,1.33
9730.00,1.33
9729.00,1.33
9728.00,1.33
9727.00,1.33
9726.00,1.33
9725.00,1.33
9724.00,1.33
9723.00,1.33
9722.00,1.33
9721.00,1.33
9720.00,1.33
9719.00,1.32
9718.00,1.32
9717.00,1.32
9716.00,1.32
9715.00,1.32
9714.00,1.32
9713.00,1.32
9712.00,1.32
9711.00,1.32
9710.00,1.32
9709.00,1.32
9708.00,1.32
9707.00,1.32
9706.00,1.32
9705.00,1.32
9704.00,1.32
9703.00,1.32
9702.00,1.32
9701.00,1.32
9700.00,1.32
9699.00,1.32
9698.00,1.32
9697.00,1.32
9696.00,1.32
9695.00,1.32
9694.00,1.32
9693.00,1.32
9692.00,1.32
9691.00,1.32
9690.00,1.32
9689.00,1.32
9688.00,1.32
9687.00,1.32
9686.00,1.33
9685.00,1.33
9684.00,1.33
9683.00,1.33
9682.00,1.33
9681.00,1.33
9680.00,1.33
9679.00,1.33
9678.00,1.33
9677.00,1.33
9676.00,1.33
9675.00,1.33
9674.00,1.33
9673.00,1.33
9672.00,1.33
9671.00,1.33
9670.00,1.34
9669.00,1.34
9668.00,1.34
9667.00,1.34
9666.00,1.34
9665.00,1.33
9664.00,1.33
9663.00,1.33
9662.00,1.33
9661.00,1.33
9660.00,1.33
9659.00,1.33
9658.00,1.33
9657.00,1.33
9656.00,1.33
9655.00,1.32
9654.00,1.32
9653.00,1.32
9652.00,1.32
9651.00,1.32
9650.00,1.32
9649.00,1.32
9648.00,1.32
9647.00,1.32
9646.00,1.32
9645.00,1.32
9644.00,1.32
9643.00,1.32
9642.00,1.32
9641.00,1.32
9640.00,1.32
9639.00,1.32
9638.00,1.32
9637.00,1.32
9636.00,1.32
9635.00,1.32
9634.00,1.32
9633.00,1.32
9632.00,1.32
9631.00,1.32
9630.00,1.32
9629.00,1.32
9628.00,1.32
9627.00,1.32
9626.00,1.32
9625.00,1.32
9624.00,1.32
9623.00,1.32
9622.00,1.32
9621.00,1.32
9620.00,1.32
9619.00,1.32
9618.00,1.32
9617.00,1.32
9616.00,1.32
9615.00,1.32
9614.00,1.32
9613.00,1.32
9612.00,1.32
9611.00,1.32
9610.00,1.32
9609.00,1.32
9608.00,1.32
9607.00,1.32
9606.00,1.32
9605.00,1.32
9604.00,1.32
9603.00,1.32
9602.00,1.32
9601.00,1.32
9600.00,1.32
9599.00,1.32
9598.00,1.32
9597.00,1.32
9596.00,1.32
9595.00,1.32
9594.00,1.32
9593.00,1.32
9592.00,1.32
9591.00,1.32
9590.00,1.32
9589.00,1.32
9588.00,1.32
9587.00,1.32
9586.00,1.32
9585.00,1.32
9584.00,1.32
9583.00,1.32
9582.00,1.32
9581.00,1.32
9580.00,1.32
9579.00,1.32
9578.00,1.32
9577.00,1.32
9576.00,1.32
9575.00,1.32
9574.00,1.32
9573.00,1.32
9572.00,1.32
9571.00,1.32
9570.00,1.32
9569.00,1.32
9568.00,1.32
9567.00,1.32
9566.00,1.32
9565.00,1.32
9564.00,1.32
9563.00,1.32
9562.00,1.32
9561.00,1.32
9560.00,1.32
9559.00,1.32
9558.00,1.32
9557.00,1.32
9556.00,1.32
9555.00,1.32
9554.00,1.32
9553.00,1.32
9552.00,1.32
9551.00,1.32
9550.00,1.32
9549.00,1.32
9548.00,1.32
9547.00,1.31
9546.00,1.31
9545.00,1.31
9544.00,1.32
9543.00,1.32
9542.00,1.32
9541.00,1.32
9540.00,1.32
9539.00,1.32
9538.00,1.32
9537.00,1.32
9536.00,1.32
9535.00,1.32
9534.00,1.32
9533.00,1.32
9532.00,1.32
9531.00,1.32
9530.00,1.32
9529.00,1.33
9528.00,1.33
9527.00,1.33
9526.00,1.33
9525.00,1.33
9524.00,1.33
9523.00,1.33
9522.00,1.33
9521.00,1.33
9520.00,1.33
9519.00,1.33
9518.00,1.34
9517.00,1.34
9516.00,1.34
9515.00,1.34
9514.00,1.34
9513.00,1.34
9512.00,1.34
9511.00,1.34
9510.00,1.34
9509.00,1.34
9508.00,1.33
9507.00,1.33
9506.00,1.33
9505.00,1.33
9504.00,1.33
9503.00,1.32
9502.00,1.32
9501.00,1.32
9500.00,1.32
9499.00,1.32
9498.00,1.32
9497.00,1.32
9496.00,1.32
9495.00,1.32
9494.00,1.32
9493.00,1.32
9492.00,1.32
9491.00,1.32
9490.00,1.32
9489.00,1.33
9488.00,1.33
9487.00,1.33
9486.00,1.33
9485.00,1.33
9484.00,1.33
9483.00,1.34
9482.00,1.34
9481.00,1.34
9480.00,1.34
9479.00,1.34
9478.00,1.34
9477.00,1.33
9476.00,1.33
9475.00,1.33
9474.00,1.33
9473.00,1.33
9472.00,1.33
9471.00,1.33
9470.00,1.33
9469.00,1.32
9468.00,1.32
9467.00,1.32
9466.00,1.32
9465.00,1.32
9464.00,1.32
9463.00,1.32
9462.00,1.32
9461.00,1.32
9460.00,1.32
9459.00,1.32
9458.00,1.32
9457.00,1.32
9456.00,1.32
9455.00,1.32
9454.00,1.32
9453.00,1.32
9452.00,1.32
9451.00,1.32
9450.00,1.32
9449.00,1.32
9448.00,1.32
9447.00,1.32
9446.00,1.32
9445.00,1.32
9444.00,1.32
9443.00,1.32
9442.00,1.31
9441.00,1.31
9440.00,1.31
9439.00,1.31
9438.00,1.31
9437.00,1.31
9436.00,1.31
9435.00,1.31
9434.00,1.31
9433.00,1.31
9432.00,1.31
9431.00,1.31
9430.00,1.31
9429.00,1.31
9428.00,1.31
9427.00,1.32
9426.00,1.32
9425.00,1.32
9424.00,1.32
9423.00,1.32
9422.00,1.32
9421.00,1.32
9420.00,1.32
9419.00,1.32
9418.00,1.32
9417.00,1.32
9416.00,1.32
9415.00,1.32
9414.00,1.32
9413.00,1.32
9412.00,1.32
9411.00,1.32
9410.00,1.32
9409.00,1.32
9408.00,1.32
9407.00,1.32
9406.00,1.32
9405.00,1.32
9404.00,1.32
9403.00,1.32
9402.00,1.32
9401.00,1.32
9400.00,1.32
9399.00,1.32
9398.00,1.32
9397.00,1.32
9396.00,1.32
9395.00,1.32
9394.00,1.32
9393.00,1.32
9392.00,1.32
9391.00,1.32
9390.00,1.32
9389.00,1.32
9388.00,1.32
9387.00,1.32
9386.00,1.32
9385.00,1.32
9384.00,1.32
9383.00,1.32
9382.00,1.32
9381.00,1.32
9380.00,1.32
9379.00,1.32
9378.00,1.32
9377.00,1.31
9376.00,1.31
9375.00,1.31
9374.00,1.31
9373.00,1.31
9372.00,1.31
9371.00,1.31
9370.00,1.31
9369.00,1.30
9368.00,1.30
9367.00,1.30
9366.00,1.30
9365.00,1.30
9364.00,1.30
9363.00,1.30
9362.00,1.30
9361.00,1.30
9360.00,1.30
9359.00,1.30
9358.00,1.30
9357.00,1.30
9356.00,1.30
9355.00,1.31
9354.00,1.31
9353.00,1.31
9352.00,1.31
9351.00,1.31
9350.00,1.31
9349.00,1.31
9348.00,1.31
9347.00,1.31
9346.00,1.32
9345.00,1.32
9344.00,1.32
9343.00,1.32
9342.00,1.32
9341.00,1.32
9340.00,1.32
9339.00,1.32
9338.00,1.32
9337.00,1.32
9336.00,1.32
9335.00,1.32
9334.00,1.32
9333.00,1.32
9332.00,1.32
9331.00,1.32
9330.00,1.32
9329.00,1.32
9328.00,1.32
9327.00,1.32
9326.00,1.32
9325.00,1.32
9324.00,1.31
9323.00,1.31
9322.00,1.31
9321.00,1.31
9320.00,1.31
9319.00,1.31
9318.00,1.31
9317.00,1.31
9316.00,1.31
9315.00,1.31
9314.00,1.31
9313.00,1.31
9312.00,1.31
9311.00,1.31
9310.00,1.31
9309.00,1.31
9308.00,1.31
9307.00,1.31
9306.00,1.31
9305.00,1.31
9304.00,1.31
9303.00,1.31
9302.00,1.31
9301.00,1.31
9300.00,1.31
9299.00,1.31
9298.00,1.31
9297.00,1.31
9296.00,1.31
9295.00,1.31
9294.00,1.31
9293.00,1.31
9292.00,1.31
9291.00,1.31
9290.00,1.31
9289.00,1.31
9288.00,1.32
9287.00,1.32
9286.00,1.32
9285.00,1.32
9284.00,1.32
9283.00,1.33
9282.00,1.33
9281.00,1.33
9280.00,1.33
9279.00,1.33
9278.00,1.33
9277.00,1.33
9276.00,1.33
9275.00,1.33
9274.00,1.33
9273.00,1.33
9272.00,1.33
9271.00,1.33
9270.00,1.33
9269.00,1.33
9268.00,1.32
9267.00,1.32
9266.00,1.32
9265.00,1.32
9264.00,1.32
9263.00,1.31
9262.00,1.31
9261.00,1.31
9260.00,1.31
9259.00,1.31
9258.00,1.31
9257.00,1.31
9256.00,1.31
9255.00,1.31
9254.00,1.31
9253.00,1.31
9252.00,1.31
9251.00,1.31
9250.00,1.31
9249.00,1.31
9248.00,1.31
9247.00,1.31
9246.00,1.31
9245.00,1.31
9244.00,1.31
9243.00,1.31
9242.00,1.31
9241.00,1.31
9240.00,1.31
9239.00,1.31
9238.00,1.31
9237.00,1.31
9236.00,1.31
9235.00,1.31
9234.00,1.31
9233.00,1.31
9232.00,1.31
9231.00,1.31
9230.00,1.31
9229.00,1.31
9228.00,1.31
9227.00,1.31
9226.00,1.31
9225.00,1.31
9224.00,1.31
9223.00,1.31
9222.00,1.31
9221.00,1.31
9220.00,1.31
9219.00,1.31
9218.00,1.31
9217.00,1.31
9216.00,1.31
9215.00,1.31
9214.00,1.31
9213.00,1.31
9212.00,1.31
9211.00,1.31
9210.00,1.31
9209.00,1.31
9208.00,1.31
9207.00,1.31
9206.00,1.31
9205.00,1.31
9204.00,1.31
9203.00,1.31
9202.00,1.31
9201.00,1.31
9200.00,1.32
9199.00,1.32
9198.00,1.32
9197.00,1.32
9196.00,1.32
9195.00,1.32
9194.00,1.32
9193.00,1.32
9192.00,1.32
9191.00,1.32
9190.00,1.32
9189.00,1.32
9188.00,1.32
9187.00,1.32
9186.00,1.32
9185.00,1.32
9184.00,1.31
9183.00,1.31
9182.00,1.31
9181.00,1.31
9180.00,1.31
9179.00,1.31
9178.00,1.31
9177.00,1.31
9176.00,1.31
9175.00,1.31
9174.00,1.32
9173.00,1.32
9172.00,1.32
9171.00,1.32
9170.00,1.32
9169.00,1.32
9168.00,1.32
9167.00,1.33
9166.00,1.33
9165.00,1.33
9164.00,1.33
9163.00,1.33
9162.00,1.33
9161.00,1.34
9160.00,1.34
9159.00,1.34
9158.00,1.34
9157.00,1.34
9156.00,1.34
9155.00,1.34
9154.00,1.34
9153.00,1.34
9152.00,1.34
9151.00,1.34
9150.00,1.33
9149.00,1.33
9148.00,1.33
9147.00,1.33
9146.00,1.33
9145.00,1.33
9144.00,1.33
9143.00,1.33
9142.00,1.33
9141.00,1.33
9140.00,1.33
9139.00,1.33
9138.00,1.33
9137.00,1.33
9136.00,1.33
9135.00,1.33
9134.00,1.33
9133.00,1.33
9132.00,1.33
9131.00,1.33
9130.00,1.33
9129.00,1.33
9128.00,1.33
9127.00,1.33
9126.00,1.33
9125.00,1.33
9124.00,1.33
9123.00,1.33
9122.00,1.33
9121.00,1.33
9120.00,1.33
9119.00,1.33
9118.00,1.32
9117.00,1.32
9116.00,1.32
9115.00,1.32
9114.00,1.32
9113.00,1.32
9112.00,1.32
9111.00,1.32
9110.00,1.32
9109.00,1.32
9108.00,1.32
9107.00,1.32
9106.00,1.32
9105.00,1.32
9104.00,1.32
9103.00,1.32
9102.00,1.32
9101.00,1.32
9100.00,1.32
9099.00,1.32
9098.00,1.32
9097.00,1.32
9096.00,1.32
9095.00,1.32
9094.00,1.32
9093.00,1.32
9092.00,1.32
9091.00,1.32
9090.00,1.32
9089.00,1.31
9088.00,1.31
9087.00,1.31
9086.00,1.31
9085.00,1.31
9084.00,1.31
9083.00,1.31
9082.00,1.31
9081.00,1.31
9080.00,1.31
9079.00,1.31
9078.00,1.31
9077.00,1.31
9076.00,1.31
9075.00,1.32
9074.00,1.32
9073.00,1.32
9072.00,1.32
9071.00,1.32
9070.00,1.32
9069.00,1.32
9068.00,1.33
9067.00,1.33
9066.00,1.33
9065.00,1.33
9064.00,1.33
9063.00,1.33
9062.00,1.33
9061.00,1.33
9060.00,1.33
9059.00,1.33
9058.00,1.33
9057.00,1.33
9056.00,1.33
9055.00,1.33
9054.00,1.33
9053.00,1.33
9052.00,1.33
9051.00,1.33
9050.00,1.32
9049.00,1.32
9048.00,1.32
9047.00,1.32
9046.00,1.32
9045.00,1.32
9044.00,1.32
9043.00,1.32
9042.00,1.32
9041.00,1.32
9040.00,1.31
9039.00,1.31
9038.00,1.31
9037.00,1.31
9036.00,1.32
9035.00,1.32
9034.00,1.32
9033.00,1.32
9032.00,1.32
9031.00,1.32
9030.00,1.32
9029.00,1.32
9028.00,1.32
9027.00,1.32
9026.00,1.32
9025.00,1.32
9024.00,1.32
9023.00,1.32
9022.00,1.32
9021.00,1.32
9020.00,1.32
9019.00,1.32
9018.00,1.32
9017.00,1.32
9016.00,1.32
9015.00,1.32
9014.00,1.32
9013.00,1.32
9012.00,1.32
9011.00,1.32
9010.00,1.32
9009.00,1.32
9008.00,1.32
9007.00,1.32
9006.00,1.32
9005.00,1.32
9004.00,1.32
9003.00,1.32
9002.00,1.32
9001.00,1.32
9000.00,1.32
8999.00,1.32
8998.00,1.32
8997.00,1.32
8996.00,1.32
8995.00,1.32
8994.00,1.32
8993.00,1.32
8992.00,1.32
8991.00,1.32
8990.00,1.32
8989.00,1.32
8988.00,1.32
8987.00,1.32
8986.00,1.32
8985.00,1.32
8984.00,1.32
8983.00,1.32
8982.00,1.32
8981.00,1.32
8980.00,1.32
8979.00,1.32
8978.00,1.32
8977.00,1.32
8976.00,1.32
8975.00,1.32
8974.00,1.32
8973.00,1.32
8972.00,1.32
8971.00,1.32
8970.00,1.32
8969.00,1.32
8968.00,1.32
8967.00,1.32
8966.00,1.32
8965.00,1.32
8964.00,1.32
8963.00,1.32
8962.00,1.32
8961.00,1.32
8960.00,1.31
8959.00,1.31
8958.00,1.31
8957.00,1.31
8956.00,1.31
8955.00,1.31
8954.00,1.31
8953.00,1.31
8952.00,1.31
8951.00,1.31
8950.00,1.31
8949.00,1.31
8948.00,1.31
8947.00,1.31
8946.00,1.31
8945.00,1.31
8944.00,1.31
8943.00,1.31
8942.00,1.31
8941.00,1.31
8940.00,1.31
8939.00,1.31
8938.00,1.31
8937.00,1.31
8936.00,1.31
8935.00,1.31
8934.00,1.31
8933.00,1.31
8932.00,1.30
8931.00,1.30
8930.00,1.30
8929.00,1.30
8928.00,1.30
8927.00,1.30
8926.00,1.30
8925.00,1.30
8924.00,1.30
8923.00,1.30
8922.00,1.30
8921.00,1.30
8920.00,1.31
8919.00,1.31
8918.00,1.31
8917.00,1.31
8916.00,1.31
8915.00,1.31
8914.00,1.31
8913.00,1.31
8912.00,1.32
8911.00,1.32
8910.00,1.32
8909.00,1.32
8908.00,1.32
8907.00,1.32
8906.00,1.32
8905.00,1.32
8904.00,1.32
8903.00,1.32
8902.00,1.32
8901.00,1.33
8900.00,1.33
8899.00,1.33
8898.00,1.33
8897.00,1.33
8896.00,1.33
8895.00,1.33
8894.00,1.33
8893.00,1.33
8892.00,1.33
8891.00,1.33
8890.00,1.33
8889.00,1.33
8888.00,1.34
8887.00,1.34
8886.00,1.34
8885.00,1.34
8884.00,1.34
8883.00,1.34
8882.00,1.34
8881.00,1.34
8880.00,1.34
8879.00,1.34
8878.00,1.34
8877.00,1.34
8876.00,1.34
8875.00,1.34
8874.00,1.33
8873.00,1.33
8872.00,1.33
8871.00,1.33
8870.00,1.33
8869.00,1.33
8868.00,1.33
8867.00,1.32
8866.00,1.32
8865.00,1.32
8864.00,1.32
8863.00,1.31
8862.00,1.31
8861.00,1.31
8860.00,1.31
8859.00,1.31
8858.00,1.31
8857.00,1.30
8856.00,1.30
8855.00,1.30
8854.00,1.30
8853.00,1.30
8852.00,1.30
8851.00,1.30
8850.00,1.31
8849.00,1.31
8848.00,1.31
8847.00,1.31
8846.00,1.31
8845.00,1.31
8844.00,1.31
8843.00,1.31
8842.00,1.31
8841.00,1.31
8840.00,1.31
8839.00,1.31
8838.00,1.31
8837.00,1.31
8836.00,1.31
8835.00,1.31
8834.00,1.31
8833.00,1.31
8832.00,1.31
8831.00,1.31
8830.00,1.31
8829.00,1.31
8828.00,1.31
8827.00,1.30
8826.00,1.30
8825.00,1.30
8824.00,1.30
8823.00,1.30
8822.00,1.30
8821.00,1.30
8820.00,1.30
8819.00,1.30
8818.00,1.30
8817.00,1.30
8816.00,1.30
8815.00,1.30
8814.00,1.30
8813.00,1.30
8812.00,1.30
8811.00,1.30
8810.00,1.30
8809.00,1.30
8808.00,1.30
8807.00,1.30
8806.00,1.30
8805.00,1.30
8804.00,1.30
8803.00,1.30
8802.00,1.30
8801.00,1.30
8800.00,1.30
8799.00,1.30
8798.00,1.30
8797.00,1.30
8796.00,1.30
8795.00,1.30
8794.00,1.31
8793.00,1.31
8792.00,1.31
8791.00,1.31
8790.00,1.31
8789.00,1.31
8788.00,1.31
8787.00,1.31
8786.00,1.31
8785.00,1.31
8784.00,1.31
8783.00,1.31
8782.00,1.31
8781.00,1.31
8780.00,1.31
8779.00,1.31
8778.00,1.31
8777.00,1.31
8776.00,1.31
8775.00,1.31
8774.00,1.31
8773.00,1.31
8772.00,1.31
8771.00,1.31
8770.00,1.31
8769.00,1.30
8768.00,1.30
8767.00,1.30
8766.00,1.30
8765.00,1.30
8764.00,1.30
8763.00,1.29
8762.00,1.29
8761.00,1.29
8760.00,1.29
8759.00,1.29
8758.00,1.29
8757.00,1.28
8756.00,1.28
8755.00,1.28
8754.00,1.28
8753.00,1.28
8752.00,1.28
8751.00,1.28
8750.00,1.28
8749.00,1.28
8748.00,1.28
8747.00,1.27
8746.00,1.27
8745.00,1.27
8744.00,1.27
8743.00,1.27
8742.00,1.27
8741.00,1.26
8740.00,1.26
8739.00,1.26
8738.00,1.26
8737.00,1.26
8736.00,1.26
8735.00,1.26
8734.00,1.25
8733.00,1.25
8732.00,1.25
8731.00,1.25
8730.00,1.25
8729.00,1.25
8728.00,1.26
8727.00,1.26
8726.00,1.26
8725.00,1.26
8724.00,1.26
8723.00,1.26
8722.00,1.26
8721.00,1.26
8720.00,1.26
8719.00,1.27
8718.00,1.27
8717.00,1.27
8716.00,1.27
8715.00,1.27
8714.00,1.27
8713.00,1.27
8712.00,1.27
8711.00,1.27
8710.00,1.26
8709.00,1.26
8708.00,1.26
8707.00,1.26
8706.00,1.26
8705.00,1.26
8704.00,1.26
8703.00,1.26
8702.00,1.26
8701.00,1.26
8700.00,1.26
8699.00,1.26
8698.00,1.26
8697.00,1.26
8696.00,1.26
8695.00,1.27
8694.00,1.27
8693.00,1.27
8692.00,1.27
8691.00,1.27
8690.00,1.27
8689.00,1.26
8688.00,1.26
8687.00,1.26
8686.00,1.26
8685.00,1.26
8684.00,1.26
8683.00,1.26
8682.00,1.26
8681.00,1.26
8680.00,1.26
8679.00,1.26
8678.00,1.25
8677.00,1.25
8676.00,1.25
8675.00,1.25
8674.00,1.25
8673.00,1.25
8672.00,1.25
8671.00,1.25
8670.00,1.25
8669.00,1.25
8668.00,1.25
8667.00,1.25
8666.00,1.25
8665.00,1.25
8664.00,1.25
8663.00,1.25
8662.00,1.25
8661.00,1.25
8660.00,1.25
8659.00,1.25
8658.00,1.25
8657.00,1.25
8656.00,1.25
8655.00,1.25
8654.00,1.25
8653.00,1.25
8652.00,1.25
8651.00,1.25
8650.00,1.25
8649.00,1.25
8648.00,1.25
8647.00,1.25
8646.00,1.25
8645.00,1.25
8644.00,1.25
8643.00,1.25
8642.00,1.25
8641.00,1.25
8640.00,1.25
8639.00,1.25
8638.00,1.25
8637.00,1.25
8636.00,1.25
8635.00,1.25
8634.00,1.25
8633.00,1.25
8632.00,1.25
8631.00,1.25
8630.00,1.25
8629.00,1.25
8628.00,1.25
8627.00,1.25
8626.00,1.25
8625.00,1.25
8624.00,1.25
8623.00,1.25
8622.00,1.25
8621.00,1.25
8620.00,1.25
8619.00,1.25
8618.00,1.25
8617.00,1.25
8616.00,1.25
8615.00,1.25
8614.00,1.25
8613.00,1.25
8612.00,1.25
8611.00,1.25
8610.00,1.25
8609.00,1.25
8608.00,1.25
8607.00,1.25
8606.00,1.25
8605.00,1.25
8604.00,1.25
8603.00,1.25
8602.00,1.25
8601.00,1.25
8600.00,1.25
8599.00,1.25
8598.00,1.24
8597.00,1.24
8596.00,1.24
8595.00,1.24
8594.00,1.24
8593.00,1.24
8592.00,1.24
8591.00,1.24
8590.00,1.24
8589.00,1.24
8588.00,1.24
8587.00,1.24
8586.00,1.24
8585.00,1.24
8584.00,1.23
8583.00,1.23
8582.00,1.23
8581.00,1.23
8580.00,1.23
8579.00,1.23
8578.00,1.23
8577.00,1.22
8576.00,1.22
8575.00,1.22
8574.00,1.22
8573.00,1.22
8572.00,1.22
8571.00,1.22
8570.00,1.22
8569.00,1.22
8568.00,1.22
8567.00,1.21
8566.00,1.21
8565.00,1.21
8564.00,1.21
8563.00,1.21
8562.00,1.21
8561.00,1.21
8560.00,1.21
8559.00,1.21
8558.00,1.21
8557.00,1.21
8556.00,1.21
8555.00,1.21
8554.00,1.21
8553.00,1.21
8552.00,1.21
8551.00,1.21
8550.00,1.21
8549.00,1.21
8548.00,1.21
8547.00,1.21
8546.00,1.22
8545.00,1.22
8544.00,1.22
8543.00,1.22
8542.00,1.22
8541.00,1.22
8540.00,1.22
8539.00,1.22
8538.00,1.22
8537.00,1.22
8536.00,1.22
8535.00,1.22
8534.00,1.22
8533.00,1.22
8532.00,1.22
8531.00,1.21
8530.00,1.21
8529.00,1.21
8528.00,1.21
8527.00,1.21
8526.00,1.21
8525.00,1.21
8524.00,1.21
8523.00,1.21
8522.00,1.21
8521.00,1.21
8520.00,1.21
8519.00,1.21
8518.00,1.21
8517.00,1.21
8516.00,1.21
8515.00,1.21
8514.00,1.21
8513.00,1.21
8512.00,1.21
8511.00,1.21
8510.00,1.21
8509.00,1.21
8508.00,1.21
8507.00,1.21
8506.00,1.21
8505.00,1.21
8504.00,1.21
8503.00,1.21
8502.00,1.21
8501.00,1.21
8500.00,1.21
8499.00,1.21
8498.00,1.21
8497.00,1.21
8496.00,1.21
8495.00,1.21
8494.00,1.21
8493.00,1.20
8492.00,1.20
8491.00,1.20
8490.00,1.20
8489.00,1.20
8488.00,1.20
8487.00,1.20
8486.00,1.20
8485.00,1.19
8484.00,1.19
8483.00,1.19
8482.00,1.19
8481.00,1.19
8480.00,1.19
8479.00,1.19
8478.00,1.19
8477.00,1.18
8476.00,1.18
8475.00,1.18
8474.00,1.18
8473.00,1.18
8472.00,1.18
8471.00,1.18
8470.00,1.18
8469.00,1.18
8468.00,1.18
8467.00,1.18
8466.00,1.18
8465.00,1.18
8464.00,1.18
8463.00,1.18
8462.00,1.18
8461.00,1.19
8460.00,1.19
8459.00,1.19
8458.00,1.19
8457.00,1.19
8456.00,1.19
8455.00,1.19
8454.00,1.18
8453.00,1.18
8452.00,1.18
8451.00,1.18
8450.00,1.18
8449.00,1.18
8448.00,1.18
8447.00,1.18
8446.00,1.18
8445.00,1.18
8444.00,1.18
8443.00,1.18
8442.00,1.18
8441.00,1.18
8440.00,1.18
8439.00,1.18
8438.00,1.18
8437.00,1.18
8436.00,1.18
8435.00,1.18
8434.00,1.18
8433.00,1.18
8432.00,1.18
8431.00,1.18
8430.00,1.18
8429.00,1.18
8428.00,1.18
8427.00,1.18
8426.00,1.18
8425.00,1.18
8424.00,1.19
8423.00,1.19
8422.00,1.19
8421.00,1.19
8420.00,1.19
8419.00,1.19
8418.00,1.19
8417.00,1.19
8416.00,1.19
8415.00,1.19
8414.00,1.19
8413.00,1.20
8412.00,1.20
8411.00,1.20
8410.00,1.20
8409.00,1.20
8408.00,1.20
8407.00,1.20
8406.00,1.20
8405.00,1.20
8404.00,1.20
8403.00,1.20
8402.00,1.20
8401.00,1.20
8400.00,1.20
8399.00,1.20
8398.00,1.20
8397.00,1.20
8396.00,1.20
8395.00,1.20
8394.00,1.20
8393.00,1.20
8392.00,1.20
8391.00,1.20
8390.00,1.20
8389.00,1.20
8388.00,1.20
8387.00,1.21
8386.00,1.21
8385.00,1.21
8384.00,1.21
8383.00,1.21
8382.00,1.21
8381.00,1.21
8380.00,1.21
8379.00,1.21
8378.00,1.21
8377.00,1.21
8376.00,1.21
8375.00,1.21
8374.00,1.21
8373.00,1.21
8372.00,1.21
8371.00,1.21
8370.00,1.21
8369.00,1.21
8368.00,1.21
8367.00,1.20
8366.00,1.20
8365.00,1.20
8364.00,1.20
8363.00,1.20
8362.00,1.20
8361.00,1.20
8360.00,1.20
8359.00,1.20
8358.00,1.20
8357.00,1.20
8356.00,1.20
8355.00,1.20
8354.00,1.20
8353.00,1.20
8352.00,1.20
8351.00,1.20
8350.00,1.20
8349.00,1.20
8348.00,1.21
8347.00,1.21
8346.00,1.21
8345.00,1.21
8344.00,1.21
8343.00,1.21
8342.00,1.21
8341.00,1.21
8340.00,1.21
8339.00,1.21
8338.00,1.21
8337.00,1.21
8336.00,1.21
8335.00,1.21
8334.00,1.21
8333.00,1.21
8332.00,1.21
8331.00,1.21
8330.00,1.21
8329.00,1.21
8328.00,1.21
8327.00,1.21
8326.00,1.21
8325.00,1.21
8324.00,1.21
8323.00,1.21
8322.00,1.21
8321.00,1.21
8320.00,1.21
8319.00,1.21
8318.00,1.22
8317.00,1.22
8316.00,1.22
8315.00,1.22
8314.00,1.22
8313.00,1.22
8312.00,1.22
8311.00,1.22
8310.00,1.22
8309.00,1.22
8308.00,1.22
8307.00,1.22
8306.00,1.23
8305.00,1.23
8304.00,1.23
8303.00,1.23
8302.00,1.23
8301.00,1.23
8300.00,1.23
8299.00,1.23
8298.00,1.23
8297.00,1.23
8296.00,1.23
8295.00,1.23
8294.00,1.23
8293.00,1.23
8292.00,1.23
8291.00,1.23
8290.00,1.23
8289.00,1.23
8288.00,1.23
8287.00,1.23
8286.00,1.23
8285.00,1.23
8284.00,1.23
8283.00,1.23
8282.00,1.23
8281.00,1.23
8280.00,1.24
8279.00,1.24
8278.00,1.24
8277.00,1.24
8276.00,1.24
8275.00,1.24
8274.00,1.24
8273.00,1.24
8272.00,1.24
8271.00,1.24
8270.00,1.24
8269.00,1.24
8268.00,1.24
8267.00,1.24
8266.00,1.24
8265.00,1.24
8264.00,1.24
8263.00,1.24
8262.00,1.24
8261.00,1.24
8260.00,1.24
8259.00,1.24
8258.00,1.24
8257.00,1.24
8256.00,1.24
8255.00,1.24
8254.00,1.24
8253.00,1.24
8252.00,1.24
8251.00,1.24
8250.00,1.23
8249.00,1.23
8248.00,1.23
8247.00,1.23
8246.00,1.23
8245.00,1.23
8244.00,1.23
8243.00,1.23
8242.00,1.23
8241.00,1.23
8240.00,1.23
8239.00,1.23
8238.00,1.23
8237.00,1.23
8236.00,1.23
8235.00,1.23
8234.00,1.23
8233.00,1.23
8232.00,1.23
8231.00,1.24
8230.00,1.24
8229.00,1.24
8228.00,1.24
8227.00,1.24
8226.00,1.24
8225.00,1.24
8224.00,1.24
8223.00,1.24
8222.00,1.24
8221.00,1.24
8220.00,1.24
8219.00,1.24
8218.00,1.24
8217.00,1.24
8216.00,1.24
8215.00,1.24
8214.00,1.24
8213.00,1.24
8212.00,1.24
8211.00,1.24
8210.00,1.24
8209.00,1.24
8208.00,1.24
8207.00,1.24
8206.00,1.24
8205.00,1.24
8204.00,1.24
8203.00,1.24
8202.00,1.24
8201.00,1.24
8200.00,1.24
8199.00,1.24
8198.00,1.24
8197.00,1.24
8196.00,1.24
8195.00,1.24
8194.00,1.24
8193.00,1.25
8192.00,1.25
8191.00,1.25
8190.00,1.25
8189.00,1.25
8188.00,1.25
8187.00,1.25
8186.00,1.25
8185.00,1.25
8184.00,1.25
8183.00,1.25
8182.00,1.25
8181.00,1.25
8180.00,1.25
8179.00,1.25
8178.00,1.25
8177.00,1.25
8176.00,1.25
8175.00,1.25
8174.00,1.25
8173.00,1.25
8172.00,1.25
8171.00,1.25
8170.00,1.25
8169.00,1.25
8168.00,1.25
8167.00,1.25
8166.00,1.25
8165.00,1.25
8164.00,1.25
8163.00,1.25
8162.00,1.25
8161.00,1.25
8160.00,1.25
8159.00,1.25
8158.00,1.25
8157.00,1.25
8156.00,1.25
8155.00,1.25
8154.00,1.25
8153.00,1.25
8152.00,1.25
8151.00,1.25
8150.00,1.25
8149.00,1.25
8148.00,1.25
8147.00,1.25
8146.00,1.26
8145.00,1.26
8144.00,1.26
8143.00,1.26
8142.00,1.26
8141.00,1.26
8140.00,1.26
8139.00,1.26
8138.00,1.26
8137.00,1.26
8136.00,1.26
8135.00,1.26
8134.00,1.26
8133.00,1.26
8132.00,1.26
8131.00,1.26
8130.00,1.26
8129.00,1.26
8128.00,1.26
8127.00,1.26
8126.00,1.26
8125.00,1.26
8124.00,1.26
8123.00,1.26
8122.00,1.26
8121.00,1.26
8120.00,1.26
8119.00,1.27
8118.00,1.27
8117.00,1.27
8116.00,1.27
8115.00,1.27
8114.00,1.27
8113.00,1.28
8112.00,1.28
8111.00,1.28
8110.00,1.28
8109.00,1.28
8108.00,1.28
8107.00,1.28
8106.00,1.28
8105.00,1.28
8104.00,1.28
8103.00,1.28
8102.00,1.28
8101.00,1.28
8100.00,1.28
8099.00,1.28
8098.00,1.28
8097.00,1.28
8096.00,1.28
8095.00,1.28
8094.00,1.28
8093.00,1.28
8092.00,1.28
8091.00,1.29
8090.00,1.29
8089.00,1.29
8088.00,1.29
8087.00,1.29
8086.00,1.29
8085.00,1.29
8084.00,1.29
8083.00,1.29
8082.00,1.29
8081.00,1.29
8080.00,1.29
8079.00,1.29
8078.00,1.29
8077.00,1.29
8076.00,1.29
8075.00,1.29
8074.00,1.29
8073.00,1.29
8072.00,1.29
8071.00,1.29
8070.00,1.29
8069.00,1.29
8068.00,1.29
8067.00,1.29
8066.00,1.29
8065.00,1.29
8064.00,1.29
8063.00,1.29
8062.00,1.29
8061.00,1.29
8060.00,1.29
8059.00,1.29
8058.00,1.29
8057.00,1.29
8056.00,1.29
8055.00,1.29
8054.00,1.29
8053.00,1.29
8052.00,1.29
8051.00,1.29
8050.00,1.29
8049.00,1.29
8048.00,1.29
8047.00,1.29
8046.00,1.29
8045.00,1.29
8044.00,1.29
8043.00,1.29
8042.00,1.29
8041.00,1.29
8040.00,1.29
8039.00,1.29
8038.00,1.29
8037.00,1.29
8036.00,1.29
8035.00,1.29
8034.00,1.29
8033.00,1.29
8032.00,1.30
8031.00,1.30
8030.00,1.30
8029.00,1.30
8028.00,1.30
8027.00,1.30
8026.00,1.30
8025.00,1.30
8024.00,1.30
8023.00,1.30
8022.00,1.30
8021.00,1.30
8020.00,1.30
8019.00,1.30
8018.00,1.30
8017.00,1.30
8016.00,1.30
8015.00,1.30
8014.00,1.30
8013.00,1.30
8012.00,1.30
8011.00,1.30
8010.00,1.30
8009.00,1.30
8008.00,1.30
8007.00,1.30
8006.00,1.30
8005.00,1.30
8004.00,1.30
8003.00,1.30
8002.00,1.30
8001.00,1.30
8000.00,1.30
7999.00,1.30
7998.00,1.30
7997.00,1.30
7996.00,1.30
7995.00,1.30
7994.00,1.30
7993.00,1.30
7992.00,1.31
7991.00,1.31
7990.00,1.31
7989.00,1.31
7988.00,1.31
7987.00,1.31
7986.00,1.31
7985.00,1.31
7984.00,1.31
7983.00,1.31
7982.00,1.31
7981.00,1.31
7980.00,1.31
7979.00,1.31
7978.00,1.31
7977.00,1.31
7976.00,1.31
7975.00,1.31
7974.00,1.31
7973.00,1.31
7972.00,1.31
7971.00,1.31
7970.00,1.31
7969.00,1.31
7968.00,1.31
7967.00,1.31
7966.00,1.31
7965.00,1.31
7964.00,1.31
7963.00,1.31
7962.00,1.31
7961.00,1.31
7960.00,1.31
7959.00,1.31
7958.00,1.31
7957.00,1.31
7956.00,1.31
7955.00,1.31
7954.00,1.31
7953.00,1.31
7952.00,1.31
7951.00,1.30
7950.00,1.30
7949.00,1.30
7948.00,1.30
7947.00,1.30
7946.00,1.30
7945.00,1.30
7944.00,1.30
7943.00,1.30
7942.00,1.30
7941.00,1.30
7940.00,1.30
7939.00,1.30
7938.00,1.30
7937.00,1.30
7936.00,1.30
7935.00,1.30
7934.00,1.30
7933.00,1.30
7932.00,1.30
7931.00,1.30
7930.00,1.30
7929.00,1.30
7928.00,1.30
7927.00,1.30
7926.00,1.30
7925.00,1.30
7924.00,1.30
7923.00,1.30
7922.00,1.30
7921.00,1.30
7920.00,1.30
7919.00,1.30
7918.00,1.31
7917.00,1.31
7916.00,1.31
7915.00,1.31
7914.00,1.31
7913.00,1.31
7912.00,1.31
7911.00,1.31
7910.00,1.31
7909.00,1.31
7908.00,1.31
7907.00,1.32
7906.00,1.32
7905.00,1.32
7904.00,1.32
7903.00,1.32
7902.00,1.32
7901.00,1.32
7900.00,1.32
7899.00,1.32
7898.00,1.32
7897.00,1.32
7896.00,1.32
7895.00,1.32
7894.00,1.32
7893.00,1.32
7892.00,1.32
7891.00,1.32
7890.00,1.32
7889.00,1.32
7888.00,1.32
7887.00,1.32
7886.00,1.32
7885.00,1.32
7884.00,1.32
7883.00,1.32
7882.00,1.32
7881.00,1.32
7880.00,1.32
7879.00,1.32
7878.00,1.32
7877.00,1.32
7876.00,1.32
7875.00,1.32
7874.00,1.32
7873.00,1.32
7872.00,1.32
7871.00,1.32
7870.00,1.32
7869.00,1.32
7868.00,1.32
7867.00,1.32
7866.00,1.32
7865.00,1.32
7864.00,1.32
7863.00,1.32
7862.00,1.32
7861.00,1.32
7860.00,1.32
7859.00,1.32
7858.00,1.32
7857.00,1.32
7856.00,1.32
7855.00,1.32
7854.00,1.32
7853.00,1.32
7852.00,1.32
7851.00,1.33
7850.00,1.33
7849.00,1.33
7848.00,1.33
7847.00,1.33
7846.00,1.33
7845.00,1.33
7844.00,1.33
7843.00,1.33
7842.00,1.33
7841.00,1.33
7840.00,1.33
7839.00,1.33
7838.00,1.33
7837.00,1.33
7836.00,1.33
7835.00,1.33
7834.00,1.33
7833.00,1.33
7832.00,1.32
7831.00,1.32
7830.00,1.32
7829.00,1.32
7828.00,1.32
7827.00,1.32
7826.00,1.32
7825.00,1.32
7824.00,1.32
7823.00,1.32
7822.00,1.32
7821.00,1.32
7820.00,1.32
7819.00,1.32
7818.00,1.33
7817.00,1.33
7816.00,1.33
7815.00,1.33
7814.00,1.33
7813.00,1.33
7812.00,1.33
7811.00,1.33
7810.00,1.33
7809.00,1.33
7808.00,1.33
7807.00,1.33
7806.00,1.33
7805.00,1.33
7804.00,1.33
7803.00,1.33
7802.00,1.33
7801.00,1.33
7800.00,1.33
7799.00,1.33
7798.00,1.33
7797.00,1.33
7796.00,1.33
7795.00,1.33
7794.00,1.33
7793.00,1.33
7792.00,1.33
7791.00,1.33
7790.00,1.33
7789.00,1.34
7788.00,1.34
7787.00,1.34
7786.00,1.34
7785.00,1.34
7784.00,1.34
7783.00,1.34
7782.00,1.34
7781.00,1.34
7780.00,1.34
7779.00,1.34
7778.00,1.34
7777.00,1.34
7776.00,1.34
7775.00,1.34
7774.00,1.34
7773.00,1.34
7772.00,1.34
7771.00,1.34
7770.00,1.34
7769.00,1.34
7768.00,1.34
7767.00,1.34
7766.00,1.34
7765.00,1.34
7764.00,1.34
7763.00,1.34
7762.00,1.33
7761.00,1.33
7760.00,1.33
7759.00,1.33
7758.00,1.33
7757.00,1.33
7756.00,1.33
7755.00,1.33
7754.00,1.33
7753.00,1.34
7752.00,1.34
7751.00,1.34
7750.00,1.34
7749.00,1.34
7748.00,1.34
7747.00,1.34
7746.00,1.34
7745.00,1.34
7744.00,1.34
7743.00,1.34
7742.00,1.34
7741.00,1.34
7740.00,1.34
7739.00,1.34
7738.00,1.34
7737.00,1.34
7736.00,1.34
7735.00,1.34
7734.00,1.34
7733.00,1.34
7732.00,1.34
7731.00,1.34
7730.00,1.34
7729.00,1.34
7728.00,1.34
7727.00,1.34
7726.00,1.34
7725.00,1.34
7724.00,1.34
7723.00,1.34
7722.00,1.34
7721.00,1.34
7720.00,1.34
7719.00,1.34
7718.00,1.34
7717.00,1.34
7716.00,1.34
7715.00,1.34
7714.00,1.34
7713.00,1.34
7712.00,1.34
7711.00,1.34
7710.00,1.34
7709.00,1.34
7708.00,1.34
7707.00,1.34
7706.00,1.34
7705.00,1.34
7704.00,1.34
7703.00,1.34
7702.00,1.33
7701.00,1.33
7700.00,1.33
7699.00,1.33
7698.00,1.33
7697.00,1.33
7696.00,1.33
7695.00,1.33
7694.00,1.33
7693.00,1.33
7692.00,1.33
7691.00,1.33
7690.00,1.33
7689.00,1.33
7688.00,1.33
7687.00,1.33
7686.00,1.33
7685.00,1.34
7684.00,1.34
7683.00,1.34
7682.00,1.34
7681.00,1.34
7680.00,1.34
7679.00,1.34
7678.00,1.34
7677.00,1.34
7676.00,1.34
7675.00,1.34
7674.00,1.34
7673.00,1.34
7672.00,1.34
7671.00,1.34
7670.00,1.34
7669.00,1.34
7668.00,1.34
7667.00,1.34
7666.00,1.34
7665.00,1.34
7664.00,1.34
7663.00,1.34
7662.00,1.34
7661.00,1.34
7660.00,1.34
7659.00,1.34
7658.00,1.34
7657.00,1.34
7656.00,1.34
7655.00,1.34
7654.00,1.34
7653.00,1.34
7652.00,1.34
7651.00,1.34
7650.00,1.34
7649.00,1.34
7648.00,1.34
7647.00,1.34
7646.00,1.34
7645.00,1.34
7644.00,1.34
7643.00,1.34
7642.00,1.34
7641.00,1.34
7640.00,1.34
7639.00,1.34
7638.00,1.34
7637.00,1.34
7636.00,1.34
7635.00,1.34
7634.00,1.34
7633.00,1.34
7632.00,1.34
7631.00,1.34
7630.00,1.34
7629.00,1.34
7628.00,1.34
7627.00,1.34
7626.00,1.34
7625.00,1.34
7624.00,1.34
7623.00,1.34
7622.00,1.34
7621.00,1.34
7620.00,1.34
7619.00,1.34
7618.00,1.34
7617.00,1.34
7616.00,1.34
7615.00,1.34
7614.00,1.34
7613.00,1.34
7612.00,1.34
7611.00,1.34
7610.00,1.34
7609.00,1.34
7608.00,1.34
7607.00,1.33
7606.00,1.33
7605.00,1.33
7604.00,1.33
7603.00,1.33
7602.00,1.33
7601.00,1.33
7600.00,1.33
7599.00,1.33
7598.00,1.33
7597.00,1.33
7596.00,1.33
7595.00,1.33
7594.00,1.33
7593.00,1.33
7592.00,1.33
7591.00,1.33
7590.00,1.33
7589.00,1.33
7588.00,1.33
7587.00,1.33
7586.00,1.33
7585.00,1.33
7584.00,1.33
7583.00,1.33
7582.00,1.33
7581.00,1.33
7580.00,1.33
7579.00,1.33
7578.00,1.33
7577.00,1.33
7576.00,1.33
7575.00,1.33
7574.00,1.33
7573.00,1.33
7572.00,1.33
7571.00,1.33
7570.00,1.32
7569.00,1.32
7568.00,1.32
7567.00,1.32
7566.00,1.32
7565.00,1.32
7564.00,1.32
7563.00,1.32
7562.00,1.32
7561.00,1.32
7560.00,1.32
7559.00,1.32
7558.00,1.32
7557.00,1.32
7556.00,1.32
7555.00,1.32
7554.00,1.32
7553.00,1.32
7552.00,1.32
7551.00,1.32
7550.00,1.32
7549.00,1.32
7548.00,1.32
7547.00,1.32
7546.00,1.32
7545.00,1.32
7544.00,1.32
7543.00,1.32
7542.00,1.32
7541.00,1.32
7540.00,1.32
7539.00,1.32
7538.00,1.32
7537.00,1.31
7536.00,1.31
7535.00,1.31
7534.00,1.31
7533.00,1.31
7532.00,1.31
7531.00,1.31
7530.00,1.31
7529.00,1.31
7528.00,1.31
7527.00,1.31
7526.00,1.31
7525.00,1.31
7524.00,1.31
7523.00,1.31
7522.00,1.31
7521.00,1.31
7520.00,1.31
7519.00,1.31
7518.00,1.31
7517.00,1.31
7516.00,1.31
7515.00,1.31
7514.00,1.31
7513.00,1.31
7512.00,1.31
7511.00,1.31
7510.00,1.31
7509.00,1.31
7508.00,1.31
7507.00,1.31
7506.00,1.31
7505.00,1.30
7504.00,1.30
7503.00,1.30
7502.00,1.30
7501.00,1.30
7500.00,1.30
7499.00,1.30
7498.00,1.30
7497.00,1.30
7496.00,1.30
7495.00,1.30
7494.00,1.30
7493.00,1.30
7492.00,1.30
7491.00,1.30
7490.00,1.30
7489.00,1.30
7488.00,1.30
7487.00,1.30
7486.00,1.30
7485.00,1.30
7484.00,1.29
7483.00,1.29
7482.00,1.29
7481.00,1.29
7480.00,1.29
7479.00,1.29
7478.00,1.29
7477.00,1.29
7476.00,1.29
7475.00,1.29
7474.00,1.29
7473.00,1.29
7472.00,1.29
7471.00,1.29
7470.00,1.29
7469.00,1.29
7468.00,1.29
7467.00,1.29
7466.00,1.28
7465.00,1.28
7464.00,1.28
7463.00,1.28
7462.00,1.28
7461.00,1.28
7460.00,1.28
7459.00,1.28
7458.00,1.28
7457.00,1.28
7456.00,1.28
7455.00,1.28
7454.00,1.28
7453.00,1.27
7452.00,1.27
7451.00,1.27
7450.00,1.27
7449.00,1.27
7448.00,1.27
7447.00,1.27
7446.00,1.27
7445.00,1.26
7444.00,1.26
7443.00,1.26
7442.00,1.26
7441.00,1.26
7440.00,1.26
7439.00,1.26
7438.00,1.26
7437.00,1.26
7436.00,1.26
7435.00,1.26
7434.00,1.26
7433.00,1.26
7432.00,1.26
7431.00,1.26
7430.00,1.26
7429.00,1.25
7428.00,1.25
7427.00,1.25
7426.00,1.25
7425.00,1.25
7424.00,1.25
7423.00,1.25
7422.00,1.25
7421.00,1.25
7420.00,1.25
7419.00,1.25
7418.00,1.25
7417.00,1.25
7416.00,1.25
7415.00,1.24
7414.00,1.24
7413.00,1.24
7412.00,1.24
7411.00,1.24
7410.00,1.24
7409.00,1.24
7408.00,1.24
7407.00,1.24
7406.00,1.24
7405.00,1.24
7404.00,1.24
7403.00,1.24
7402.00,1.24
7401.00,1.24
7400.00,1.24
7399.00,1.24
7398.00,1.24
7397.00,1.24
7396.00,1.24
7395.00,1.24
7394.00,1.24
7393.00,1.24
7392.00,1.23
7391.00,1.23
7390.00,1.23
7389.00,1.23
7388.00,1.23
7387.00,1.23
7386.00,1.23
7385.00,1.23
7384.00,1.23
7383.00,1.22
7382.00,1.22
7381.00,1.22
7380.00,1.22
7379.00,1.22
7378.00,1.22
7377.00,1.22
7376.00,1.22
7375.00,1.22
7374.00,1.22
7373.00,1.21
7372.00,1.21
7371.00,1.21
7370.00,1.21
7369.00,1.21
7368.00,1.21
7367.00,1.21
7366.00,1.21
7365.00,1.21
7364.00,1.21
7363.00,1.22
7362.00,1.22
7361.00,1.22
7360.00,1.22
7359.00,1.22
7358.00,1.22
7357.00,1.22
7356.00,1.22
7355.00,1.22
7354.00,1.22
7353.00,1.22
7352.00,1.21
7351.00,1.21
7350.00,1.21
7349.00,1.21
7348.00,1.21
7347.00,1.21
7346.00,1.21
7345.00,1.21
7344.00,1.21
7343.00,1.21
7342.00,1.21
7341.00,1.21
7340.00,1.21
7339.00,1.21
7338.00,1.21
7337.00,1.20
7336.00,1.20
7335.00,1.20
7334.00,1.20
7333.00,1.20
7332.00,1.20
7331.00,1.20
7330.00,1.20
7329.00,1.20
7328.00,1.20
7327.00,1.20
7326.00,1.20
7325.00,1.20
7324.00,1.20
7323.00,1.20
7322.00,1.20
7321.00,1.20
7320.00,1.20
7319.00,1.20
7318.00,1.20
7317.00,1.20
7316.00,1.20
7315.00,1.20
7314.00,1.19
7313.00,1.19
7312.00,1.19
7311.00,1.19
7310.00,1.19
7309.00,1.19
7308.00,1.19
7307.00,1.19
7306.00,1.19
7305.00,1.19
7304.00,1.18
7303.00,1.18
7302.00,1.18
7301.00,1.18
7300.00,1.18
7299.00,1.18
7298.00,1.18
7297.00,1.18
7296.00,1.18
7295.00,1.17
7294.00,1.17
7293.00,1.17
7292.00,1.17
7291.00,1.17
7290.00,1.17
7289.00,1.17
7288.00,1.17
7287.00,1.17
7286.00,1.17
7285.00,1.16
7284.00,1.16
7283.00,1.16
7282.00,1.16
7281.00,1.16
7280.00,1.16
7279.00,1.16
7278.00,1.16
7277.00,1.16
7276.00,1.16
7275.00,1.16
7274.00,1.15
7273.00,1.15
7272.00,1.15
7271.00,1.15
7270.00,1.15
7269.00,1.15
7268.00,1.15
7267.00,1.14
7266.00,1.14
7265.00,1.14
7264.00,1.14
7263.00,1.14
7262.00,1.13
7261.00,1.13
7260.00,1.13
7259.00,1.13
7258.00,1.12
7257.00,1.12
7256.00,1.12
7255.00,1.12
7254.00,1.12
7253.00,1.11
7252.00,1.11
7251.00,1.11
7250.00,1.11
7249.00,1.10
7248.00,1.10
7247.00,1.10
7246.00,1.10
7245.00,1.09
7244.00,1.09
7243.00,1.09
7242.00,1.08
7241.00,1.08
7240.00,1.08
7239.00,1.07
7238.00,1.07
7237.00,1.07
7236.00,1.06
7235.00,1.06
7234.00,1.06
7233.00,1.05
7232.00,1.05
7231.00,1.05
7230.00,1.05
7229.00,1.04
7228.00,1.04
7227.00,1.04
7226.00,1.03
7225.00,1.03
7224.00,1.03
7223.00,1.02
7222.00,1.02
7221.00,1.02
7220.00,1.01
7219.00,1.01
7218.00,1.00
7217.00,1.00
7216.00,1.00
7215.00,0.99
7214.00,0.99
7213.00,0.99
7212.00,0.98
7211.00,0.98
7210.00,0.97
7209.00,0.97
7208.00,0.97
7207.00,0.96
7206.00,0.96
7205.00,0.95
7204.00,0.95
7203.00,0.95
7202.00,0.94
7201.00,0.94
7200.00,0.93
7199.00,0.93
7198.00,0.93
7197.00,0.92
7196.00,0.92
7195.00,0.91
7194.00,0.91
7193.00,0.91
7192.00,0.90
7191.00,0.90
7190.00,0.89
7189.00,0.89
7188.00,0.89
7187.00,0.88
7186.00,0.88
7185.00,0.88
7184.00,0.87
7183.00,0.87
7182.00,0.86
7181.00,0.86
7180.00,0.86
7179.00,0.85
7178.00,0.85
7177.00,0.85
7176.00,0.84
7175.00,0.84
7174.00,0.84
7173.00,0.83
7172.00,0.83
7171.00,0.83
7170.00,0.82
7169.00,0.82
7168.00,0.82
7167.00,0.81
7166.00,0.81
7165.00,0.81
7164.00,0.81
7163.00,0.80
7162.00,0.80
7161.00,0.80
7160.00,0.80
7159.00,0.79
7158.00,0.79
7157.00,0.79
7156.00,0.79
7155.00,0.78
7154.00,0.78
7153.00,0.78
7152.00,0.78
7151.00,0.77
7150.00,0.77
7149.00,0.77
7148.00,0.76
7147.00,0.76
7146.00,0.76
7145.00,0.76
7144.00,0.75
7143.00,0.75
7142.00,0.75
7141.00,0.74
7140.00,0.74
7139.00,0.74
7138.00,0.73
7137.00,0.73
7136.00,0.73
7135.00,0.73
7134.00,0.72
7133.00,0.72
7132.00,0.72
7131.00,0.72
7130.00,0.71
7129.00,0.71
7128.00,0.71
7127.00,0.71
7126.00,0.71
7125.00,0.70
7124.00,0.70
7123.00,0.70
7122.00,0.70
7121.00,0.69
7120.00,0.69
7119.00,0.69
7118.00,0.69
7117.00,0.68
7116.00,0.68
7115.00,0.68
7114.00,0.68
7113.00,0.67
7112.00,0.67
7111.00,0.67
7110.00,0.66
7109.00,0.66
7108.00,0.66
7107.00,0.65
7106.00,0.65
7105.00,0.65
7104.00,0.65
7103.00,0.64
7102.00,0.64
7101.00,0.64
7100.00,0.64
7099.00,0.64
7098.00,0.64
7097.00,0.63
7096.00,0.63
7095.00,0.63
7094.00,0.63
7093.00,0.63
7092.00,0.63
7091.00,0.62
7090.00,0.62
7089.00,0.62
7088.00,0.62
7087.00,0.62
7086.00,0.62
7085.00,0.61
7084.00,0.61
7083.00,0.61
7082.00,0.61
7081.00,0.61
7080.00,0.61
7079.00,0.61
7078.00,0.60
7077.00,0.60
7076.00,0.60
7075.00,0.60
7074.00,0.60
7073.00,0.60
7072.00,0.60
7071.00,0.60
7070.00,0.60
7069.00,0.59
7068.00,0.59
7067.00,0.59
7066.00,0.59
7065.00,0.59
7064.00,0.59
7063.00,0.59
7062.00,0.59
7061.00,0.59
7060.00,0.59
7059.00,0.58
7058.00,0.58
7057.00,0.58
7056.00,0.58
7055.00,0.58
7054.00,0.58
7053.00,0.58
7052.00,0.58
7051.00,0.57
7050.00,0.57
7049.00,0.57
7048.00,0.57
7047.00,0.57
7046.00,0.57
7045.00,0.57
7044.00,0.57
7043.00,0.57
7042.00,0.57
7041.00,0.57
7040.00,0.56
7039.00,0.56
7038.00,0.56
7037.00,0.56
7036.00,0.56
7035.00,0.56
7034.00,0.56
7033.00,0.56
7032.00,0.56
7031.00,0.56
7030.00,0.56
7029.00,0.56
7028.00,0.56
7027.00,0.56
7026.00,0.55
7025.00,0.55
7024.00,0.55
7023.00,0.55
7022.00,0.55
7021.00,0.55
7020.00,0.55
7019.00,0.55
7018.00,0.55
7017.00,0.55
7016.00,0.55
7015.00,0.55
7014.00,0.55
7013.00,0.55
7012.00,0.55
7011.00,0.55
7010.00,0.55
7009.00,0.55
7008.00,0.55
7007.00,0.55
7006.00,0.55
7005.00,0.55
7004.00,0.55
7003.00,0.55
7002.00,0.55
7001.00,0.55
7000.00,0.55
6999.00,0.55
6998.00,0.55
6997.00,0.55
6996.00,0.55
6995.00,0.55
6994.00,0.54
6993.00,0.54
6992.00,0.54
6991.00,0.54
6990.00,0.54
6989.00,0.54
6988.00,0.54
6987.00,0.54
6986.00,0.54
6985.00,0.54
6984.00,0.54
6983.00,0.54
6982.00,0.54
6981.00,0.54
6980.00,0.54
6979.00,0.54
6978.00,0.53
6977.00,0.53
6976.00,0.53
6975.00,0.53
6974.00,0.53
6973.00,0.53
6972.00,0.53
6971.00,0.53
6970.00,0.53
6969.00,0.53
6968.00,0.53
6967.00,0.53
6966.00,0.53
6965.00,0.53
6964.00,0.53
6963.00,0.53
6962.00,0.53
6961.00,0.53
6960.00,0.53
6959.00,0.53
6958.00,0.53
6957.00,0.53
6956.00,0.53
6955.00,0.53
6954.00,0.53
6953.00,0.53
6952.00,0.52
6951.00,0.52
6950.00,0.52
6949.00,0.52
6948.00,0.52
6947.00,0.52
6946.00,0.52
6945.00,0.52
6944.00,0.52
6943.00,0.52
6942.00,0.52
6941.00,0.52
6940.00,0.52
6939.00,0.52
6938.00,0.52
6937.00,0.52
6936.00,0.52
6935.00,0.52
6934.00,0.52
6933.00,0.52
6932.00,0.52
6931.00,0.53
6930.00,0.53
6929.00,0.53
6928.00,0.53
6927.00,0.53
6926.00,0.53
6925.00,0.53
6924.00,0.53
6923.00,0.53
6922.00,0.53
6921.00,0.53
6920.00,0.52
6919.00,0.52
6918.00,0.52
6917.00,0.52
6916.00,0.52
6915.00,0.52
6914.00,0.52
6913.00,0.52
6912.00,0.52
6911.00,0.52
6910.00,0.52
6909.00,0.52
6908.00,0.52
6907.00,0.52
6906.00,0.52
6905.00,0.52
6904.00,0.52
6903.00,0.52
6902.00,0.52
6901.00,0.52
6900.00,0.52
6899.00,0.52
6898.00,0.52
6897.00,0.52
6896.00,0.52
6895.00,0.52
6894.00,0.52
6893.00,0.52
6892.00,0.52
6891.00,0.52
6890.00,0.52
6889.00,0.52
6888.00,0.52
6887.00,0.52
6886.00,0.52
6885.00,0.52
6884.00,0.52
6883.00,0.52
6882.00,0.52
6881.00,0.52
6880.00,0.52
6879.00,0.52
6878.00,0.52
6877.00,0.52
6876.00,0.52
6875.00,0.52
6874.00,0.52
6873.00,0.52
6872.00,0.52
6871.00,0.52
6870.00,0.52
6869.00,0.52
6868.00,0.52
6867.00,0.52
6866.00,0.52
6865.00,0.52
6864.00,0.52
6863.00,0.52
6862.00,0.52
6861.00,0.52
6860.00,0.52
6859.00,0.52
6858.00,0.52
6857.00,0.52
6856.00,0.52
6855.00,0.52
6854.00,0.52
6853.00,0.52
6852.00,0.52
6851.00,0.52
6850.00,0.52
6849.00,0.52
6848.00,0.52
6847.00,0.52
6846.00,0.52
6845.00,0.52
6844.00,0.52
6843.00,0.52
6842.00,0.52
6841.00,0.52
6840.00,0.52
6839.00,0.52
6838.00,0.52
6837.00,0.52
6836.00,0.52
6835.00,0.53
6834.00,0.53
6833.00,0.53
6832.00,0.53
6831.00,0.53
6830.00,0.53
6829.00,0.53
6828.00,0.53
6827.00,0.53
6826.00,0.53
6825.00,0.53
6824.00,0.53
6823.00,0.53
6822.00,0.53
6821.00,0.53
6820.00,0.53
6819.00,0.53
6818.00,0.53
6817.00,0.53
6816.00,0.53
6815.00,0.53
6814.00,0.53
6813.00,0.53
6812.00,0.53
6811.00,0.54
6810.00,0.54
6809.00,0.54
6808.00,0.54
6807.00,0.54
6806.00,0.54
6805.00,0.54
6804.00,0.54
6803.00,0.54
6802.00,0.54
6801.00,0.54
6800.00,0.54
6799.00,0.54
6798.00,0.54
6797.00,0.54
6796.00,0.55
6795.00,0.55
6794.00,0.55
6793.00,0.55
6792.00,0.55
6791.00,0.55
6790.00,0.55
6789.00,0.55
6788.00,0.55
6787.00,0.55
6786.00,0.55
6785.00,0.55
6784.00,0.55
6783.00,0.55
6782.00,0.55
6781.00,0.55
6780.00,0.55
6779.00,0.55
6778.00,0.55
6777.00,0.55
6776.00,0.55
6775.00,0.55
6774.00,0.55
6773.00,0.55
6772.00,0.55
6771.00,0.55
6770.00,0.55
6769.00,0.55
6768.00,0.55
6767.00,0.55
6766.00,0.55
6765.00,0.55
6764.00,0.55
6763.00,0.55
6762.00,0.55
6761.00,0.55
6760.00,0.56
6759.00,0.56
6758.00,0.56
6757.00,0.56
6756.00,0.56
6755.00,0.56
6754.00,0.56
6753.00,0.56
6752.00,0.56
6751.00,0.56
6750.00,0.56
6749.00,0.56
6748.00,0.56
6747.00,0.56
6746.00,0.56
6745.00,0.56
6744.00,0.56
6743.00,0.56
6742.00,0.57
6741.00,0.57
6740.00,0.57
6739.00,0.57
6738.00,0.57
6737.00,0.57
6736.00,0.57
6735.00,0.57
6734.00,0.57
6733.00,0.58
6732.00,0.58
6731.00,0.58
6730.00,0.58
6729.00,0.58
6728.00,0.58
6727.00,0.58
6726.00,0.58
6725.00,0.58
6724.00,0.58
6723.00,0.58
6722.00,0.58
6721.00,0.59
6720.00,0.59
6719.00,0.59
6718.00,0.59
6717.00,0.59
6716.00,0.59
6715.00,0.59
6714.00,0.59
6713.00,0.59
6712.00,0.59
6711.00,0.59
6710.00,0.59
6709.00,0.59
6708.00,0.59
6707.00,0.60
6706.00,0.60
6705.00,0.60
6704.00,0.60
6703.00,0.60
6702.00,0.60
6701.00,0.60
6700.00,0.60
6699.00,0.60
6698.00,0.60
6697.00,0.60
6696.00,0.60
6695.00,0.60
6694.00,0.60
6693.00,0.61
6692.00,0.61
6691.00,0.61
6690.00,0.61
6689.00,0.61
6688.00,0.61
6687.00,0.61
6686.00,0.61
6685.00,0.62
6684.00,0.62
6683.00,0.62
6682.00,0.62
6681.00,0.62
6680.00,0.62
6679.00,0.62
6678.00,0.62
6677.00,0.62
6676.00,0.62
6675.00,0.62
6674.00,0.62
6673.00,0.63
6672.00,0.63
6671.00,0.63
6670.00,0.63
6669.00,0.63
6668.00,0.63
6667.00,0.63
6666.00,0.63
6665.00,0.63
6664.00,0.63
6663.00,0.63
6662.00,0.63
6661.00,0.63
6660.00,0.63
6659.00,0.63
6658.00,0.63
6657.00,0.63
6656.00,0.63
6655.00,0.63
6654.00,0.63
6653.00,0.63
6652.00,0.64
6651.00,0.64
6650.00,0.64
6649.00,0.64
6648.00,0.64
6647.00,0.64
6646.00,0.64
6645.00,0.65
6644.00,0.65
6643.00,0.65
6642.00,0.65
6641.00,0.65
6640.00,0.65
6639.00,0.65
6638.00,0.66
6637.00,0.66
6636.00,0.66
6635.00,0.66
6634.00,0.66
6633.00,0.66
6632.00,0.66
6631.00,0.66
6630.00,0.67
6629.00,0.67
6628.00,0.67
6627.00,0.67
6626.00,0.67
6625.00,0.67
6624.00,0.67
6623.00,0.67
6622.00,0.68
6621.00,0.68
6620.00,0.68
6619.00,0.68
6618.00,0.68
6617.00,0.68
6616.00,0.68
6615.00,0.68
6614.00,0.68
6613.00,0.68
6612.00,0.68
6611.00,0.68
6610.00,0.68
6609.00,0.69
6608.00,0.69
6607.00,0.69
6606.00,0.69
6605.00,0.69
6604.00,0.69
6603.00,0.69
6602.00,0.69
6601.00,0.69
6600.00,0.69
6599.00,0.69
6598.00,0.69
6597.00,0.70
6596.00,0.70
6595.00,0.70
6594.00,0.70
6593.00,0.70
6592.00,0.70
6591.00,0.70
6590.00,0.70
6589.00,0.70
6588.00,0.70
6587.00,0.70
6586.00,0.70
6585.00,0.70
6584.00,0.70
6583.00,0.70
6582.00,0.71
6581.00,0.71
6580.00,0.71
6579.00,0.71
6578.00,0.71
6577.00,0.71
6576.00,0.71
6575.00,0.72
6574.00,0.72
6573.00,0.72
6572.00,0.72
6571.00,0.72
6570.00,0.72
6569.00,0.72
6568.00,0.73
6567.00,0.73
6566.00,0.73
6565.00,0.73
6564.00,0.73
6563.00,0.73
6562.00,0.73
6561.00,0.73
6560.00,0.73
6559.00,0.73
6558.00,0.73
6557.00,0.73
6556.00,0.73
6555.00,0.73
6554.00,0.74
6553.00,0.74
6552.00,0.74
6551.00,0.74
6550.00,0.74
6549.00,0.74
6548.00,0.74
6547.00,0.74
6546.00,0.74
6545.00,0.74
6544.00,0.75
6543.00,0.75
6542.00,0.75
6541.00,0.75
6540.00,0.75
6539.00,0.75
6538.00,0.75
6537.00,0.75
6536.00,0.75
6535.00,0.75
6534.00,0.76
6533.00,0.76
6532.00,0.76
6531.00,0.76
6530.00,0.76
6529.00,0.76
6528.00,0.76
6527.00,0.76
6526.00,0.76
6525.00,0.76
6524.00,0.77
6523.00,0.77
6522.00,0.77
6521.00,0.77
6520.00,0.77
6519.00,0.77
6518.00,0.77
6517.00,0.77
6516.00,0.77
6515.00,0.77
6514.00,0.77
6513.00,0.77
6512.00,0.77
6511.00,0.78
6510.00,0.78
6509.00,0.78
6508.00,0.78
6507.00,0.78
6506.00,0.78
6505.00,0.78
6504.00,0.78
6503.00,0.78
6502.00,0.78
6501.00,0.78
6500.00,0.78
6499.00,0.78
6498.00,0.79
6497.00,0.79
6496.00,0.79
6495.00,0.79
6494.00,0.79
6493.00,0.79
6492.00,0.79
6491.00,0.79
6490.00,0.80
6489.00,0.80
6488.00,0.80
6487.00,0.80
6486.00,0.80
6485.00,0.80
6484.00,0.80
6483.00,0.80
6482.00,0.80
6481.00,0.80
6480.00,0.80
6479.00,0.80
6478.00,0.80
6477.00,0.80
6476.00,0.80
6475.00,0.81
6474.00,0.81
6473.00,0.81
6472.00,0.81
6471.00,0.81
6470.00,0.81
6469.00,0.81
6468.00,0.81
6467.00,0.81
6466.00,0.81
6465.00,0.81
6464.00,0.81
6463.00,0.82
6462.00,0.82
6461.00,0.82
6460.00,0.82
6459.00,0.82
6458.00,0.82
6457.00,0.82
6456.00,0.82
6455.00,0.82
6454.00,0.82
6453.00,0.83
6452.00,0.83
6451.00,0.83
6450.00,0.83
6449.00,0.83
6448.00,0.83
6447.00,0.83
6446.00,0.83
6445.00,0.83
6444.00,0.83
6443.00,0.83
6442.00,0.83
6441.00,0.83
6440.00,0.84
6439.00,0.84
6438.00,0.84
6437.00,0.84
6436.00,0.84
6435.00,0.84
6434.00,0.84
6433.00,0.84
6432.00,0.84
6431.00,0.84
6430.00,0.84
6429.00,0.84
6428.00,0.85
6427.00,0.85
6426.00,0.85
6425.00,0.85
6424.00,0.85
6423.00,0.85
6422.00,0.85
6421.00,0.85
6420.00,0.85
6419.00,0.85
6418.00,0.85
6417.00,0.85
6416.00,0.85
6415.00,0.85
6414.00,0.85
6413.00,0.85
6412.00,0.85
6411.00,0.85
6410.00,0.85
6409.00,0.85
6408.00,0.85
6407.00,0.86
6406.00,0.86
6405.00,0.86
6404.00,0.86
6403.00,0.86
6402.00,0.86
6401.00,0.86
6400.00,0.86
6399.00,0.86
6398.00,0.87
6397.00,0.87
6396.00,0.87
6395.00,0.87
6394.00,0.87
6393.00,0.87
6392.00,0.87
6391.00,0.87
6390.00,0.88
6389.00,0.88
6388.00,0.88
6387.00,0.88
6386.00,0.88
6385.00,0.88
6384.00,0.88
6383.00,0.88
6382.00,0.88
6381.00,0.88
6380.00,0.88
6379.00,0.88
6378.00,0.88
6377.00,0.88
6376.00,0.89
6375.00,0.89
6374.00,0.89
6373.00,0.89
6372.00,0.89
6371.00,0.89
6370.00,0.89
6369.00,0.89
6368.00,0.89
6367.00,0.89
6366.00,0.89
6365.00,0.90
6364.00,0.90
6363.00,0.90
6362.00,0.90
6361.00,0.90
6360.00,0.90
6359.00,0.90
6358.00,0.90
6357.00,0.90
6356.00,0.90
6355.00,0.90
6354.00,0.91
6353.00,0.91
6352.00,0.91
6351.00,0.91
6350.00,0.91
6349.00,0.91
6348.00,0.91
6347.00,0.91
6346.00,0.91
6345.00,0.91
6344.00,0.92
6343.00,0.92
6342.00,0.92
6341.00,0.92
6340.00,0.92
6339.00,0.92
6338.00,0.92
6337.00,0.92
6336.00,0.93
6335.00,0.93
6334.00,0.93
6333.00,0.93
6332.00,0.93
6331.00,0.93
6330.00,0.93
6329.00,0.94
6328.00,0.94
6327.00,0.94
6326.00,0.94
6325.00,0.94
6324.00,0.94
6323.00,0.94
6322.00,0.94
6321.00,0.94
6320.00,0.94
6319.00,0.94
6318.00,0.95
6317.00,0.95
6316.00,0.95
6315.00,0.95
6314.00,0.95
6313.00,0.95
6312.00,0.95
6311.00,0.95
6310.00,0.95
6309.00,0.95
6308.00,0.95
6307.00,0.95
6306.00,0.96
6305.00,0.96
6304.00,0.96
6303.00,0.96
6302.00,0.96
6301.00,0.96
6300.00,0.96
6299.00,0.96
6298.00,0.96
6297.00,0.97
6296.00,0.97
6295.00,0.97
6294.00,0.97
6293.00,0.97
6292.00,0.97
6291.00,0.97
6290.00,0.98
6289.00,0.98
6288.00,0.98
6287.00,0.98
6286.00,0.98
6285.00,0.98
6284.00,0.98
6283.00,0.98
6282.00,0.99
6281.00,0.99
6280.00,0.99
6279.00,0.99
6278.00,0.99
6277.00,0.99
6276.00,0.99
6275.00,0.99
6274.00,1.00
6273.00,1.00
6272.00,1.00
6271.00,1.00
6270.00,1.00
6269.00,1.00
6268.00,1.00
6267.00,1.00
6266.00,1.00
6265.00,1.01
6264.00,1.01
6263.00,1.01
6262.00,1.01
6261.00,1.01
6260.00,1.01
6259.00,1.01
6258.00,1.01
6257.00,1.02
6256.00,1.02
6255.00,1.02
6254.00,1.02
6253.00,1.02
6252.00,1.02
6251.00,1.02
6250.00,1.02
6249.00,1.03
6248.00,1.03
6247.00,1.03
6246.00,1.03
6245.00,1.03
6244.00,1.03
6243.00,1.03
6242.00,1.03
6241.00,1.04
6240.00,1.04
6239.00,1.04
6238.00,1.04
6237.00,1.04
6236.00,1.04
6235.00,1.04
6234.00,1.05
6233.00,1.05
6232.00,1.05
6231.00,1.05
6230.00,1.05
6229.00,1.05
6228.00,1.05
6227.00,1.06
6226.00,1.06
6225.00,1.06
6224.00,1.06
6223.00,1.06
6222.00,1.06
6221.00,1.07
6220.00,1.07
6219.00,1.07
6218.00,1.07
6217.00,1.07
6216.00,1.07
6215.00,1.07
6214.00,1.07
6213.00,1.07
6212.00,1.07
6211.00,1.07
6210.00,1.08
6209.00,1.08
6208.00,1.08
6207.00,1.08
6206.00,1.08
6205.00,1.08
6204.00,1.08
6203.00,1.08
6202.00,1.08
6201.00,1.08
6200.00,1.08
6199.00,1.08
6198.00,1.08
6197.00,1.08
6196.00,1.09
6195.00,1.09
6194.00,1.09
6193.00,1.09
6192.00,1.09
6191.00,1.09
6190.00,1.10
6189.00,1.10
6188.00,1.10
6187.00,1.10
6186.00,1.10
6185.00,1.10
6184.00,1.11
6183.00,1.11
6182.00,1.11
6181.00,1.11
6180.00,1.11
6179.00,1.11
6178.00,1.11
6177.00,1.12
6176.00,1.12
6175.00,1.12
6174.00,1.12
6173.00,1.12
6172.00,1.12
6171.00,1.12
6170.00,1.12
6169.00,1.12
6168.00,1.13
6167.00,1.13
6166.00,1.13
6165.00,1.13
6164.00,1.13
6163.00,1.13
6162.00,1.13
6161.00,1.14
6160.00,1.14
6159.00,1.14
6158.00,1.14
6157.00,1.14
6156.00,1.15
6155.00,1.15
6154.00,1.15
6153.00,1.15
6152.00,1.15
6151.00,1.15
6150.00,1.15
6149.00,1.16
6148.00,1.16
6147.00,1.16
6146.00,1.16
6145.00,1.16
6144.00,1.16
6143.00,1.16
6142.00,1.16
6141.00,1.16
6140.00,1.17
6139.00,1.17
6138.00,1.17
6137.00,1.17
6136.00,1.17
6135.00,1.17
6134.00,1.17
6133.00,1.17
6132.00,1.17
6131.00,1.18
6130.00,1.18
6129.00,1.18
6128.00,1.18
6127.00,1.18
6126.00,1.18
6125.00,1.18
6124.00,1.18
6123.00,1.19
6122.00,1.19
6121.00,1.19
6120.00,1.19
6119.00,1.19
6118.00,1.19
6117.00,1.20
6116.00,1.20
6115.00,1.20
6114.00,1.20
6113.00,1.20
6112.00,1.20
6111.00,1.21
6110.00,1.21
6109.00,1.21
6108.00,1.21
6107.00,1.21
6106.00,1.21
6105.00,1.22
6104.00,1.22
6103.00,1.22
6102.00,1.22
6101.00,1.22
6100.00,1.22
6099.00,1.22
6098.00,1.22
6097.00,1.23
6096.00,1.23
6095.00,1.23
6094.00,1.23
6093.00,1.23
6092.00,1.23
6091.00,1.23
6090.00,1.23
6089.00,1.24
6088.00,1.24
6087.00,1.24
6086.00,1.24
6085.00,1.24
6084.00,1.24
6083.00,1.24
6082.00,1.24
6081.00,1.24
6080.00,1.25
6079.00,1.25
6078.00,1.25
6077.00,1.25
6076.00,1.25
6075.00,1.25
6074.00,1.25
6073.00,1.25
6072.00,1.25
6071.00,1.25
6070.00,1.26
6069.00,1.26
6068.00,1.26
6067.00,1.26
6066.00,1.26
6065.00,1.26
6064.00,1.26
6063.00,1.26
6062.00,1.27
6061.00,1.27
6060.00,1.27
6059.00,1.27
6058.00,1.27
6057.00,1.27
6056.00,1.27
6055.00,1.27
6054.00,1.27
6053.00,1.27
6052.00,1.27
6051.00,1.27
6050.00,1.27
6049.00,1.27
6048.00,1.27
6047.00,1.27
6046.00,1.27
6045.00,1.28
6044.00,1.28
6043.00,1.28
6042.00,1.28
6041.00,1.28
6040.00,1.28
6039.00,1.28
6038.00,1.28
6037.00,1.28
6036.00,1.28
6035.00,1.28
6034.00,1.28
6033.00,1.29
6032.00,1.29
6031.00,1.29
6030.00,1.29
6029.00,1.29
6028.00,1.29
6027.00,1.29
6026.00,1.29
6025.00,1.29
6024.00,1.29
6023.00,1.29
6022.00,1.29
6021.00,1.30
6020.00,1.30
6019.00,1.30
6018.00,1.30
6017.00,1.30
6016.00,1.30
6015.00,1.30
6014.00,1.30
6013.00,1.30
6012.00,1.30
6011.00,1.30
6010.00,1.30
6009.00,1.30
6008.00,1.30
6007.00,1.30
6006.00,1.30
6005.00,1.30
6004.00,1.30
6003.00,1.30
6002.00,1.30
6001.00,1.30
6000.00,1.29
5999.00,1.29
5998.00,1.29
5997.00,1.29
5996.00,1.29
5995.00,1.29
5994.00,1.29
5993.00,1.29
5992.00,1.29
5991.00,1.28
5990.00,1.28
5989.00,1.28
5988.00,1.28
5987.00,1.28
5986.00,1.28
5985.00,1.27
5984.00,1.27
5983.00,1.27
5982.00,1.26
5981.00,1.26
5980.00,1.26
5979.00,1.25
5978.00,1.25
5977.00,1.25
5976.00,1.24
5975.00,1.24
5974.00,1.23
5973.00,1.23
5972.00,1.22
5971.00,1.22
5970.00,1.21
5969.00,1.21
5968.00,1.20
5967.00,1.20
5966.00,1.19
5965.00,1.19
5964.00,1.18
5963.00,1.18
5962.00,1.17
5961.00,1.16
5960.00,1.16
5959.00,1.15
5958.00,1.15
5957.00,1.14
5956.00,1.14
5955.00,1.13
5954.00,1.13
5953.00,1.12
5952.00,1.12
5951.00,1.12
5950.00,1.11
5949.00,1.11
5948.00,1.11
5947.00,1.10
5946.00,1.10
5945.00,1.10
5944.00,1.10
5943.00,1.09
5942.00,1.09
5941.00,1.09
5940.00,1.09
5939.00,1.09
5938.00,1.09
5937.00,1.09
5936.00,1.09
5935.00,1.08
5934.00,1.08
5933.00,1.08
5932.00,1.08
5931.00,1.08
5930.00,1.08
5929.00,1.08
5928.00,1.08
5927.00,1.08
5926.00,1.08
5925.00,1.08
5924.00,1.07
5923.00,1.07
5922.00,1.07
5921.00,1.07
5920.00,1.07
5919.00,1.06
5918.00,1.06
5917.00,1.06
5916.00,1.06
5915.00,1.06
5914.00,1.05
5913.00,1.05
5912.00,1.05
5911.00,1.05
5910.00,1.05
5909.00,1.05
5908.00,1.04
5907.00,1.04
5906.00,1.04
5905.00,1.04
5904.00,1.04
5903.00,1.04
5902.00,1.04
5901.00,1.04
5900.00,1.04
5899.00,1.04
5898.00,1.04
5897.00,1.05
5896.00,1.05
5895.00,1.05
5894.00,1.05
5893.00,1.05
5892.00,1.06
5891.00,1.06
5890.00,1.06
5889.00,1.06
5888.00,1.06
5887.00,1.07
5886.00,1.07
5885.00,1.07
5884.00,1.07
5883.00,1.08
5882.00,1.08
5881.00,1.08
5880.00,1.08
5879.00,1.09
5878.00,1.09
5877.00,1.09
5876.00,1.09
5875.00,1.09
5874.00,1.10
5873.00,1.10
5872.00,1.10
5871.00,1.10
5870.00,1.10
5869.00,1.10
5868.00,1.11
5867.00,1.11
5866.00,1.11
5865.00,1.11
5864.00,1.11
5863.00,1.11
5862.00,1.12
5861.00,1.12
5860.00,1.12
5859.00,1.12
5858.00,1.12
5857.00,1.12
5856.00,1.12
5855.00,1.12
5854.00,1.12
5853.00,1.12
5852.00,1.13
5851.00,1.13
5850.00,1.13
5849.00,1.13
5848.00,1.13
5847.00,1.13
5846.00,1.13
5845.00,1.13
5844.00,1.13
5843.00,1.13
5842.00,1.13
5841.00,1.13
5840.00,1.13
5839.00,1.13
5838.00,1.13
5837.00,1.12
5836.00,1.12
5835.00,1.12
5834.00,1.12
5833.00,1.12
5832.00,1.12
5831.00,1.12
5830.00,1.12
5829.00,1.12
5828.00,1.12
5827.00,1.12
5826.00,1.12
5825.00,1.12
5824.00,1.12
5823.00,1.12
5822.00,1.13
5821.00,1.13
5820.00,1.13
5819.00,1.13
5818.00,1.13
5817.00,1.13
5816.00,1.13
5815.00,1.13
5814.00,1.13
5813.00,1.13
5812.00,1.13
5811.00,1.13
5810.00,1.13
5809.00,1.13
5808.00,1.12
5807.00,1.12
5806.00,1.12
5805.00,1.12
5804.00,1.12
5803.00,1.12
5802.00,1.12
5801.00,1.12
5800.00,1.11
5799.00,1.11
5798.00,1.11
5797.00,1.11
5796.00,1.11
5795.00,1.11
5794.00,1.10
5793.00,1.10
5792.00,1.10
5791.00,1.10
5790.00,1.10
5789.00,1.10
5788.00,1.09
5787.00,1.09
5786.00,1.09
5785.00,1.09
5784.00,1.09
5783.00,1.09
5782.00,1.09
5781.00,1.08
5780.00,1.08
5779.00,1.08
5778.00,1.08
5777.00,1.08
5776.00,1.08
5775.00,1.08
5774.00,1.08
5773.00,1.08
5772.00,1.08
5771.00,1.08
5770.00,1.08
5769.00,1.08
5768.00,1.08
5767.00,1.09
5766.00,1.09
5765.00,1.09
5764.00,1.09
5763.00,1.09
5762.00,1.09
5761.00,1.10
5760.00,1.10
5759.00,1.10
5758.00,1.10
5757.00,1.10
5756.00,1.11
5755.00,1.11
5754.00,1.11
5753.00,1.11
5752.00,1.12
5751.00,1.12
5750.00,1.12
5749.00,1.12
5748.00,1.13
5747.00,1.13
5746.00,1.13
5745.00,1.13
5744.00,1.14
5743.00,1.14
5742.00,1.14
5741.00,1.14
5740.00,1.15
5739.00,1.15
5738.00,1.15
5737.00,1.15
5736.00,1.15
5735.00,1.15
5734.00,1.15
5733.00,1.16
5732.00,1.16
5731.00,1.16
5730.00,1.16
5729.00,1.16
5728.00,1.16
5727.00,1.16
5726.00,1.16
5725.00,1.16
5724.00,1.16
5723.00,1.16
5722.00,1.16
5721.00,1.16
5720.00,1.16
5719.00,1.16
5718.00,1.16
5717.00,1.16
5716.00,1.16
5715.00,1.16
5714.00,1.16
5713.00,1.16
5712.00,1.16
5711.00,1.15
5710.00,1.15
5709.00,1.15
5708.00,1.15
5707.00,1.15
5706.00,1.15
5705.00,1.15
5704.00,1.15
5703.00,1.14
5702.00,1.14
5701.00,1.14
5700.00,1.14
5699.00,1.14
5698.00,1.14
5697.00,1.14
5696.00,1.13
5695.00,1.13
5694.00,1.13
5693.00,1.13
5692.00,1.13
5691.00,1.13
5690.00,1.12
5689.00,1.12
5688.00,1.12
5687.00,1.12
5686.00,1.12
5685.00,1.12
5684.00,1.12
5683.00,1.11
5682.00,1.11
5681.00,1.11
5680.00,1.11
5679.00,1.11
5678.00,1.11
5677.00,1.11
5676.00,1.11
5675.00,1.11
5674.00,1.11
5673.00,1.11
5672.00,1.11
5671.00,1.11
5670.00,1.11
5669.00,1.11
5668.00,1.11
5667.00,1.11
5666.00,1.11
5665.00,1.11
5664.00,1.12
5663.00,1.12
5662.00,1.12
5661.00,1.12
5660.00,1.12
5659.00,1.12
5658.00,1.12
5657.00,1.12
5656.00,1.12
5655.00,1.12
5654.00,1.13
5653.00,1.13
5652.00,1.13
5651.00,1.13
5650.00,1.13
5649.00,1.13
5648.00,1.13
5647.00,1.13
5646.00,1.14
5645.00,1.14
5644.00,1.14
5643.00,1.14
5642.00,1.14
5641.00,1.14
5640.00,1.14
5639.00,1.14
5638.00,1.14
5637.00,1.15
5636.00,1.15
5635.00,1.15
5634.00,1.15
5633.00,1.15
5632.00,1.15
5631.00,1.15
5630.00,1.15
5629.00,1.16
5628.00,1.16
5627.00,1.16
5626.00,1.16
5625.00,1.16
5624.00,1.16
5623.00,1.16
5622.00,1.16
5621.00,1.17
5620.00,1.17
5619.00,1.17
5618.00,1.17
5617.00,1.17
5616.00,1.17
5615.00,1.17
5614.00,1.18
5613.00,1.18
5612.00,1.18
5611.00,1.18
5610.00,1.18
5609.00,1.18
5608.00,1.19
5607.00,1.19
5606.00,1.19
5605.00,1.19
5604.00,1.19
5603.00,1.19
5602.00,1.20
5601.00,1.20
5600.00,1.20
5599.00,1.20
5598.00,1.20
5597.00,1.20
5596.00,1.20
5595.00,1.21
5594.00,1.21
5593.00,1.21
5592.00,1.21
5591.00,1.21
5590.00,1.21
5589.00,1.21
5588.00,1.21
5587.00,1.21
5586.00,1.22
5585.00,1.22
5584.00,1.22
5583.00,1.22
5582.00,1.22
5581.00,1.22
5580.00,1.22
5579.00,1.22
5578.00,1.23
5577.00,1.23
5576.00,1.23
5575.00,1.23
5574.00,1.23
5573.00,1.23
5572.00,1.23
5571.00,1.23
5570.00,1.23
5569.00,1.24
5568.00,1.24
5567.00,1.24
5566.00,1.24
5565.00,1.24
5564.00,1.24
5563.00,1.24
5562.00,1.25
5561.00,1.25
5560.00,1.25
5559.00,1.25
5558.00,1.25
5557.00,1.25
5556.00,1.25
5555.00,1.25
5554.00,1.26
5553.00,1.26
5552.00,1.26
5551.00,1.26
5550.00,1.26
5549.00,1.26
5548.00,1.26
5547.00,1.26
5546.00,1.26
5545.00,1.26
5544.00,1.26
5543.00,1.27
5542.00,1.27
5541.00,1.27
5540.00,1.27
5539.00,1.27
5538.00,1.27
5537.00,1.27
5536.00,1.27
5535.00,1.27
5534.00,1.27
5533.00,1.27
5532.00,1.28
5531.00,1.28
5530.00,1.28
5529.00,1.28
5528.00,1.28
5527.00,1.28
5526.00,1.28
5525.00,1.28
5524.00,1.28
5523.00,1.28
5522.00,1.28
5521.00,1.29
5520.00,1.29
5519.00,1.29
5518.00,1.29
5517.00,1.29
5516.00,1.29
5515.00,1.29
5514.00,1.29
5513.00,1.29
5512.00,1.29
5511.00,1.29
5510.00,1.29
5509.00,1.29
5508.00,1.29
5507.00,1.30
5506.00,1.30
5505.00,1.30
5504.00,1.30
5503.00,1.30
5502.00,1.30
5501.00,1.30
5500.00,1.30
5499.00,1.30
5498.00,1.30
5497.00,1.30
5496.00,1.30
5495.00,1.30
5494.00,1.31
5493.00,1.31
5492.00,1.31
5491.00,1.31
5490.00,1.31
5489.00,1.31
5488.00,1.31
5487.00,1.31
5486.00,1.31
5485.00,1.31
5484.00,1.31
5483.00,1.31
5482.00,1.31
5481.00,1.32
5480.00,1.32
5479.00,1.32
5478.00,1.32
5477.00,1.32
5476.00,1.32
5475.00,1.32
5474.00,1.32
5473.00,1.33
5472.00,1.33
5471.00,1.33
5470.00,1.33
5469.00,1.33
5468.00,1.33
5467.00,1.33
5466.00,1.33
5465.00,1.33
5464.00,1.33
5463.00,1.34
5462.00,1.34
5461.00,1.34
5460.00,1.34
5459.00,1.34
5458.00,1.34
5457.00,1.34
5456.00,1.34
5455.00,1.34
5454.00,1.34
5453.00,1.34
5452.00,1.34
5451.00,1.34
5450.00,1.34
5449.00,1.34
5448.00,1.34
5447.00,1.34
5446.00,1.34
5445.00,1.34
5444.00,1.34
5443.00,1.34
5442.00,1.34
5441.00,1.34
5440.00,1.34
5439.00,1.34
5438.00,1.34
5437.00,1.34
5436.00,1.34
5435.00,1.34
5434.00,1.34
5433.00,1.34
5432.00,1.34
5431.00,1.34
5430.00,1.34
5429.00,1.34
5428.00,1.34
5427.00,1.34
5426.00,1.34
5425.00,1.34
5424.00,1.34
5423.00,1.34
5422.00,1.34
5421.00,1.34
5420.00,1.33
5419.00,1.33
5418.00,1.33
5417.00,1.33
5416.00,1.33
5415.00,1.33
5414.00,1.33
5413.00,1.33
5412.00,1.33
5411.00,1.33
5410.00,1.33
5409.00,1.32
5408.00,1.32
5407.00,1.32
5406.00,1.32
5405.00,1.32
5404.00,1.32
5403.00,1.32
5402.00,1.32
5401.00,1.32
5400.00,1.32
5399.00,1.32
5398.00,1.32
5397.00,1.31
5396.00,1.31
5395.00,1.31
5394.00,1.31
5393.00,1.31
5392.00,1.31
5391.00,1.30
5390.00,1.30
5389.00,1.30
5388.00,1.30
5387.00,1.29
5386.00,1.29
5385.00,1.29
5384.00,1.28
5383.00,1.28
5382.00,1.27
5381.00,1.27
5380.00,1.27
5379.00,1.26
5378.00,1.26
5377.00,1.25
5376.00,1.25
5375.00,1.24
5374.00,1.24
5373.00,1.23
5372.00,1.23
5371.00,1.22
5370.00,1.22
5369.00,1.21
5368.00,1.20
5367.00,1.20
5366.00,1.19
5365.00,1.19
5364.00,1.18
5363.00,1.17
5362.00,1.17
5361.00,1.16
5360.00,1.15
5359.00,1.15
5358.00,1.14
5357.00,1.13
5356.00,1.12
5355.00,1.12
5354.00,1.11
5353.00,1.10
5352.00,1.09
5351.00,1.08
5350.00,1.07
5349.00,1.06
5348.00,1.05
5347.00,1.04
5346.00,1.03
5345.00,1.02
5344.00,1.01
5343.00,1.01
5342.00,1.00
5341.00,0.99
5340.00,0.98
5339.00,0.97
5338.00,0.96
5337.00,0.95
5336.00,0.94
5335.00,0.93
5334.00,0.92
5333.00,0.92
5332.00,0.91
5331.00,0.90
5330.00,0.89
5329.00,0.88
5328.00,0.87
5327.00,0.87
5326.00,0.86
5325.00,0.85
5324.00,0.84
5323.00,0.83
5322.00,0.83
5321.00,0.82
5320.00,0.81
5319.00,0.80
5318.00,0.79
5317.00,0.79
5316.00,0.78
5315.00,0.77
5314.00,0.77
5313.00,0.76
5312.00,0.75
5311.00,0.75
5310.00,0.74
5309.00,0.74
5308.00,0.73
5307.00,0.73
5306.00,0.72
5305.00,0.72
5304.00,0.71
5303.00,0.71
5302.00,0.71
5301.00,0.70
5300.00,0.70
5299.00,0.70
5298.00,0.70
5297.00,0.69
5296.00,0.69
5295.00,0.69
5294.00,0.68
5293.00,0.68
5292.00,0.68
5291.00,0.68
5290.00,0.68
5289.00,0.67
5288.00,0.67
5287.00,0.67
5286.00,0.67
5285.00,0.67
5284.00,0.67
5283.00,0.67
5282.00,0.66
5281.00,0.66
5280.00,0.66
5279.00,0.66
5278.00,0.66
5277.00,0.66
5276.00,0.66
5275.00,0.66
5274.00,0.66
5273.00,0.66
5272.00,0.66
5271.00,0.66
5270.00,0.66
5269.00,0.66
5268.00,0.66
5267.00,0.66
5266.00,0.66
5265.00,0.66
5264.00,0.66
5263.00,0.66
5262.00,0.66
5261.00,0.66
5260.00,0.66
5259.00,0.66
5258.00,0.66
5257.00,0.66
5256.00,0.66
5255.00,0.66
5254.00,0.66
5253.00,0.66
5252.00,0.66
5251.00,0.66
5250.00,0.66
5249.00,0.66
5248.00,0.66
5247.00,0.66
5246.00,0.66
5245.00,0.66
5244.00,0.66
5243.00,0.67
5242.00,0.67
5241.00,0.67
5240.00,0.67
5239.00,0.67
5238.00,0.67
5237.00,0.67
5236.00,0.67
5235.00,0.67
5234.00,0.67
5233.00,0.67
5232.00,0.67
5231.00,0.67
5230.00,0.67
5229.00,0.67
5228.00,0.67
5227.00,0.67
5226.00,0.67
5225.00,0.67
5224.00,0.67
5223.00,0.67
5222.00,0.67
5221.00,0.67
5220.00,0.67
5219.00,0.67
5218.00,0.67
5217.00,0.67
5216.00,0.67
5215.00,0.68
5214.00,0.68
5213.00,0.68
5212.00,0.68
5211.00,0.68
5210.00,0.68
5209.00,0.68
5208.00,0.68
5207.00,0.68
5206.00,0.68
5205.00,0.68
5204.00,0.68
5203.00,0.68
5202.00,0.68
5201.00,0.68
5200.00,0.68
5199.00,0.68
5198.00,0.68
5197.00,0.68
5196.00,0.68
5195.00,0.68
5194.00,0.68
5193.00,0.68
5192.00,0.68
5191.00,0.68
5190.00,0.68
5189.00,0.68
5188.00,0.68
5187.00,0.68
5186.00,0.68
5185.00,0.68
5184.00,0.68
5183.00,0.68
5182.00,0.68
5181.00,0.68
5180.00,0.68
5179.00,0.68
5178.00,0.68
5177.00,0.68
5176.00,0.69
5175.00,0.69
5174.00,0.69
5173.00,0.69
5172.00,0.69
5171.00,0.69
5170.00,0.69
5169.00,0.69
5168.00,0.69
5167.00,0.69
5166.00,0.69
5165.00,0.69
5164.00,0.69
5163.00,0.69
5162.00,0.69
5161.00,0.69
5160.00,0.69
5159.00,0.69
5158.00,0.70
5157.00,0.70
5156.00,0.70
5155.00,0.70
5154.00,0.70
5153.00,0.70
5152.00,0.70
5151.00,0.70
5150.00,0.70
5149.00,0.70
5148.00,0.70
5147.00,0.70
5146.00,0.70
5145.00,0.70
5144.00,0.70
5143.00,0.70
5142.00,0.70
5141.00,0.70
5140.00,0.70
5139.00,0.70
5138.00,0.70
5137.00,0.70
5136.00,0.70
5135.00,0.70
5134.00,0.70
5133.00,0.70
5132.00,0.70
5131.00,0.70
5130.00,0.70
5129.00,0.71
5128.00,0.71
5127.00,0.71
5126.00,0.71
5125.00,0.71
5124.00,0.71
5123.00,0.71
5122.00,0.71
5121.00,0.71
5120.00,0.71
5119.00,0.71
5118.00,0.71
5117.00,0.71
5116.00,0.71
5115.00,0.71
5114.00,0.71
5113.00,0.71
5112.00,0.71
5111.00,0.71
5110.00,0.71
5109.00,0.71
5108.00,0.71
5107.00,0.72
5106.00,0.72
5105.00,0.72
5104.00,0.72
5103.00,0.72
5102.00,0.72
5101.00,0.72
5100.00,0.72
5099.00,0.72
5098.00,0.72
5097.00,0.72
5096.00,0.73
5095.00,0.73
5094.00,0.73
5093.00,0.73
5092.00,0.73
5091.00,0.73
5090.00,0.73
5089.00,0.73
5088.00,0.73
5087.00,0.73
5086.00,0.73
5085.00,0.73
5084.00,0.73
5083.00,0.73
5082.00,0.73
5081.00,0.73
5080.00,0.73
5079.00,0.73
5078.00,0.73
5077.00,0.73
5076.00,0.73
5075.00,0.73
5074.00,0.73
5073.00,0.73
5072.00,0.73
5071.00,0.73
5070.00,0.73
5069.00,0.73
5068.00,0.74
5067.00,0.74
5066.00,0.74
5065.00,0.74
5064.00,0.74
5063.00,0.74
5062.00,0.74
5061.00,0.74
5060.00,0.74
5059.00,0.74
5058.00,0.74
5057.00,0.74
5056.00,0.74
5055.00,0.74
5054.00,0.74
5053.00,0.74
5052.00,0.74
5051.00,0.74
5050.00,0.74
5049.00,0.74
5048.00,0.74
5047.00,0.74
5046.00,0.74
5045.00,0.74
5044.00,0.74
5043.00,0.75
5042.00,0.75
5041.00,0.75
5040.00,0.75
5039.00,0.75
5038.00,0.75
5037.00,0.75
5036.00,0.75
5035.00,0.75
5034.00,0.75
5033.00,0.75
5032.00,0.75
5031.00,0.75
5030.00,0.75
5029.00,0.75
5028.00,0.76
5027.00,0.76
5026.00,0.76
5025.00,0.76
5024.00,0.76
5023.00,0.76
5022.00,0.76
5021.00,0.76
5020.00,0.76
5019.00,0.76
5018.00,0.76
5017.00,0.76
5016.00,0.76
5015.00,0.76
5014.00,0.76
5013.00,0.76
5012.00,0.76
5011.00,0.76
5010.00,0.76
5009.00,0.76
5008.00,0.76
5007.00,0.77
5006.00,0.77
5005.00,0.77
5004.00,0.77
5003.00,0.77
5002.00,0.77
5001.00,0.77
5000.00,0.77
4999.00,0.77
4998.00,0.78
4997.00,0.78
4996.00,0.78
4995.00,0.78
4994.00,0.78
4993.00,0.78
4992.00,0.78
4991.00,0.78
4990.00,0.78
4989.00,0.78
4988.00,0.78
4987.00,0.79
4986.00,0.79
4985.00,0.79
4984.00,0.79
4983.00,0.79
4982.00,0.79
4981.00,0.79
4980.00,0.79
4979.00,0.79
4978.00,0.79
4977.00,0.79
4976.00,0.79
4975.00,0.79
4974.00,0.79
4973.00,0.79
4972.00,0.79
4971.00,0.79
4970.00,0.79
4969.00,0.79
4968.00,0.79
4967.00,0.79
4966.00,0.79
4965.00,0.79
4964.00,0.79
4963.00,0.80
4962.00,0.80
4961.00,0.80
4960.00,0.80
4959.00,0.80
4958.00,0.80
4957.00,0.80
4956.00,0.80
4955.00,0.80
4954.00,0.80
4953.00,0.80
4952.00,0.80
4951.00,0.80
4950.00,0.80
4949.00,0.80
4948.00,0.80
4947.00,0.81
4946.00,0.81
4945.00,0.81
4944.00,0.81
4943.00,0.81
4942.00,0.81
4941.00,0.81
4940.00,0.81
4939.00,0.81
4938.00,0.81
4937.00,0.81
4936.00,0.81
4935.00,0.82
4934.00,0.82
4933.00,0.82
4932.00,0.82
4931.00,0.82
4930.00,0.82
4929.00,0.82
4928.00,0.82
4927.00,0.82
4926.00,0.82
4925.00,0.82
4924.00,0.82
4923.00,0.82
4922.00,0.83
4921.00,0.83
4920.00,0.83
4919.00,0.83
4918.00,0.83
4917.00,0.83
4916.00,0.83
4915.00,0.83
4914.00,0.83
4913.00,0.83
4912.00,0.83
4911.00,0.84
4910.00,0.84
4909.00,0.84
4908.00,0.84
4907.00,0.84
4906.00,0.84
4905.00,0.84
4904.00,0.84
4903.00,0.84
4902.00,0.84
4901.00,0.84
4900.00,0.84
4899.00,0.84
4898.00,0.84
4897.00,0.84
4896.00,0.84
4895.00,0.84
4894.00,0.84
4893.00,0.84
4892.00,0.84
4891.00,0.84
4890.00,0.84
4889.00,0.84
4888.00,0.84
4887.00,0.84
4886.00,0.85
4885.00,0.85
4884.00,0.85
4883.00,0.85
4882.00,0.85
4881.00,0.85
4880.00,0.85
4879.00,0.85
4878.00,0.85
4877.00,0.85
4876.00,0.85
4875.00,0.85
4874.00,0.86
4873.00,0.86
4872.00,0.86
4871.00,0.86
4870.00,0.86
4869.00,0.86
4868.00,0.86
4867.00,0.86
4866.00,0.86
4865.00,0.86
4864.00,0.86
4863.00,0.86
4862.00,0.86
4861.00,0.86
4860.00,0.86
4859.00,0.86
4858.00,0.87
4857.00,0.87
4856.00,0.87
4855.00,0.87
4854.00,0.87
4853.00,0.87
4852.00,0.87
4851.00,0.87
4850.00,0.87
4849.00,0.87
4848.00,0.87
4847.00,0.87
4846.00,0.87
4845.00,0.87
4844.00,0.87
4843.00,0.87
4842.00,0.87
4841.00,0.87
4840.00,0.87
4839.00,0.87
4838.00,0.88
4837.00,0.88
4836.00,0.88
4835.00,0.88
4834.00,0.88
4833.00,0.88
4832.00,0.88
4831.00,0.88
4830.00,0.88
4829.00,0.88
4828.00,0.88
4827.00,0.89
4826.00,0.89
4825.00,0.89
4824.00,0.89
4823.00,0.89
4822.00,0.89
4821.00,0.89
4820.00,0.89
4819.00,0.89
4818.00,0.89
4817.00,0.89
4816.00,0.90
4815.00,0.90
4814.00,0.90
4813.00,0.90
4812.00,0.90
4811.00,0.90
4810.00,0.90
4809.00,0.90
4808.00,0.90
4807.00,0.90
4806.00,0.90
4805.00,0.91
4804.00,0.91
4803.00,0.91
4802.00,0.91
4801.00,0.91
4800.00,0.91
4799.00,0.91
4798.00,0.91
4797.00,0.92
4796.00,0.92
4795.00,0.92
4794.00,0.92
4793.00,0.92
4792.00,0.92
4791.00,0.93
4790.00,0.93
4789.00,0.93
4788.00,0.93
4787.00,0.93
4786.00,0.93
4785.00,0.93
4784.00,0.94
4783.00,0.94
4782.00,0.94
4781.00,0.94
4780.00,0.94
4779.00,0.94
4778.00,0.94
4777.00,0.94
4776.00,0.94
4775.00,0.94
4774.00,0.95
4773.00,0.95
4772.00,0.95
4771.00,0.95
4770.00,0.95
4769.00,0.95
4768.00,0.95
4767.00,0.95
4766.00,0.95
4765.00,0.95
4764.00,0.95
4763.00,0.96
4762.00,0.96
4761.00,0.96
4760.00,0.96
4759.00,0.96
4758.00,0.96
4757.00,0.97
4756.00,0.97
4755.00,0.97
4754.00,0.97
4753.00,0.97
4752.00,0.97
4751.00,0.97
4750.00,0.97
4749.00,0.97
4748.00,0.97
4747.00,0.97
4746.00,0.98
4745.00,0.98
4744.00,0.98
4743.00,0.98
4742.00,0.98
4741.00,0.98
4740.00,0.98
4739.00,0.98
4738.00,0.98
4737.00,0.99
4736.00,0.99
4735.00,0.99
4734.00,0.99
4733.00,0.99
4732.00,1.00
4731.00,1.00
4730.00,1.00
4729.00,1.00
4728.00,1.01
4727.00,1.01
4726.00,1.01
4725.00,1.01
4724.00,1.01
4723.00,1.01
4722.00,1.02
4721.00,1.02
4720.00,1.02
4719.00,1.02
4718.00,1.02
4717.00,1.02
4716.00,1.02
4715.00,1.03
4714.00,1.03
4713.00,1.03
4712.00,1.03
4711.00,1.03
4710.00,1.03
4709.00,1.03
4708.00,1.03
4707.00,1.04
4706.00,1.04
4705.00,1.04
4704.00,1.04
4703.00,1.04
4702.00,1.04
4701.00,1.04
4700.00,1.04
4699.00,1.04
4698.00,1.04
4697.00,1.05
4696.00,1.05
4695.00,1.05
4694.00,1.05
4693.00,1.05
4692.00,1.05
4691.00,1.05
4690.00,1.05
4689.00,1.05
4688.00,1.05
4687.00,1.05
4686.00,1.05
4685.00,1.05
4684.00,1.05
4683.00,1.05
4682.00,1.05
4681.00,1.06
4680.00,1.06
4679.00,1.06
4678.00,1.06
4677.00,1.06
4676.00,1.06
4675.00,1.06
4674.00,1.06
4673.00,1.07
4672.00,1.07
4671.00,1.07
4670.00,1.07
4669.00,1.07
4668.00,1.07
4667.00,1.08
4666.00,1.08
4665.00,1.08
4664.00,1.08
4663.00,1.08
4662.00,1.08
4661.00,1.08
4660.00,1.09
4659.00,1.09
4658.00,1.09
4657.00,1.09
4656.00,1.09
4655.00,1.09
4654.00,1.09
4653.00,1.10
4652.00,1.10
4651.00,1.10
4650.00,1.10
4649.00,1.10
4648.00,1.10
4647.00,1.10
4646.00,1.10
4645.00,1.10
4644.00,1.11
4643.00,1.11
4642.00,1.11
4641.00,1.11
4640.00,1.11
4639.00,1.11
4638.00,1.11
4637.00,1.11
4636.00,1.11
4635.00,1.11
4634.00,1.11
4633.00,1.11
4632.00,1.11
4631.00,1.11
4630.00,1.12
4629.00,1.12
4628.00,1.12
4627.00,1.12
4626.00,1.12
4625.00,1.12
4624.00,1.12
4623.00,1.12
4622.00,1.13
4621.00,1.13
4620.00,1.13
4619.00,1.13
4618.00,1.13
4617.00,1.13
4616.00,1.14
4615.00,1.14
4614.00,1.14
4613.00,1.14
4612.00,1.14
4611.00,1.14
4610.00,1.14
4609.00,1.15
4608.00,1.15
4607.00,1.15
4606.00,1.15
4605.00,1.15
4604.00,1.15
4603.00,1.15
4602.00,1.15
4601.00,1.15
4600.00,1.15
4599.00,1.15
4598.00,1.15
4597.00,1.15
4596.00,1.15
4595.00,1.15
4594.00,1.15
4593.00,1.15
4592.00,1.16
4591.00,1.16
4590.00,1.16
4589.00,1.16
4588.00,1.16
4587.00,1.16
4586.00,1.16
4585.00,1.16
4584.00,1.16
4583.00,1.17
4582.00,1.17
4581.00,1.17
4580.00,1.17
4579.00,1.17
4578.00,1.17
4577.00,1.17
4576.00,1.17
4575.00,1.18
4574.00,1.18
4573.00,1.18
4572.00,1.18
4571.00,1.18
4570.00,1.18
4569.00,1.18
4568.00,1.18
4567.00,1.18
4566.00,1.18
4565.00,1.18
4564.00,1.18
4563.00,1.18
4562.00,1.18
4561.00,1.18
4560.00,1.18
4559.00,1.19
4558.00,1.19
4557.00,1.19
4556.00,1.19
4555.00,1.19
4554.00,1.19
4553.00,1.19
4552.00,1.19
4551.00,1.19
4550.00,1.20
4549.00,1.20
4548.00,1.20
4547.00,1.20
4546.00,1.20
4545.00,1.20
4544.00,1.20
4543.00,1.21
4542.00,1.21
4541.00,1.21
4540.00,1.21
4539.00,1.21
4538.00,1.21
4537.00,1.21
4536.00,1.21
4535.00,1.21
4534.00,1.22
4533.00,1.22
4532.00,1.22
4531.00,1.22
4530.00,1.22
4529.00,1.22
4528.00,1.22
4527.00,1.22
4526.00,1.22
4525.00,1.22
4524.00,1.22
4523.00,1.22
4522.00,1.22
4521.00,1.22
4520.00,1.22
4519.00,1.22
4518.00,1.22
4517.00,1.22
4516.00,1.22
4515.00,1.22
4514.00,1.22
4513.00,1.22
4512.00,1.22
4511.00,1.22
4510.00,1.22
4509.00,1.22
4508.00,1.22
4507.00,1.22
4506.00,1.22
4505.00,1.22
4504.00,1.22
4503.00,1.22
4502.00,1.22
4501.00,1.22
4500.00,1.22
4499.00,1.22
4498.00,1.22
4497.00,1.22
4496.00,1.22
4495.00,1.22
4494.00,1.22
4493.00,1.22
4492.00,1.22
4491.00,1.22
4490.00,1.22
4489.00,1.22
4488.00,1.21
4487.00,1.21
4486.00,1.21
4485.00,1.21
4484.00,1.21
4483.00,1.21
4482.00,1.21
4481.00,1.21
4480.00,1.21
4479.00,1.20
4478.00,1.20
4477.00,1.20
4476.00,1.20
4475.00,1.20
4474.00,1.20
4473.00,1.20
4472.00,1.19
4471.00,1.19
4470.00,1.19
4469.00,1.19
4468.00,1.19
4467.00,1.18
4466.00,1.18
4465.00,1.18
4464.00,1.18
4463.00,1.17
4462.00,1.17
4461.00,1.17
4460.00,1.17
4459.00,1.16
4458.00,1.16
4457.00,1.16
4456.00,1.15
4455.00,1.15
4454.00,1.15
4453.00,1.15
4452.00,1.14
4451.00,1.14
4450.00,1.14
4449.00,1.14
4448.00,1.13
4447.00,1.13
4446.00,1.13
4445.00,1.13
4444.00,1.12
4443.00,1.12
4442.00,1.12
4441.00,1.11
4440.00,1.11
4439.00,1.11
4438.00,1.11
4437.00,1.10
4436.00,1.10
4435.00,1.09
4434.00,1.09
4433.00,1.09
4432.00,1.09
4431.00,1.08
4430.00,1.08
4429.00,1.08
4428.00,1.07
4427.00,1.07
4426.00,1.07
4425.00,1.07
4424.00,1.07
4423.00,1.07
4422.00,1.07
4421.00,1.06
4420.00,1.06
4419.00,1.06
4418.00,1.06
4417.00,1.06
4416.00,1.06
4415.00,1.06
4414.00,1.06
4413.00,1.06
4412.00,1.06
4411.00,1.06
4410.00,1.06
4409.00,1.06
4408.00,1.06
4407.00,1.06
4406.00,1.07
4405.00,1.07
4404.00,1.07
4403.00,1.07
4402.00,1.07
4401.00,1.07
4400.00,1.07
4399.00,1.07
4398.00,1.07
4397.00,1.07
4396.00,1.08
4395.00,1.08
4394.00,1.08
4393.00,1.08
4392.00,1.08
4391.00,1.08
4390.00,1.09
4389.00,1.09
4388.00,1.09
4387.00,1.09
4386.00,1.09
4385.00,1.09
4384.00,1.09
4383.00,1.10
4382.00,1.10
4381.00,1.10
4380.00,1.10
4379.00,1.10
4378.00,1.10
4377.00,1.10
4376.00,1.10
4375.00,1.10
4374.00,1.10
4373.00,1.10
4372.00,1.10
4371.00,1.10
4370.00,1.10
4369.00,1.10
4368.00,1.10
4367.00,1.10
4366.00,1.10
4365.00,1.10
4364.00,1.10
4363.00,1.10
4362.00,1.10
4361.00,1.10
4360.00,1.10
4359.00,1.10
4358.00,1.10
4357.00,1.10
4356.00,1.10
4355.00,1.10
4354.00,1.10
4353.00,1.10
4352.00,1.10
4351.00,1.10
4350.00,1.10
4349.00,1.10
4348.00,1.10
4347.00,1.09
4346.00,1.09
4345.00,1.09
4344.00,1.09
4343.00,1.09
4342.00,1.09
4341.00,1.09
4340.00,1.09
4339.00,1.09
4338.00,1.09
4337.00,1.09
4336.00,1.10
4335.00,1.10
4334.00,1.10
4333.00,1.10
4332.00,1.10
4331.00,1.10
4330.00,1.10
4329.00,1.10
4328.00,1.11
4327.00,1.11
4326.00,1.11
4325.00,1.11
4324.00,1.12
4323.00,1.12
4322.00,1.12
4321.00,1.12
4320.00,1.12
4319.00,1.13
4318.00,1.13
4317.00,1.13
4316.00,1.13
4315.00,1.13
4314.00,1.13
4313.00,1.13
4312.00,1.13
4311.00,1.14
4310.00,1.14
4309.00,1.14
4308.00,1.14
4307.00,1.14
4306.00,1.14
4305.00,1.14
4304.00,1.14
4303.00,1.15
4302.00,1.15
4301.00,1.15
4300.00,1.15
4299.00,1.15
4298.00,1.16
4297.00,1.16
4296.00,1.16
4295.00,1.16
4294.00,1.16
4293.00,1.17
4292.00,1.17
4291.00,1.17
4290.00,1.17
4289.00,1.17
4288.00,1.17
4287.00,1.17
4286.00,1.17
4285.00,1.17
4284.00,1.17
4283.00,1.17
4282.00,1.17
4281.00,1.17
4280.00,1.17
4279.00,1.17
4278.00,1.17
4277.00,1.17
4276.00,1.17
4275.00,1.17
4274.00,1.17
4273.00,1.17
4272.00,1.17
4271.00,1.17
4270.00,1.17
4269.00,1.17
4268.00,1.17
4267.00,1.17
4266.00,1.17
4265.00,1.17
4264.00,1.17
4263.00,1.17
4262.00,1.17
4261.00,1.18
4260.00,1.18
4259.00,1.18
4258.00,1.18
4257.00,1.18
4256.00,1.18
4255.00,1.18
4254.00,1.18
4253.00,1.18
4252.00,1.18
4251.00,1.18
4250.00,1.18
4249.00,1.18
4248.00,1.18
4247.00,1.18
4246.00,1.18
4245.00,1.18
4244.00,1.18
4243.00,1.18
4242.00,1.18
4241.00,1.18
4240.00,1.18
4239.00,1.19
4238.00,1.19
4237.00,1.19
4236.00,1.19
4235.00,1.19
4234.00,1.19
4233.00,1.19
4232.00,1.19
4231.00,1.19
4230.00,1.20
4229.00,1.20
4228.00,1.20
4227.00,1.20
4226.00,1.20
4225.00,1.20
4224.00,1.20
4223.00,1.20
4222.00,1.21
4221.00,1.21
4220.00,1.21
4219.00,1.21
4218.00,1.21
4217.00,1.21
4216.00,1.21
4215.00,1.21
4214.00,1.21
4213.00,1.21
4212.00,1.21
4211.00,1.21
4210.00,1.21
4209.00,1.21
4208.00,1.21
4207.00,1.21
4206.00,1.20
4205.00,1.20
4204.00,1.20
4203.00,1.20
4202.00,1.20
4201.00,1.20
4200.00,1.20
4199.00,1.20
4198.00,1.20
4197.00,1.20
4196.00,1.20
4195.00,1.20
4194.00,1.20
4193.00,1.20
4192.00,1.20
4191.00,1.21
4190.00,1.21
4189.00,1.21
4188.00,1.21
4187.00,1.21
4186.00,1.21
4185.00,1.21
4184.00,1.21
4183.00,1.21
4182.00,1.21
4181.00,1.22
4180.00,1.22
4179.00,1.22
4178.00,1.22
4177.00,1.22
4176.00,1.22
4175.00,1.22
4174.00,1.22
4173.00,1.22
4172.00,1.22
4171.00,1.23
4170.00,1.23
4169.00,1.23
4168.00,1.23
4167.00,1.23
4166.00,1.23
4165.00,1.23
4164.00,1.23
4163.00,1.23
4162.00,1.23
4161.00,1.23
4160.00,1.23
4159.00,1.23
4158.00,1.23
4157.00,1.23
4156.00,1.23
4155.00,1.23
4154.00,1.23
4153.00,1.23
4152.00,1.23
4151.00,1.23
4150.00,1.23
4149.00,1.23
4148.00,1.23
4147.00,1.23
4146.00,1.23
4145.00,1.23
4144.00,1.23
4143.00,1.23
4142.00,1.23
4141.00,1.23
4140.00,1.24
4139.00,1.24
4138.00,1.24
4137.00,1.24
4136.00,1.24
4135.00,1.24
4134.00,1.25
4133.00,1.25
4132.00,1.25
4131.00,1.25
4130.00,1.25
4129.00,1.25
4128.00,1.25
4127.00,1.25
4126.00,1.25
4125.00,1.25
4124.00,1.25
4123.00,1.25
4122.00,1.25
4121.00,1.26
4120.00,1.26
4119.00,1.26
4118.00,1.26
4117.00,1.26
4116.00,1.26
4115.00,1.26
4114.00,1.26
4113.00,1.26
4112.00,1.27
4111.00,1.27
4110.00,1.27
4109.00,1.27
4108.00,1.27
4107.00,1.27
4106.00,1.27
4105.00,1.27
4104.00,1.27
4103.00,1.27
4102.00,1.27
4101.00,1.27
4100.00,1.27
4099.00,1.27
4098.00,1.27
4097.00,1.27
4096.00,1.27
4095.00,1.27
4094.00,1.27
4093.00,1.27
4092.00,1.27
4091.00,1.27
4090.00,1.27
4089.00,1.27
4088.00,1.27
4087.00,1.27
4086.00,1.27
4085.00,1.27
4084.00,1.27
4083.00,1.27
4082.00,1.28
4081.00,1.28
4080.00,1.28
4079.00,1.28
4078.00,1.28
4077.00,1.28
4076.00,1.28
4075.00,1.28
4074.00,1.28
4073.00,1.28
4072.00,1.28
4071.00,1.28
4070.00,1.28
4069.00,1.28
4068.00,1.28
4067.00,1.28
4066.00,1.27
4065.00,1.27
4064.00,1.27
4063.00,1.27
4062.00,1.27
4061.00,1.27
4060.00,1.27
4059.00,1.27
4058.00,1.27
4057.00,1.27
4056.00,1.27
4055.00,1.27
4054.00,1.27
4053.00,1.27
4052.00,1.27
4051.00,1.27
4050.00,1.27
4049.00,1.27
4048.00,1.27
4047.00,1.27
4046.00,1.27
4045.00,1.27
4044.00,1.27
4043.00,1.27
4042.00,1.27
4041.00,1.27
4040.00,1.27
4039.00,1.27
4038.00,1.27
4037.00,1.27
4036.00,1.27
4035.00,1.27
4034.00,1.27
4033.00,1.27
4032.00,1.27
4031.00,1.27
4030.00,1.28
4029.00,1.28
4028.00,1.28
4027.00,1.28
4026.00,1.28
4025.00,1.28
4024.00,1.28
4023.00,1.29
4022.00,1.29
4021.00,1.29
4020.00,1.29
4019.00,1.29
4018.00,1.30
4017.00,1.30
4016.00,1.30
4015.00,1.30
4014.00,1.31
4013.00,1.31
4012.00,1.31
4011.00,1.32
4010.00,1.32
4009.00,1.32
4008.00,1.32
4007.00,1.33
4006.00,1.33
4005.00,1.33
4004.00,1.33
4003.00,1.33
4002.00,1.34
4001.00,1.34
4000.00,1.34
