创建为新数据集,样品 054 用户 Administrator 日期 星期三, 十一月 01 2017
cm-1,%T
10000.00,1.32
9999.00,1.32
9998.00,1.32
9997.00,1.32
9996.00,1.32
9995.00,1.32
9994.00,1.32
9993.00,1.32
9992.00,1.31
9991.00,1.31
9990.00,1.31
9989.00,1.31
9988.00,1.31
9987.00,1.31
9986.00,1.31
9985.00,1.30
9984.00,1.30
9983.00,1.30
9982.00,1.30
9981.00,1.30
9980.00,1.30
9979.00,1.30
9978.00,1.30
9977.00,1.30
9976.00,1.31
9975.00,1.31
9974.00,1.31
9973.00,1.31
9972.00,1.31
9971.00,1.31
9970.00,1.32
9969.00,1.32
9968.00,1.32
9967.00,1.32
9966.00,1.32
9965.00,1.32
9964.00,1.32
9963.00,1.32
9962.00,1.32
9961.00,1.32
9960.00,1.32
9959.00,1.31
9958.00,1.31
9957.00,1.31
9956.00,1.31
9955.00,1.31
9954.00,1.31
9953.00,1.31
9952.00,1.30
9951.00,1.30
9950.00,1.30
9949.00,1.30
9948.00,1.30
9947.00,1.30
9946.00,1.31
9945.00,1.31
9944.00,1.31
9943.00,1.31
9942.00,1.31
9941.00,1.31
9940.00,1.31
9939.00,1.31
9938.00,1.31
9937.00,1.31
9936.00,1.31
9935.00,1.30
9934.00,1.30
9933.00,1.30
9932.00,1.30
9931.00,1.30
9930.00,1.30
9929.00,1.29
9928.00,1.29
9927.00,1.29
9926.00,1.29
9925.00,1.29
9924.00,1.29
9923.00,1.29
9922.00,1.29
9921.00,1.29
9920.00,1.29
9919.00,1.29
9918.00,1.30
9917.00,1.30
9916.00,1.30
9915.00,1.30
9914.00,1.31
9913.00,1.31
9912.00,1.31
9911.00,1.31
9910.00,1.31
9909.00,1.32
9908.00,1.32
9907.00,1.32
9906.00,1.32
9905.00,1.32
9904.00,1.32
9903.00,1.32
9902.00,1.32
9901.00,1.31
9900.00,1.31
9899.00,1.31
9898.00,1.31
9897.00,1.30
9896.00,1.30
9895.00,1.30
9894.00,1.30
9893.00,1.30
9892.00,1.29
9891.00,1.29
9890.00,1.29
9889.00,1.29
9888.00,1.29
9887.00,1.29
9886.00,1.29
9885.00,1.29
9884.00,1.29
9883.00,1.29
9882.00,1.29
9881.00,1.29
9880.00,1.29
9879.00,1.29
9878.00,1.29
9877.00,1.29
9876.00,1.29
9875.00,1.29
9874.00,1.29
9873.00,1.29
9872.00,1.30
9871.00,1.30
9870.00,1.30
9869.00,1.30
9868.00,1.30
9867.00,1.30
9866.00,1.30
9865.00,1.30
9864.00,1.30
9863.00,1.30
9862.00,1.30
9861.00,1.30
9860.00,1.30
9859.00,1.30
9858.00,1.30
9857.00,1.30
9856.00,1.30
9855.00,1.30
9854.00,1.29
9853.00,1.29
9852.00,1.29
9851.00,1.29
9850.00,1.29
9849.00,1.29
9848.00,1.29
9847.00,1.29
9846.00,1.29
9845.00,1.29
9844.00,1.29
9843.00,1.29
9842.00,1.29
9841.00,1.29
9840.00,1.30
9839.00,1.30
9838.00,1.30
9837.00,1.30
9836.00,1.30
9835.00,1.30
9834.00,1.30
9833.00,1.31
9832.00,1.31
9831.00,1.31
9830.00,1.30
9829.00,1.30
9828.00,1.30
9827.00,1.30
9826.00,1.30
9825.00,1.30
9824.00,1.30
9823.00,1.29
9822.00,1.29
9821.00,1.29
9820.00,1.29
9819.00,1.29
9818.00,1.29
9817.00,1.29
9816.00,1.29
9815.00,1.29
9814.00,1.29
9813.00,1.29
9812.00,1.29
9811.00,1.29
9810.00,1.29
9809.00,1.29
9808.00,1.29
9807.00,1.29
9806.00,1.29
9805.00,1.29
9804.00,1.29
9803.00,1.29
9802.00,1.29
9801.00,1.29
9800.00,1.29
9799.00,1.29
9798.00,1.29
9797.00,1.29
9796.00,1.29
9795.00,1.29
9794.00,1.29
9793.00,1.29
9792.00,1.29
9791.00,1.29
9790.00,1.29
9789.00,1.29
9788.00,1.29
9787.00,1.29
9786.00,1.29
9785.00,1.29
9784.00,1.29
9783.00,1.29
9782.00,1.29
9781.00,1.29
9780.00,1.29
9779.00,1.29
9778.00,1.29
9777.00,1.30
9776.00,1.30
9775.00,1.30
9774.00,1.30
9773.00,1.30
9772.00,1.30
9771.00,1.30
9770.00,1.30
9769.00,1.30
9768.00,1.30
9767.00,1.29
9766.00,1.29
9765.00,1.29
9764.00,1.29
9763.00,1.29
9762.00,1.29
9761.00,1.29
9760.00,1.29
9759.00,1.29
9758.00,1.29
9757.00,1.29
9756.00,1.29
9755.00,1.29
9754.00,1.29
9753.00,1.29
9752.00,1.29
9751.00,1.29
9750.00,1.29
9749.00,1.29
9748.00,1.29
9747.00,1.29
9746.00,1.29
9745.00,1.29
9744.00,1.29
9743.00,1.29
9742.00,1.29
9741.00,1.29
9740.00,1.29
9739.00,1.29
9738.00,1.29
9737.00,1.29
9736.00,1.29
9735.00,1.29
9734.00,1.30
9733.00,1.30
9732.00,1.30
9731.00,1.30
9730.00,1.31
9729.00,1.31
9728.00,1.31
9727.00,1.31
9726.00,1.31
9725.00,1.31
9724.00,1.31
9723.00,1.31
9722.00,1.31
9721.00,1.31
9720.00,1.31
9719.00,1.31
9718.00,1.31
9717.00,1.31
9716.00,1.31
9715.00,1.31
9714.00,1.31
9713.00,1.31
9712.00,1.30
9711.00,1.30
9710.00,1.30
9709.00,1.30
9708.00,1.30
9707.00,1.30
9706.00,1.30
9705.00,1.30
9704.00,1.30
9703.00,1.30
9702.00,1.30
9701.00,1.29
9700.00,1.29
9699.00,1.29
9698.00,1.29
9697.00,1.29
9696.00,1.29
9695.00,1.29
9694.00,1.29
9693.00,1.29
9692.00,1.29
9691.00,1.29
9690.00,1.29
9689.00,1.29
9688.00,1.30
9687.00,1.30
9686.00,1.30
9685.00,1.30
9684.00,1.30
9683.00,1.30
9682.00,1.30
9681.00,1.30
9680.00,1.30
9679.00,1.30
9678.00,1.30
9677.00,1.30
9676.00,1.30
9675.00,1.30
9674.00,1.30
9673.00,1.30
9672.00,1.29
9671.00,1.29
9670.00,1.29
9669.00,1.29
9668.00,1.29
9667.00,1.29
9666.00,1.29
9665.00,1.29
9664.00,1.29
9663.00,1.29
9662.00,1.29
9661.00,1.29
9660.00,1.29
9659.00,1.29
9658.00,1.29
9657.00,1.29
9656.00,1.29
9655.00,1.29
9654.00,1.29
9653.00,1.29
9652.00,1.29
9651.00,1.29
9650.00,1.29
9649.00,1.29
9648.00,1.29
9647.00,1.29
9646.00,1.29
9645.00,1.29
9644.00,1.29
9643.00,1.29
9642.00,1.29
9641.00,1.29
9640.00,1.29
9639.00,1.29
9638.00,1.30
9637.00,1.30
9636.00,1.30
9635.00,1.30
9634.00,1.31
9633.00,1.31
9632.00,1.31
9631.00,1.31
9630.00,1.31
9629.00,1.32
9628.00,1.32
9627.00,1.32
9626.00,1.32
9625.00,1.32
9624.00,1.32
9623.00,1.32
9622.00,1.32
9621.00,1.32
9620.00,1.32
9619.00,1.32
9618.00,1.32
9617.00,1.32
9616.00,1.31
9615.00,1.31
9614.00,1.31
9613.00,1.31
9612.00,1.31
9611.00,1.31
9610.00,1.30
9609.00,1.30
9608.00,1.30
9607.00,1.30
9606.00,1.30
9605.00,1.29
9604.00,1.29
9603.00,1.29
9602.00,1.29
9601.00,1.28
9600.00,1.28
9599.00,1.28
9598.00,1.28
9597.00,1.28
9596.00,1.28
9595.00,1.28
9594.00,1.28
9593.00,1.28
9592.00,1.28
9591.00,1.28
9590.00,1.29
9589.00,1.29
9588.00,1.29
9587.00,1.29
9586.00,1.29
9585.00,1.30
9584.00,1.30
9583.00,1.30
9582.00,1.30
9581.00,1.30
9580.00,1.30
9579.00,1.30
9578.00,1.30
9577.00,1.30
9576.00,1.30
9575.00,1.31
9574.00,1.31
9573.00,1.31
9572.00,1.31
9571.00,1.31
9570.00,1.31
9569.00,1.31
9568.00,1.31
9567.00,1.31
9566.00,1.31
9565.00,1.31
9564.00,1.31
9563.00,1.31
9562.00,1.31
9561.00,1.30
9560.00,1.30
9559.00,1.30
9558.00,1.30
9557.00,1.30
9556.00,1.30
9555.00,1.30
9554.00,1.30
9553.00,1.30
9552.00,1.29
9551.00,1.29
9550.00,1.29
9549.00,1.29
9548.00,1.29
9547.00,1.29
9546.00,1.29
9545.00,1.29
9544.00,1.29
9543.00,1.29
9542.00,1.29
9541.00,1.29
9540.00,1.29
9539.00,1.29
9538.00,1.29
9537.00,1.29
9536.00,1.29
9535.00,1.29
9534.00,1.29
9533.00,1.29
9532.00,1.29
9531.00,1.29
9530.00,1.29
9529.00,1.28
9528.00,1.28
9527.00,1.28
9526.00,1.28
9525.00,1.28
9524.00,1.28
9523.00,1.28
9522.00,1.28
9521.00,1.28
9520.00,1.27
9519.00,1.27
9518.00,1.27
9517.00,1.27
9516.00,1.28
9515.00,1.28
9514.00,1.28
9513.00,1.28
9512.00,1.28
9511.00,1.28
9510.00,1.28
9509.00,1.29
9508.00,1.29
9507.00,1.29
9506.00,1.29
9505.00,1.29
9504.00,1.29
9503.00,1.30
9502.00,1.30
9501.00,1.30
9500.00,1.30
9499.00,1.30
9498.00,1.30
9497.00,1.30
9496.00,1.30
9495.00,1.30
9494.00,1.30
9493.00,1.30
9492.00,1.30
9491.00,1.30
9490.00,1.30
9489.00,1.30
9488.00,1.30
9487.00,1.30
9486.00,1.30
9485.00,1.30
9484.00,1.30
9483.00,1.30
9482.00,1.30
9481.00,1.30
9480.00,1.30
9479.00,1.30
9478.00,1.30
9477.00,1.30
9476.00,1.30
9475.00,1.30
9474.00,1.31
9473.00,1.31
9472.00,1.31
9471.00,1.31
9470.00,1.31
9469.00,1.31
9468.00,1.31
9467.00,1.31
9466.00,1.31
9465.00,1.31
9464.00,1.31
9463.00,1.31
9462.00,1.31
9461.00,1.31
9460.00,1.31
9459.00,1.30
9458.00,1.30
9457.00,1.30
9456.00,1.30
9455.00,1.30
9454.00,1.30
9453.00,1.29
9452.00,1.29
9451.00,1.29
9450.00,1.29
9449.00,1.29
9448.00,1.28
9447.00,1.28
9446.00,1.28
9445.00,1.28
9444.00,1.28
9443.00,1.27
9442.00,1.27
9441.00,1.27
9440.00,1.27
9439.00,1.27
9438.00,1.27
9437.00,1.27
9436.00,1.26
9435.00,1.26
9434.00,1.26
9433.00,1.26
9432.00,1.26
9431.00,1.27
9430.00,1.27
9429.00,1.27
9428.00,1.27
9427.00,1.27
9426.00,1.27
9425.00,1.27
9424.00,1.27
9423.00,1.27
9422.00,1.28
9421.00,1.28
9420.00,1.28
9419.00,1.28
9418.00,1.28
9417.00,1.28
9416.00,1.28
9415.00,1.28
9414.00,1.28
9413.00,1.28
9412.00,1.28
9411.00,1.28
9410.00,1.28
9409.00,1.28
9408.00,1.28
9407.00,1.29
9406.00,1.29
9405.00,1.29
9404.00,1.29
9403.00,1.29
9402.00,1.29
9401.00,1.29
9400.00,1.29
9399.00,1.29
9398.00,1.29
9397.00,1.30
9396.00,1.30
9395.00,1.30
9394.00,1.30
9393.00,1.30
9392.00,1.30
9391.00,1.31
9390.00,1.31
9389.00,1.31
9388.00,1.31
9387.00,1.31
9386.00,1.31
9385.00,1.31
9384.00,1.31
9383.00,1.31
9382.00,1.31
9381.00,1.31
9380.00,1.31
9379.00,1.31
9378.00,1.31
9377.00,1.31
9376.00,1.31
9375.00,1.31
9374.00,1.31
9373.00,1.31
9372.00,1.31
9371.00,1.31
9370.00,1.31
9369.00,1.31
9368.00,1.31
9367.00,1.31
9366.00,1.30
9365.00,1.30
9364.00,1.30
9363.00,1.30
9362.00,1.30
9361.00,1.30
9360.00,1.30
9359.00,1.30
9358.00,1.30
9357.00,1.30
9356.00,1.30
9355.00,1.30
9354.00,1.30
9353.00,1.30
9352.00,1.30
9351.00,1.29
9350.00,1.29
9349.00,1.29
9348.00,1.29
9347.00,1.29
9346.00,1.29
9345.00,1.30
9344.00,1.30
9343.00,1.30
9342.00,1.30
9341.00,1.30
9340.00,1.30
9339.00,1.30
9338.00,1.30
9337.00,1.29
9336.00,1.29
9335.00,1.29
9334.00,1.29
9333.00,1.29
9332.00,1.29
9331.00,1.29
9330.00,1.29
9329.00,1.28
9328.00,1.28
9327.00,1.28
9326.00,1.28
9325.00,1.28
9324.00,1.28
9323.00,1.28
9322.00,1.28
9321.00,1.28
9320.00,1.28
9319.00,1.28
9318.00,1.28
9317.00,1.28
9316.00,1.28
9315.00,1.28
9314.00,1.28
9313.00,1.28
9312.00,1.28
9311.00,1.28
9310.00,1.28
9309.00,1.29
9308.00,1.29
9307.00,1.29
9306.00,1.29
9305.00,1.29
9304.00,1.29
9303.00,1.29
9302.00,1.29
9301.00,1.29
9300.00,1.29
9299.00,1.29
9298.00,1.29
9297.00,1.29
9296.00,1.29
9295.00,1.29
9294.00,1.29
9293.00,1.28
9292.00,1.28
9291.00,1.28
9290.00,1.28
9289.00,1.28
9288.00,1.28
9287.00,1.28
9286.00,1.28
9285.00,1.28
9284.00,1.28
9283.00,1.28
9282.00,1.28
9281.00,1.28
9280.00,1.28
9279.00,1.29
9278.00,1.29
9277.00,1.29
9276.00,1.29
9275.00,1.29
9274.00,1.29
9273.00,1.29
9272.00,1.29
9271.00,1.29
9270.00,1.29
9269.00,1.29
9268.00,1.29
9267.00,1.29
9266.00,1.29
9265.00,1.29
9264.00,1.29
9263.00,1.29
9262.00,1.30
9261.00,1.30
9260.00,1.30
9259.00,1.30
9258.00,1.30
9257.00,1.30
9256.00,1.30
9255.00,1.30
9254.00,1.30
9253.00,1.30
9252.00,1.30
9251.00,1.30
9250.00,1.30
9249.00,1.31
9248.00,1.31
9247.00,1.31
9246.00,1.31
9245.00,1.31
9244.00,1.31
9243.00,1.31
9242.00,1.31
9241.00,1.31
9240.00,1.31
9239.00,1.31
9238.00,1.32
9237.00,1.32
9236.00,1.32
9235.00,1.32
9234.00,1.32
9233.00,1.32
9232.00,1.32
9231.00,1.32
9230.00,1.32
9229.00,1.32
9228.00,1.32
9227.00,1.32
9226.00,1.32
9225.00,1.32
9224.00,1.32
9223.00,1.32
9222.00,1.31
9221.00,1.31
9220.00,1.31
9219.00,1.31
9218.00,1.31
9217.00,1.30
9216.00,1.30
9215.00,1.30
9214.00,1.30
9213.00,1.29
9212.00,1.29
9211.00,1.29
9210.00,1.29
9209.00,1.29
9208.00,1.29
9207.00,1.29
9206.00,1.29
9205.00,1.29
9204.00,1.29
9203.00,1.29
9202.00,1.30
9201.00,1.30
9200.00,1.30
9199.00,1.30
9198.00,1.30
9197.00,1.30
9196.00,1.30
9195.00,1.30
9194.00,1.30
9193.00,1.30
9192.00,1.30
9191.00,1.30
9190.00,1.30
9189.00,1.29
9188.00,1.29
9187.00,1.29
9186.00,1.29
9185.00,1.29
9184.00,1.29
9183.00,1.29
9182.00,1.28
9181.00,1.28
9180.00,1.28
9179.00,1.28
9178.00,1.28
9177.00,1.28
9176.00,1.28
9175.00,1.28
9174.00,1.28
9173.00,1.28
9172.00,1.28
9171.00,1.28
9170.00,1.28
9169.00,1.28
9168.00,1.28
9167.00,1.28
9166.00,1.28
9165.00,1.28
9164.00,1.28
9163.00,1.28
9162.00,1.28
9161.00,1.28
9160.00,1.28
9159.00,1.28
9158.00,1.28
9157.00,1.28
9156.00,1.28
9155.00,1.28
9154.00,1.28
9153.00,1.28
9152.00,1.28
9151.00,1.28
9150.00,1.28
9149.00,1.28
9148.00,1.28
9147.00,1.28
9146.00,1.28
9145.00,1.28
9144.00,1.28
9143.00,1.28
9142.00,1.28
9141.00,1.28
9140.00,1.28
9139.00,1.28
9138.00,1.28
9137.00,1.28
9136.00,1.28
9135.00,1.28
9134.00,1.28
9133.00,1.28
9132.00,1.28
9131.00,1.28
9130.00,1.28
9129.00,1.28
9128.00,1.28
9127.00,1.28
9126.00,1.28
9125.00,1.28
9124.00,1.28
9123.00,1.28
9122.00,1.28
9121.00,1.28
9120.00,1.28
9119.00,1.28
9118.00,1.28
9117.00,1.28
9116.00,1.28
9115.00,1.28
9114.00,1.28
9113.00,1.28
9112.00,1.29
9111.00,1.29
9110.00,1.29
9109.00,1.29
9108.00,1.29
9107.00,1.29
9106.00,1.29
9105.00,1.29
9104.00,1.29
9103.00,1.29
9102.00,1.29
9101.00,1.29
9100.00,1.29
9099.00,1.29
9098.00,1.29
9097.00,1.29
9096.00,1.29
9095.00,1.29
9094.00,1.29
9093.00,1.29
9092.00,1.29
9091.00,1.29
9090.00,1.29
9089.00,1.29
9088.00,1.29
9087.00,1.29
9086.00,1.29
9085.00,1.29
9084.00,1.29
9083.00,1.29
9082.00,1.29
9081.00,1.29
9080.00,1.29
9079.00,1.29
9078.00,1.29
9077.00,1.29
9076.00,1.29
9075.00,1.29
9074.00,1.29
9073.00,1.28
9072.00,1.28
9071.00,1.28
9070.00,1.28
9069.00,1.28
9068.00,1.28
9067.00,1.28
9066.00,1.28
9065.00,1.28
9064.00,1.27
9063.00,1.27
9062.00,1.27
9061.00,1.27
9060.00,1.27
9059.00,1.27
9058.00,1.27
9057.00,1.27
9056.00,1.27
9055.00,1.27
9054.00,1.28
9053.00,1.28
9052.00,1.28
9051.00,1.28
9050.00,1.29
9049.00,1.29
9048.00,1.29
9047.00,1.30
9046.00,1.30
9045.00,1.30
9044.00,1.30
9043.00,1.31
9042.00,1.31
9041.00,1.31
9040.00,1.32
9039.00,1.32
9038.00,1.32
9037.00,1.32
9036.00,1.32
9035.00,1.32
9034.00,1.32
9033.00,1.32
9032.00,1.32
9031.00,1.32
9030.00,1.31
9029.00,1.31
9028.00,1.31
9027.00,1.31
9026.00,1.30
9025.00,1.30
9024.00,1.30
9023.00,1.30
9022.00,1.30
9021.00,1.29
9020.00,1.29
9019.00,1.29
9018.00,1.29
9017.00,1.29
9016.00,1.28
9015.00,1.28
9014.00,1.28
9013.00,1.28
9012.00,1.28
9011.00,1.28
9010.00,1.28
9009.00,1.27
9008.00,1.27
9007.00,1.27
9006.00,1.27
9005.00,1.27
9004.00,1.27
9003.00,1.27
9002.00,1.27
9001.00,1.27
9000.00,1.27
8999.00,1.27
8998.00,1.27
8997.00,1.27
8996.00,1.27
8995.00,1.27
8994.00,1.28
8993.00,1.28
8992.00,1.28
8991.00,1.28
8990.00,1.28
8989.00,1.28
8988.00,1.28
8987.00,1.28
8986.00,1.28
8985.00,1.28
8984.00,1.29
8983.00,1.29
8982.00,1.29
8981.00,1.29
8980.00,1.29
8979.00,1.29
8978.00,1.29
8977.00,1.29
8976.00,1.29
8975.00,1.29
8974.00,1.29
8973.00,1.29
8972.00,1.29
8971.00,1.29
8970.00,1.29
8969.00,1.29
8968.00,1.29
8967.00,1.29
8966.00,1.29
8965.00,1.29
8964.00,1.29
8963.00,1.29
8962.00,1.29
8961.00,1.29
8960.00,1.29
8959.00,1.29
8958.00,1.29
8957.00,1.29
8956.00,1.29
8955.00,1.29
8954.00,1.29
8953.00,1.29
8952.00,1.29
8951.00,1.29
8950.00,1.29
8949.00,1.29
8948.00,1.29
8947.00,1.29
8946.00,1.29
8945.00,1.29
8944.00,1.29
8943.00,1.29
8942.00,1.29
8941.00,1.29
8940.00,1.29
8939.00,1.29
8938.00,1.29
8937.00,1.29
8936.00,1.29
8935.00,1.29
8934.00,1.30
8933.00,1.30
8932.00,1.30
8931.00,1.30
8930.00,1.30
8929.00,1.30
8928.00,1.30
8927.00,1.31
8926.00,1.31
8925.00,1.31
8924.00,1.31
8923.00,1.31
8922.00,1.31
8921.00,1.31
8920.00,1.31
8919.00,1.31
8918.00,1.30
8917.00,1.30
8916.00,1.30
8915.00,1.30
8914.00,1.30
8913.00,1.30
8912.00,1.30
8911.00,1.30
8910.00,1.30
8909.00,1.29
8908.00,1.29
8907.00,1.29
8906.00,1.29
8905.00,1.29
8904.00,1.29
8903.00,1.29
8902.00,1.29
8901.00,1.30
8900.00,1.30
8899.00,1.30
8898.00,1.30
8897.00,1.30
8896.00,1.30
8895.00,1.30
8894.00,1.30
8893.00,1.30
8892.00,1.30
8891.00,1.30
8890.00,1.30
8889.00,1.30
8888.00,1.30
8887.00,1.30
8886.00,1.30
8885.00,1.30
8884.00,1.30
8883.00,1.30
8882.00,1.30
8881.00,1.30
8880.00,1.30
8879.00,1.30
8878.00,1.30
8877.00,1.30
8876.00,1.30
8875.00,1.30
8874.00,1.30
8873.00,1.30
8872.00,1.30
8871.00,1.30
8870.00,1.29
8869.00,1.29
8868.00,1.29
8867.00,1.29
8866.00,1.29
8865.00,1.29
8864.00,1.29
8863.00,1.29
8862.00,1.29
8861.00,1.28
8860.00,1.28
8859.00,1.28
8858.00,1.28
8857.00,1.28
8856.00,1.28
8855.00,1.28
8854.00,1.28
8853.00,1.28
8852.00,1.29
8851.00,1.29
8850.00,1.29
8849.00,1.29
8848.00,1.29
8847.00,1.29
8846.00,1.29
8845.00,1.29
8844.00,1.29
8843.00,1.29
8842.00,1.29
8841.00,1.29
8840.00,1.29
8839.00,1.29
8838.00,1.29
8837.00,1.29
8836.00,1.29
8835.00,1.29
8834.00,1.29
8833.00,1.29
8832.00,1.29
8831.00,1.29
8830.00,1.29
8829.00,1.29
8828.00,1.29
8827.00,1.29
8826.00,1.29
8825.00,1.29
8824.00,1.29
8823.00,1.28
8822.00,1.28
8821.00,1.28
8820.00,1.28
8819.00,1.28
8818.00,1.28
8817.00,1.28
8816.00,1.28
8815.00,1.28
8814.00,1.28
8813.00,1.28
8812.00,1.27
8811.00,1.27
8810.00,1.27
8809.00,1.27
8808.00,1.27
8807.00,1.27
8806.00,1.27
8805.00,1.27
8804.00,1.27
8803.00,1.27
8802.00,1.27
8801.00,1.27
8800.00,1.27
8799.00,1.27
8798.00,1.27
8797.00,1.27
8796.00,1.27
8795.00,1.27
8794.00,1.27
8793.00,1.27
8792.00,1.27
8791.00,1.28
8790.00,1.28
8789.00,1.28
8788.00,1.28
8787.00,1.28
8786.00,1.28
8785.00,1.28
8784.00,1.28
8783.00,1.28
8782.00,1.28
8781.00,1.28
8780.00,1.27
8779.00,1.27
8778.00,1.27
8777.00,1.27
8776.00,1.27
8775.00,1.26
8774.00,1.26
8773.00,1.26
8772.00,1.26
8771.00,1.26
8770.00,1.25
8769.00,1.25
8768.00,1.25
8767.00,1.25
8766.00,1.25
8765.00,1.25
8764.00,1.25
8763.00,1.25
8762.00,1.25
8761.00,1.25
8760.00,1.25
8759.00,1.25
8758.00,1.25
8757.00,1.25
8756.00,1.25
8755.00,1.25
8754.00,1.25
8753.00,1.25
8752.00,1.25
8751.00,1.25
8750.00,1.25
8749.00,1.25
8748.00,1.25
8747.00,1.24
8746.00,1.24
8745.00,1.24
8744.00,1.24
8743.00,1.24
8742.00,1.24
8741.00,1.24
8740.00,1.24
8739.00,1.24
8738.00,1.24
8737.00,1.24
8736.00,1.24
8735.00,1.24
8734.00,1.24
8733.00,1.24
8732.00,1.25
8731.00,1.25
8730.00,1.25
8729.00,1.25
8728.00,1.25
8727.00,1.25
8726.00,1.25
8725.00,1.25
8724.00,1.25
8723.00,1.25
8722.00,1.24
8721.00,1.24
8720.00,1.24
8719.00,1.24
8718.00,1.24
8717.00,1.24
8716.00,1.24
8715.00,1.24
8714.00,1.24
8713.00,1.24
8712.00,1.24
8711.00,1.24
8710.00,1.24
8709.00,1.24
8708.00,1.24
8707.00,1.24
8706.00,1.24
8705.00,1.24
8704.00,1.24
8703.00,1.24
8702.00,1.24
8701.00,1.24
8700.00,1.24
8699.00,1.24
8698.00,1.24
8697.00,1.24
8696.00,1.23
8695.00,1.23
8694.00,1.23
8693.00,1.23
8692.00,1.23
8691.00,1.23
8690.00,1.23
8689.00,1.23
8688.00,1.23
8687.00,1.23
8686.00,1.23
8685.00,1.23
8684.00,1.23
8683.00,1.23
8682.00,1.23
8681.00,1.23
8680.00,1.23
8679.00,1.23
8678.00,1.23
8677.00,1.23
8676.00,1.23
8675.00,1.23
8674.00,1.23
8673.00,1.23
8672.00,1.23
8671.00,1.23
8670.00,1.23
8669.00,1.23
8668.00,1.23
8667.00,1.23
8666.00,1.23
8665.00,1.23
8664.00,1.23
8663.00,1.23
8662.00,1.23
8661.00,1.23
8660.00,1.23
8659.00,1.23
8658.00,1.23
8657.00,1.23
8656.00,1.23
8655.00,1.23
8654.00,1.23
8653.00,1.23
8652.00,1.23
8651.00,1.23
8650.00,1.23
8649.00,1.23
8648.00,1.23
8647.00,1.23
8646.00,1.23
8645.00,1.23
8644.00,1.23
8643.00,1.23
8642.00,1.23
8641.00,1.23
8640.00,1.23
8639.00,1.23
8638.00,1.23
8637.00,1.23
8636.00,1.23
8635.00,1.23
8634.00,1.23
8633.00,1.24
8632.00,1.24
8631.00,1.24
8630.00,1.24
8629.00,1.24
8628.00,1.24
8627.00,1.24
8626.00,1.24
8625.00,1.24
8624.00,1.24
8623.00,1.23
8622.00,1.23
8621.00,1.23
8620.00,1.23
8619.00,1.23
8618.00,1.23
8617.00,1.23
8616.00,1.23
8615.00,1.23
8614.00,1.23
8613.00,1.23
8612.00,1.23
8611.00,1.22
8610.00,1.22
8609.00,1.22
8608.00,1.22
8607.00,1.22
8606.00,1.22
8605.00,1.22
8604.00,1.22
8603.00,1.22
8602.00,1.22
8601.00,1.22
8600.00,1.21
8599.00,1.21
8598.00,1.21
8597.00,1.21
8596.00,1.21
8595.00,1.21
8594.00,1.21
8593.00,1.21
8592.00,1.21
8591.00,1.21
8590.00,1.21
8589.00,1.21
8588.00,1.21
8587.00,1.21
8586.00,1.21
8585.00,1.21
8584.00,1.21
8583.00,1.21
8582.00,1.21
8581.00,1.21
8580.00,1.21
8579.00,1.21
8578.00,1.21
8577.00,1.21
8576.00,1.21
8575.00,1.21
8574.00,1.21
8573.00,1.21
8572.00,1.21
8571.00,1.21
8570.00,1.21
8569.00,1.21
8568.00,1.21
8567.00,1.21
8566.00,1.21
8565.00,1.21
8564.00,1.21
8563.00,1.21
8562.00,1.21
8561.00,1.21
8560.00,1.20
8559.00,1.20
8558.00,1.20
8557.00,1.20
8556.00,1.20
8555.00,1.20
8554.00,1.20
8553.00,1.20
8552.00,1.20
8551.00,1.21
8550.00,1.21
8549.00,1.21
8548.00,1.21
8547.00,1.21
8546.00,1.21
8545.00,1.22
8544.00,1.22
8543.00,1.22
8542.00,1.22
8541.00,1.22
8540.00,1.22
8539.00,1.22
8538.00,1.22
8537.00,1.22
8536.00,1.22
8535.00,1.22
8534.00,1.22
8533.00,1.22
8532.00,1.22
8531.00,1.22
8530.00,1.22
8529.00,1.22
8528.00,1.21
8527.00,1.21
8526.00,1.21
8525.00,1.21
8524.00,1.21
8523.00,1.20
8522.00,1.20
8521.00,1.20
8520.00,1.20
8519.00,1.19
8518.00,1.19
8517.00,1.19
8516.00,1.19
8515.00,1.19
8514.00,1.19
8513.00,1.19
8512.00,1.19
8511.00,1.19
8510.00,1.19
8509.00,1.19
8508.00,1.19
8507.00,1.19
8506.00,1.19
8505.00,1.19
8504.00,1.20
8503.00,1.20
8502.00,1.20
8501.00,1.20
8500.00,1.20
8499.00,1.20
8498.00,1.20
8497.00,1.20
8496.00,1.20
8495.00,1.20
8494.00,1.20
8493.00,1.20
8492.00,1.20
8491.00,1.20
8490.00,1.19
8489.00,1.19
8488.00,1.19
8487.00,1.19
8486.00,1.19
8485.00,1.19
8484.00,1.18
8483.00,1.18
8482.00,1.18
8481.00,1.18
8480.00,1.18
8479.00,1.18
8478.00,1.18
8477.00,1.18
8476.00,1.18
8475.00,1.18
8474.00,1.18
8473.00,1.18
8472.00,1.18
8471.00,1.18
8470.00,1.18
8469.00,1.18
8468.00,1.18
8467.00,1.18
8466.00,1.18
8465.00,1.18
8464.00,1.18
8463.00,1.18
8462.00,1.17
8461.00,1.17
8460.00,1.17
8459.00,1.17
8458.00,1.17
8457.00,1.17
8456.00,1.17
8455.00,1.17
8454.00,1.16
8453.00,1.16
8452.00,1.16
8451.00,1.16
8450.00,1.16
8449.00,1.16
8448.00,1.15
8447.00,1.15
8446.00,1.15
8445.00,1.15
8444.00,1.15
8443.00,1.15
8442.00,1.15
8441.00,1.15
8440.00,1.15
8439.00,1.15
8438.00,1.15
8437.00,1.15
8436.00,1.15
8435.00,1.15
8434.00,1.16
8433.00,1.16
8432.00,1.16
8431.00,1.16
8430.00,1.16
8429.00,1.16
8428.00,1.17
8427.00,1.17
8426.00,1.17
8425.00,1.17
8424.00,1.17
8423.00,1.17
8422.00,1.17
8421.00,1.17
8420.00,1.17
8419.00,1.17
8418.00,1.17
8417.00,1.17
8416.00,1.17
8415.00,1.17
8414.00,1.17
8413.00,1.17
8412.00,1.17
8411.00,1.17
8410.00,1.17
8409.00,1.17
8408.00,1.18
8407.00,1.18
8406.00,1.18
8405.00,1.18
8404.00,1.18
8403.00,1.18
8402.00,1.18
8401.00,1.18
8400.00,1.18
8399.00,1.18
8398.00,1.18
8397.00,1.18
8396.00,1.18
8395.00,1.18
8394.00,1.18
8393.00,1.18
8392.00,1.18
8391.00,1.18
8390.00,1.18
8389.00,1.18
8388.00,1.18
8387.00,1.18
8386.00,1.18
8385.00,1.18
8384.00,1.18
8383.00,1.18
8382.00,1.18
8381.00,1.19
8380.00,1.19
8379.00,1.19
8378.00,1.19
8377.00,1.19
8376.00,1.19
8375.00,1.19
8374.00,1.19
8373.00,1.19
8372.00,1.19
8371.00,1.19
8370.00,1.19
8369.00,1.19
8368.00,1.19
8367.00,1.19
8366.00,1.19
8365.00,1.19
8364.00,1.19
8363.00,1.19
8362.00,1.19
8361.00,1.19
8360.00,1.19
8359.00,1.19
8358.00,1.19
8357.00,1.19
8356.00,1.19
8355.00,1.19
8354.00,1.20
8353.00,1.20
8352.00,1.20
8351.00,1.20
8350.00,1.20
8349.00,1.20
8348.00,1.20
8347.00,1.20
8346.00,1.20
8345.00,1.20
8344.00,1.20
8343.00,1.20
8342.00,1.19
8341.00,1.19
8340.00,1.19
8339.00,1.19
8338.00,1.19
8337.00,1.19
8336.00,1.19
8335.00,1.20
8334.00,1.20
8333.00,1.20
8332.00,1.20
8331.00,1.20
8330.00,1.20
8329.00,1.20
8328.00,1.20
8327.00,1.20
8326.00,1.20
8325.00,1.20
8324.00,1.20
8323.00,1.20
8322.00,1.20
8321.00,1.20
8320.00,1.20
8319.00,1.20
8318.00,1.20
8317.00,1.19
8316.00,1.19
8315.00,1.19
8314.00,1.19
8313.00,1.19
8312.00,1.19
8311.00,1.19
8310.00,1.19
8309.00,1.19
8308.00,1.19
8307.00,1.18
8306.00,1.18
8305.00,1.18
8304.00,1.18
8303.00,1.19
8302.00,1.19
8301.00,1.19
8300.00,1.19
8299.00,1.19
8298.00,1.19
8297.00,1.19
8296.00,1.19
8295.00,1.19
8294.00,1.20
8293.00,1.20
8292.00,1.20
8291.00,1.20
8290.00,1.20
8289.00,1.20
8288.00,1.20
8287.00,1.20
8286.00,1.20
8285.00,1.21
8284.00,1.21
8283.00,1.21
8282.00,1.21
8281.00,1.21
8280.00,1.21
8279.00,1.21
8278.00,1.21
8277.00,1.21
8276.00,1.21
8275.00,1.21
8274.00,1.21
8273.00,1.21
8272.00,1.21
8271.00,1.21
8270.00,1.21
8269.00,1.21
8268.00,1.21
8267.00,1.21
8266.00,1.21
8265.00,1.21
8264.00,1.21
8263.00,1.21
8262.00,1.21
8261.00,1.21
8260.00,1.21
8259.00,1.21
8258.00,1.21
8257.00,1.21
8256.00,1.21
8255.00,1.21
8254.00,1.21
8253.00,1.21
8252.00,1.21
8251.00,1.21
8250.00,1.21
8249.00,1.21
8248.00,1.21
8247.00,1.21
8246.00,1.21
8245.00,1.21
8244.00,1.21
8243.00,1.21
8242.00,1.21
8241.00,1.21
8240.00,1.21
8239.00,1.21
8238.00,1.21
8237.00,1.21
8236.00,1.21
8235.00,1.21
8234.00,1.21
8233.00,1.21
8232.00,1.21
8231.00,1.21
8230.00,1.21
8229.00,1.21
8228.00,1.21
8227.00,1.22
8226.00,1.22
8225.00,1.22
8224.00,1.22
8223.00,1.22
8222.00,1.22
8221.00,1.22
8220.00,1.22
8219.00,1.22
8218.00,1.22
8217.00,1.23
8216.00,1.23
8215.00,1.23
8214.00,1.23
8213.00,1.23
8212.00,1.23
8211.00,1.23
8210.00,1.24
8209.00,1.24
8208.00,1.24
8207.00,1.24
8206.00,1.24
8205.00,1.24
8204.00,1.24
8203.00,1.24
8202.00,1.24
8201.00,1.24
8200.00,1.24
8199.00,1.24
8198.00,1.24
8197.00,1.24
8196.00,1.24
8195.00,1.24
8194.00,1.24
8193.00,1.24
8192.00,1.24
8191.00,1.24
8190.00,1.25
8189.00,1.25
8188.00,1.25
8187.00,1.25
8186.00,1.25
8185.00,1.25
8184.00,1.25
8183.00,1.25
8182.00,1.25
8181.00,1.25
8180.00,1.25
8179.00,1.25
8178.00,1.24
8177.00,1.24
8176.00,1.24
8175.00,1.24
8174.00,1.24
8173.00,1.24
8172.00,1.24
8171.00,1.24
8170.00,1.24
8169.00,1.24
8168.00,1.24
8167.00,1.24
8166.00,1.24
8165.00,1.24
8164.00,1.24
8163.00,1.24
8162.00,1.24
8161.00,1.25
8160.00,1.25
8159.00,1.25
8158.00,1.25
8157.00,1.25
8156.00,1.25
8155.00,1.25
8154.00,1.25
8153.00,1.25
8152.00,1.25
8151.00,1.25
8150.00,1.25
8149.00,1.25
8148.00,1.25
8147.00,1.25
8146.00,1.25
8145.00,1.26
8144.00,1.26
8143.00,1.26
8142.00,1.26
8141.00,1.26
8140.00,1.26
8139.00,1.26
8138.00,1.26
8137.00,1.26
8136.00,1.26
8135.00,1.26
8134.00,1.26
8133.00,1.26
8132.00,1.26
8131.00,1.26
8130.00,1.26
8129.00,1.26
8128.00,1.26
8127.00,1.26
8126.00,1.26
8125.00,1.26
8124.00,1.26
8123.00,1.26
8122.00,1.26
8121.00,1.26
8120.00,1.26
8119.00,1.26
8118.00,1.26
8117.00,1.26
8116.00,1.26
8115.00,1.26
8114.00,1.26
8113.00,1.26
8112.00,1.26
8111.00,1.27
8110.00,1.27
8109.00,1.27
8108.00,1.27
8107.00,1.27
8106.00,1.27
8105.00,1.27
8104.00,1.27
8103.00,1.27
8102.00,1.27
8101.00,1.27
8100.00,1.27
8099.00,1.27
8098.00,1.27
8097.00,1.27
8096.00,1.27
8095.00,1.27
8094.00,1.26
8093.00,1.26
8092.00,1.26
8091.00,1.26
8090.00,1.26
8089.00,1.26
8088.00,1.26
8087.00,1.26
8086.00,1.26
8085.00,1.26
8084.00,1.26
8083.00,1.26
8082.00,1.26
8081.00,1.26
8080.00,1.26
8079.00,1.26
8078.00,1.26
8077.00,1.26
8076.00,1.26
8075.00,1.26
8074.00,1.26
8073.00,1.26
8072.00,1.26
8071.00,1.26
8070.00,1.26
8069.00,1.26
8068.00,1.26
8067.00,1.26
8066.00,1.26
8065.00,1.26
8064.00,1.26
8063.00,1.26
8062.00,1.26
8061.00,1.26
8060.00,1.26
8059.00,1.26
8058.00,1.26
8057.00,1.26
8056.00,1.26
8055.00,1.26
8054.00,1.26
8053.00,1.26
8052.00,1.26
8051.00,1.27
8050.00,1.27
8049.00,1.27
8048.00,1.27
8047.00,1.27
8046.00,1.27
8045.00,1.27
8044.00,1.27
8043.00,1.27
8042.00,1.27
8041.00,1.27
8040.00,1.27
8039.00,1.27
8038.00,1.27
8037.00,1.27
8036.00,1.27
8035.00,1.27
8034.00,1.27
8033.00,1.27
8032.00,1.27
8031.00,1.27
8030.00,1.27
8029.00,1.27
8028.00,1.27
8027.00,1.28
8026.00,1.28
8025.00,1.28
8024.00,1.28
8023.00,1.28
8022.00,1.28
8021.00,1.28
8020.00,1.28
8019.00,1.28
8018.00,1.29
8017.00,1.29
8016.00,1.29
8015.00,1.29
8014.00,1.29
8013.00,1.29
8012.00,1.29
8011.00,1.29
8010.00,1.29
8009.00,1.29
8008.00,1.28
8007.00,1.28
8006.00,1.28
8005.00,1.28
8004.00,1.28
8003.00,1.28
8002.00,1.28
8001.00,1.28
8000.00,1.28
7999.00,1.28
7998.00,1.28
7997.00,1.28
7996.00,1.28
7995.00,1.28
7994.00,1.28
7993.00,1.28
7992.00,1.28
7991.00,1.28
7990.00,1.28
7989.00,1.28
7988.00,1.28
7987.00,1.28
7986.00,1.28
7985.00,1.28
7984.00,1.28
7983.00,1.28
7982.00,1.29
7981.00,1.29
7980.00,1.29
7979.00,1.29
7978.00,1.29
7977.00,1.29
7976.00,1.29
7975.00,1.29
7974.00,1.29
7973.00,1.30
7972.00,1.30
7971.00,1.30
7970.00,1.30
7969.00,1.30
7968.00,1.30
7967.00,1.30
7966.00,1.30
7965.00,1.30
7964.00,1.30
7963.00,1.30
7962.00,1.30
7961.00,1.30
7960.00,1.30
7959.00,1.30
7958.00,1.30
7957.00,1.30
7956.00,1.30
7955.00,1.29
7954.00,1.29
7953.00,1.29
7952.00,1.29
7951.00,1.29
7950.00,1.29
7949.00,1.29
7948.00,1.29
7947.00,1.29
7946.00,1.29
7945.00,1.29
7944.00,1.29
7943.00,1.29
7942.00,1.29
7941.00,1.29
7940.00,1.29
7939.00,1.29
7938.00,1.29
7937.00,1.29
7936.00,1.29
7935.00,1.29
7934.00,1.29
7933.00,1.29
7932.00,1.29
7931.00,1.29
7930.00,1.29
7929.00,1.29
7928.00,1.29
7927.00,1.29
7926.00,1.29
7925.00,1.29
7924.00,1.29
7923.00,1.29
7922.00,1.29
7921.00,1.29
7920.00,1.29
7919.00,1.29
7918.00,1.30
7917.00,1.30
7916.00,1.30
7915.00,1.30
7914.00,1.30
7913.00,1.30
7912.00,1.30
7911.00,1.30
7910.00,1.30
7909.00,1.30
7908.00,1.30
7907.00,1.30
7906.00,1.30
7905.00,1.30
7904.00,1.30
7903.00,1.30
7902.00,1.30
7901.00,1.30
7900.00,1.30
7899.00,1.30
7898.00,1.30
7897.00,1.30
7896.00,1.30
7895.00,1.30
7894.00,1.30
7893.00,1.30
7892.00,1.30
7891.00,1.30
7890.00,1.30
7889.00,1.30
7888.00,1.30
7887.00,1.30
7886.00,1.30
7885.00,1.30
7884.00,1.30
7883.00,1.30
7882.00,1.30
7881.00,1.30
7880.00,1.30
7879.00,1.29
7878.00,1.29
7877.00,1.29
7876.00,1.29
7875.00,1.29
7874.00,1.29
7873.00,1.30
7872.00,1.30
7871.00,1.30
7870.00,1.30
7869.00,1.30
7868.00,1.30
7867.00,1.30
7866.00,1.30
7865.00,1.30
7864.00,1.30
7863.00,1.31
7862.00,1.31
7861.00,1.31
7860.00,1.31
7859.00,1.31
7858.00,1.31
7857.00,1.31
7856.00,1.31
7855.00,1.31
7854.00,1.32
7853.00,1.32
7852.00,1.32
7851.00,1.32
7850.00,1.32
7849.00,1.32
7848.00,1.32
7847.00,1.32
7846.00,1.32
7845.00,1.32
7844.00,1.31
7843.00,1.31
7842.00,1.31
7841.00,1.31
7840.00,1.31
7839.00,1.31
7838.00,1.31
7837.00,1.31
7836.00,1.31
7835.00,1.31
7834.00,1.31
7833.00,1.31
7832.00,1.31
7831.00,1.31
7830.00,1.31
7829.00,1.30
7828.00,1.30
7827.00,1.30
7826.00,1.30
7825.00,1.30
7824.00,1.30
7823.00,1.30
7822.00,1.30
7821.00,1.31
7820.00,1.31
7819.00,1.31
7818.00,1.31
7817.00,1.31
7816.00,1.31
7815.00,1.31
7814.00,1.31
7813.00,1.31
7812.00,1.31
7811.00,1.31
7810.00,1.31
7809.00,1.31
7808.00,1.31
7807.00,1.31
7806.00,1.31
7805.00,1.32
7804.00,1.32
7803.00,1.32
7802.00,1.32
7801.00,1.32
7800.00,1.32
7799.00,1.32
7798.00,1.32
7797.00,1.32
7796.00,1.32
7795.00,1.32
7794.00,1.32
7793.00,1.32
7792.00,1.32
7791.00,1.32
7790.00,1.32
7789.00,1.32
7788.00,1.32
7787.00,1.32
7786.00,1.32
7785.00,1.32
7784.00,1.32
7783.00,1.32
7782.00,1.32
7781.00,1.31
7780.00,1.31
7779.00,1.31
7778.00,1.31
7777.00,1.31
7776.00,1.31
7775.00,1.31
7774.00,1.31
7773.00,1.31
7772.00,1.31
7771.00,1.31
7770.00,1.31
7769.00,1.30
7768.00,1.30
7767.00,1.30
7766.00,1.31
7765.00,1.31
7764.00,1.31
7763.00,1.31
7762.00,1.31
7761.00,1.31
7760.00,1.31
7759.00,1.31
7758.00,1.31
7757.00,1.31
7756.00,1.31
7755.00,1.31
7754.00,1.31
7753.00,1.31
7752.00,1.31
7751.00,1.31
7750.00,1.31
7749.00,1.31
7748.00,1.31
7747.00,1.31
7746.00,1.32
7745.00,1.32
7744.00,1.32
7743.00,1.32
7742.00,1.32
7741.00,1.32
7740.00,1.32
7739.00,1.32
7738.00,1.32
7737.00,1.32
7736.00,1.32
7735.00,1.32
7734.00,1.32
7733.00,1.32
7732.00,1.32
7731.00,1.32
7730.00,1.32
7729.00,1.32
7728.00,1.32
7727.00,1.32
7726.00,1.32
7725.00,1.32
7724.00,1.32
7723.00,1.32
7722.00,1.32
7721.00,1.32
7720.00,1.32
7719.00,1.32
7718.00,1.32
7717.00,1.32
7716.00,1.32
7715.00,1.32
7714.00,1.32
7713.00,1.32
7712.00,1.32
7711.00,1.32
7710.00,1.32
7709.00,1.32
7708.00,1.32
7707.00,1.32
7706.00,1.32
7705.00,1.32
7704.00,1.32
7703.00,1.32
7702.00,1.32
7701.00,1.32
7700.00,1.32
7699.00,1.32
7698.00,1.32
7697.00,1.32
7696.00,1.32
7695.00,1.32
7694.00,1.32
7693.00,1.32
7692.00,1.32
7691.00,1.32
7690.00,1.32
7689.00,1.32
7688.00,1.32
7687.00,1.32
7686.00,1.32
7685.00,1.32
7684.00,1.32
7683.00,1.32
7682.00,1.32
7681.00,1.32
7680.00,1.32
7679.00,1.32
7678.00,1.32
7677.00,1.32
7676.00,1.32
7675.00,1.32
7674.00,1.32
7673.00,1.32
7672.00,1.32
7671.00,1.32
7670.00,1.32
7669.00,1.32
7668.00,1.32
7667.00,1.32
7666.00,1.32
7665.00,1.32
7664.00,1.32
7663.00,1.32
7662.00,1.32
7661.00,1.32
7660.00,1.32
7659.00,1.32
7658.00,1.32
7657.00,1.32
7656.00,1.32
7655.00,1.32
7654.00,1.32
7653.00,1.32
7652.00,1.32
7651.00,1.32
7650.00,1.32
7649.00,1.32
7648.00,1.32
7647.00,1.32
7646.00,1.32
7645.00,1.32
7644.00,1.32
7643.00,1.32
7642.00,1.32
7641.00,1.32
7640.00,1.32
7639.00,1.32
7638.00,1.32
7637.00,1.32
7636.00,1.32
7635.00,1.32
7634.00,1.32
7633.00,1.32
7632.00,1.32
7631.00,1.32
7630.00,1.32
7629.00,1.32
7628.00,1.32
7627.00,1.32
7626.00,1.32
7625.00,1.32
7624.00,1.32
7623.00,1.32
7622.00,1.32
7621.00,1.32
7620.00,1.32
7619.00,1.32
7618.00,1.32
7617.00,1.32
7616.00,1.32
7615.00,1.32
7614.00,1.32
7613.00,1.32
7612.00,1.32
7611.00,1.32
7610.00,1.32
7609.00,1.32
7608.00,1.32
7607.00,1.32
7606.00,1.31
7605.00,1.31
7604.00,1.31
7603.00,1.31
7602.00,1.31
7601.00,1.31
7600.00,1.31
7599.00,1.31
7598.00,1.31
7597.00,1.31
7596.00,1.31
7595.00,1.31
7594.00,1.31
7593.00,1.31
7592.00,1.31
7591.00,1.31
7590.00,1.31
7589.00,1.31
7588.00,1.31
7587.00,1.31
7586.00,1.31
7585.00,1.31
7584.00,1.31
7583.00,1.31
7582.00,1.31
7581.00,1.31
7580.00,1.31
7579.00,1.31
7578.00,1.31
7577.00,1.31
7576.00,1.31
7575.00,1.31
7574.00,1.31
7573.00,1.31
7572.00,1.31
7571.00,1.31
7570.00,1.31
7569.00,1.31
7568.00,1.31
7567.00,1.31
7566.00,1.32
7565.00,1.32
7564.00,1.32
7563.00,1.31
7562.00,1.31
7561.00,1.31
7560.00,1.31
7559.00,1.31
7558.00,1.31
7557.00,1.31
7556.00,1.31
7555.00,1.31
7554.00,1.31
7553.00,1.31
7552.00,1.31
7551.00,1.31
7550.00,1.31
7549.00,1.31
7548.00,1.31
7547.00,1.31
7546.00,1.31
7545.00,1.31
7544.00,1.31
7543.00,1.31
7542.00,1.31
7541.00,1.31
7540.00,1.31
7539.00,1.31
7538.00,1.30
7537.00,1.30
7536.00,1.30
7535.00,1.30
7534.00,1.30
7533.00,1.30
7532.00,1.30
7531.00,1.30
7530.00,1.30
7529.00,1.30
7528.00,1.30
7527.00,1.30
7526.00,1.30
7525.00,1.30
7524.00,1.30
7523.00,1.30
7522.00,1.30
7521.00,1.30
7520.00,1.30
7519.00,1.30
7518.00,1.30
7517.00,1.30
7516.00,1.30
7515.00,1.30
7514.00,1.30
7513.00,1.30
7512.00,1.30
7511.00,1.30
7510.00,1.30
7509.00,1.30
7508.00,1.29
7507.00,1.29
7506.00,1.29
7505.00,1.29
7504.00,1.29
7503.00,1.29
7502.00,1.29
7501.00,1.29
7500.00,1.29
7499.00,1.28
7498.00,1.28
7497.00,1.28
7496.00,1.28
7495.00,1.28
7494.00,1.28
7493.00,1.28
7492.00,1.28
7491.00,1.28
7490.00,1.28
7489.00,1.28
7488.00,1.28
7487.00,1.28
7486.00,1.28
7485.00,1.28
7484.00,1.28
7483.00,1.28
7482.00,1.28
7481.00,1.28
7480.00,1.28
7479.00,1.28
7478.00,1.28
7477.00,1.28
7476.00,1.28
7475.00,1.28
7474.00,1.28
7473.00,1.28
7472.00,1.28
7471.00,1.28
7470.00,1.28
7469.00,1.28
7468.00,1.28
7467.00,1.28
7466.00,1.28
7465.00,1.28
7464.00,1.27
7463.00,1.27
7462.00,1.27
7461.00,1.27
7460.00,1.27
7459.00,1.27
7458.00,1.27
7457.00,1.27
7456.00,1.27
7455.00,1.26
7454.00,1.26
7453.00,1.26
7452.00,1.26
7451.00,1.26
7450.00,1.26
7449.00,1.26
7448.00,1.26
7447.00,1.26
7446.00,1.26
7445.00,1.26
7444.00,1.26
7443.00,1.26
7442.00,1.26
7441.00,1.26
7440.00,1.26
7439.00,1.26
7438.00,1.26
7437.00,1.26
7436.00,1.26
7435.00,1.26
7434.00,1.26
7433.00,1.26
7432.00,1.26
7431.00,1.26
7430.00,1.26
7429.00,1.25
7428.00,1.25
7427.00,1.25
7426.00,1.25
7425.00,1.25
7424.00,1.25
7423.00,1.25
7422.00,1.25
7421.00,1.25
7420.00,1.25
7419.00,1.25
7418.00,1.25
7417.00,1.25
7416.00,1.25
7415.00,1.25
7414.00,1.25
7413.00,1.24
7412.00,1.24
7411.00,1.24
7410.00,1.24
7409.00,1.24
7408.00,1.24
7407.00,1.24
7406.00,1.24
7405.00,1.24
7404.00,1.24
7403.00,1.24
7402.00,1.24
7401.00,1.24
7400.00,1.24
7399.00,1.24
7398.00,1.24
7397.00,1.24
7396.00,1.24
7395.00,1.24
7394.00,1.24
7393.00,1.23
7392.00,1.23
7391.00,1.23
7390.00,1.23
7389.00,1.23
7388.00,1.23
7387.00,1.23
7386.00,1.23
7385.00,1.23
7384.00,1.23
7383.00,1.23
7382.00,1.23
7381.00,1.22
7380.00,1.22
7379.00,1.22
7378.00,1.22
7377.00,1.22
7376.00,1.22
7375.00,1.22
7374.00,1.22
7373.00,1.22
7372.00,1.21
7371.00,1.21
7370.00,1.21
7369.00,1.21
7368.00,1.21
7367.00,1.21
7366.00,1.21
7365.00,1.21
7364.00,1.21
7363.00,1.21
7362.00,1.21
7361.00,1.21
7360.00,1.21
7359.00,1.21
7358.00,1.21
7357.00,1.21
7356.00,1.21
7355.00,1.21
7354.00,1.21
7353.00,1.21
7352.00,1.21
7351.00,1.21
7350.00,1.21
7349.00,1.21
7348.00,1.21
7347.00,1.21
7346.00,1.21
7345.00,1.21
7344.00,1.21
7343.00,1.21
7342.00,1.21
7341.00,1.21
7340.00,1.21
7339.00,1.21
7338.00,1.21
7337.00,1.21
7336.00,1.21
7335.00,1.21
7334.00,1.21
7333.00,1.21
7332.00,1.21
7331.00,1.21
7330.00,1.21
7329.00,1.21
7328.00,1.21
7327.00,1.21
7326.00,1.21
7325.00,1.21
7324.00,1.20
7323.00,1.20
7322.00,1.20
7321.00,1.20
7320.00,1.20
7319.00,1.20
7318.00,1.20
7317.00,1.20
7316.00,1.20
7315.00,1.19
7314.00,1.19
7313.00,1.19
7312.00,1.19
7311.00,1.19
7310.00,1.19
7309.00,1.19
7308.00,1.19
7307.00,1.19
7306.00,1.19
7305.00,1.18
7304.00,1.18
7303.00,1.18
7302.00,1.18
7301.00,1.18
7300.00,1.18
7299.00,1.18
7298.00,1.18
7297.00,1.18
7296.00,1.18
7295.00,1.18
7294.00,1.18
7293.00,1.18
7292.00,1.18
7291.00,1.17
7290.00,1.17
7289.00,1.17
7288.00,1.17
7287.00,1.17
7286.00,1.17
7285.00,1.17
7284.00,1.16
7283.00,1.16
7282.00,1.16
7281.00,1.16
7280.00,1.16
7279.00,1.16
7278.00,1.16
7277.00,1.16
7276.00,1.15
7275.00,1.15
7274.00,1.15
7273.00,1.15
7272.00,1.15
7271.00,1.15
7270.00,1.15
7269.00,1.15
7268.00,1.15
7267.00,1.15
7266.00,1.15
7265.00,1.15
7264.00,1.15
7263.00,1.15
7262.00,1.14
7261.00,1.14
7260.00,1.14
7259.00,1.14
7258.00,1.14
7257.00,1.14
7256.00,1.13
7255.00,1.13
7254.00,1.13
7253.00,1.13
7252.00,1.13
7251.00,1.12
7250.00,1.12
7249.00,1.12
7248.00,1.12
7247.00,1.11
7246.00,1.11
7245.00,1.11
7244.00,1.10
7243.00,1.10
7242.00,1.10
7241.00,1.10
7240.00,1.09
7239.00,1.09
7238.00,1.09
7237.00,1.08
7236.00,1.08
7235.00,1.08
7234.00,1.07
7233.00,1.07
7232.00,1.07
7231.00,1.06
7230.00,1.06
7229.00,1.06
7228.00,1.05
7227.00,1.05
7226.00,1.05
7225.00,1.04
7224.00,1.04
7223.00,1.04
7222.00,1.04
7221.00,1.03
7220.00,1.03
7219.00,1.03
7218.00,1.02
7217.00,1.02
7216.00,1.02
7215.00,1.01
7214.00,1.01
7213.00,1.01
7212.00,1.00
7211.00,1.00
7210.00,1.00
7209.00,1.00
7208.00,0.99
7207.00,0.99
7206.00,0.98
7205.00,0.98
7204.00,0.98
7203.00,0.97
7202.00,0.97
7201.00,0.97
7200.00,0.96
7199.00,0.96
7198.00,0.96
7197.00,0.95
7196.00,0.95
7195.00,0.95
7194.00,0.94
7193.00,0.94
7192.00,0.94
7191.00,0.93
7190.00,0.93
7189.00,0.93
7188.00,0.93
7187.00,0.92
7186.00,0.92
7185.00,0.92
7184.00,0.92
7183.00,0.91
7182.00,0.91
7181.00,0.91
7180.00,0.91
7179.00,0.90
7178.00,0.90
7177.00,0.90
7176.00,0.89
7175.00,0.89
7174.00,0.89
7173.00,0.89
7172.00,0.88
7171.00,0.88
7170.00,0.88
7169.00,0.87
7168.00,0.87
7167.00,0.87
7166.00,0.86
7165.00,0.86
7164.00,0.86
7163.00,0.86
7162.00,0.85
7161.00,0.85
7160.00,0.85
7159.00,0.85
7158.00,0.84
7157.00,0.84
7156.00,0.84
7155.00,0.84
7154.00,0.83
7153.00,0.83
7152.00,0.83
7151.00,0.83
7150.00,0.83
7149.00,0.82
7148.00,0.82
7147.00,0.82
7146.00,0.82
7145.00,0.82
7144.00,0.82
7143.00,0.81
7142.00,0.81
7141.00,0.81
7140.00,0.81
7139.00,0.81
7138.00,0.81
7137.00,0.80
7136.00,0.80
7135.00,0.80
7134.00,0.80
7133.00,0.80
7132.00,0.79
7131.00,0.79
7130.00,0.79
7129.00,0.79
7128.00,0.78
7127.00,0.78
7126.00,0.78
7125.00,0.78
7124.00,0.77
7123.00,0.77
7122.00,0.77
7121.00,0.77
7120.00,0.76
7119.00,0.76
7118.00,0.76
7117.00,0.76
7116.00,0.75
7115.00,0.75
7114.00,0.75
7113.00,0.75
7112.00,0.74
7111.00,0.74
7110.00,0.74
7109.00,0.74
7108.00,0.74
7107.00,0.73
7106.00,0.73
7105.00,0.73
7104.00,0.73
7103.00,0.73
7102.00,0.73
7101.00,0.73
7100.00,0.72
7099.00,0.72
7098.00,0.72
7097.00,0.72
7096.00,0.72
7095.00,0.71
7094.00,0.71
7093.00,0.71
7092.00,0.71
7091.00,0.71
7090.00,0.71
7089.00,0.70
7088.00,0.70
7087.00,0.70
7086.00,0.70
7085.00,0.70
7084.00,0.70
7083.00,0.70
7082.00,0.70
7081.00,0.69
7080.00,0.69
7079.00,0.69
7078.00,0.69
7077.00,0.69
7076.00,0.69
7075.00,0.69
7074.00,0.69
7073.00,0.69
7072.00,0.69
7071.00,0.69
7070.00,0.69
7069.00,0.69
7068.00,0.69
7067.00,0.69
7066.00,0.69
7065.00,0.68
7064.00,0.68
7063.00,0.68
7062.00,0.68
7061.00,0.68
7060.00,0.68
7059.00,0.68
7058.00,0.68
7057.00,0.68
7056.00,0.68
7055.00,0.67
7054.00,0.67
7053.00,0.67
7052.00,0.67
7051.00,0.67
7050.00,0.67
7049.00,0.66
7048.00,0.66
7047.00,0.66
7046.00,0.66
7045.00,0.66
7044.00,0.66
7043.00,0.66
7042.00,0.66
7041.00,0.65
7040.00,0.65
7039.00,0.65
7038.00,0.65
7037.00,0.65
7036.00,0.65
7035.00,0.65
7034.00,0.65
7033.00,0.65
7032.00,0.65
7031.00,0.65
7030.00,0.65
7029.00,0.65
7028.00,0.65
7027.00,0.65
7026.00,0.65
7025.00,0.65
7024.00,0.65
7023.00,0.65
7022.00,0.65
7021.00,0.65
7020.00,0.65
7019.00,0.64
7018.00,0.64
7017.00,0.64
7016.00,0.64
7015.00,0.64
7014.00,0.64
7013.00,0.64
7012.00,0.64
7011.00,0.64
7010.00,0.64
7009.00,0.64
7008.00,0.64
7007.00,0.64
7006.00,0.64
7005.00,0.64
7004.00,0.64
7003.00,0.63
7002.00,0.63
7001.00,0.63
7000.00,0.63
6999.00,0.63
6998.00,0.63
6997.00,0.63
6996.00,0.63
6995.00,0.63
6994.00,0.63
6993.00,0.63
6992.00,0.63
6991.00,0.63
6990.00,0.63
6989.00,0.63
6988.00,0.63
6987.00,0.63
6986.00,0.63
6985.00,0.62
6984.00,0.62
6983.00,0.62
6982.00,0.62
6981.00,0.62
6980.00,0.62
6979.00,0.62
6978.00,0.62
6977.00,0.62
6976.00,0.62
6975.00,0.62
6974.00,0.62
6973.00,0.62
6972.00,0.62
6971.00,0.62
6970.00,0.62
6969.00,0.62
6968.00,0.62
6967.00,0.62
6966.00,0.62
6965.00,0.62
6964.00,0.62
6963.00,0.62
6962.00,0.62
6961.00,0.62
6960.00,0.62
6959.00,0.62
6958.00,0.62
6957.00,0.62
6956.00,0.62
6955.00,0.62
6954.00,0.62
6953.00,0.62
6952.00,0.62
6951.00,0.62
6950.00,0.62
6949.00,0.62
6948.00,0.62
6947.00,0.62
6946.00,0.62
6945.00,0.62
6944.00,0.62
6943.00,0.62
6942.00,0.62
6941.00,0.62
6940.00,0.62
6939.00,0.62
6938.00,0.62
6937.00,0.62
6936.00,0.62
6935.00,0.62
6934.00,0.62
6933.00,0.62
6932.00,0.62
6931.00,0.62
6930.00,0.62
6929.00,0.61
6928.00,0.61
6927.00,0.61
6926.00,0.61
6925.00,0.61
6924.00,0.61
6923.00,0.61
6922.00,0.61
6921.00,0.61
6920.00,0.61
6919.00,0.61
6918.00,0.61
6917.00,0.61
6916.00,0.61
6915.00,0.61
6914.00,0.61
6913.00,0.61
6912.00,0.61
6911.00,0.61
6910.00,0.61
6909.00,0.61
6908.00,0.61
6907.00,0.61
6906.00,0.61
6905.00,0.61
6904.00,0.61
6903.00,0.61
6902.00,0.61
6901.00,0.61
6900.00,0.61
6899.00,0.61
6898.00,0.61
6897.00,0.61
6896.00,0.61
6895.00,0.61
6894.00,0.61
6893.00,0.61
6892.00,0.61
6891.00,0.61
6890.00,0.61
6889.00,0.61
6888.00,0.61
6887.00,0.61
6886.00,0.61
6885.00,0.61
6884.00,0.61
6883.00,0.61
6882.00,0.61
6881.00,0.61
6880.00,0.61
6879.00,0.61
6878.00,0.61
6877.00,0.61
6876.00,0.61
6875.00,0.61
6874.00,0.61
6873.00,0.61
6872.00,0.61
6871.00,0.61
6870.00,0.61
6869.00,0.61
6868.00,0.61
6867.00,0.61
6866.00,0.61
6865.00,0.61
6864.00,0.61
6863.00,0.61
6862.00,0.61
6861.00,0.61
6860.00,0.61
6859.00,0.61
6858.00,0.61
6857.00,0.61
6856.00,0.61
6855.00,0.61
6854.00,0.61
6853.00,0.61
6852.00,0.61
6851.00,0.61
6850.00,0.61
6849.00,0.61
6848.00,0.61
6847.00,0.61
6846.00,0.61
6845.00,0.61
6844.00,0.61
6843.00,0.61
6842.00,0.61
6841.00,0.61
6840.00,0.61
6839.00,0.61
6838.00,0.61
6837.00,0.61
6836.00,0.61
6835.00,0.61
6834.00,0.61
6833.00,0.61
6832.00,0.61
6831.00,0.61
6830.00,0.62
6829.00,0.62
6828.00,0.62
6827.00,0.62
6826.00,0.62
6825.00,0.62
6824.00,0.62
6823.00,0.62
6822.00,0.62
6821.00,0.62
6820.00,0.62
6819.00,0.62
6818.00,0.62
6817.00,0.62
6816.00,0.62
6815.00,0.62
6814.00,0.62
6813.00,0.62
6812.00,0.62
6811.00,0.62
6810.00,0.62
6809.00,0.62
6808.00,0.62
6807.00,0.62
6806.00,0.63
6805.00,0.63
6804.00,0.63
6803.00,0.63
6802.00,0.63
6801.00,0.63
6800.00,0.63
6799.00,0.63
6798.00,0.63
6797.00,0.63
6796.00,0.63
6795.00,0.63
6794.00,0.64
6793.00,0.64
6792.00,0.64
6791.00,0.64
6790.00,0.64
6789.00,0.64
6788.00,0.64
6787.00,0.64
6786.00,0.64
6785.00,0.64
6784.00,0.64
6783.00,0.64
6782.00,0.64
6781.00,0.64
6780.00,0.64
6779.00,0.64
6778.00,0.64
6777.00,0.64
6776.00,0.64
6775.00,0.64
6774.00,0.64
6773.00,0.64
6772.00,0.64
6771.00,0.64
6770.00,0.64
6769.00,0.64
6768.00,0.64
6767.00,0.64
6766.00,0.64
6765.00,0.64
6764.00,0.64
6763.00,0.64
6762.00,0.64
6761.00,0.64
6760.00,0.64
6759.00,0.64
6758.00,0.64
6757.00,0.64
6756.00,0.64
6755.00,0.64
6754.00,0.65
6753.00,0.65
6752.00,0.65
6751.00,0.65
6750.00,0.65
6749.00,0.65
6748.00,0.65
6747.00,0.65
6746.00,0.65
6745.00,0.65
6744.00,0.65
6743.00,0.65
6742.00,0.65
6741.00,0.65
6740.00,0.65
6739.00,0.66
6738.00,0.66
6737.00,0.66
6736.00,0.66
6735.00,0.66
6734.00,0.66
6733.00,0.66
6732.00,0.66
6731.00,0.66
6730.00,0.66
6729.00,0.66
6728.00,0.66
6727.00,0.66
6726.00,0.66
6725.00,0.66
6724.00,0.66
6723.00,0.66
6722.00,0.66
6721.00,0.66
6720.00,0.66
6719.00,0.66
6718.00,0.66
6717.00,0.66
6716.00,0.66
6715.00,0.67
6714.00,0.67
6713.00,0.67
6712.00,0.67
6711.00,0.67
6710.00,0.67
6709.00,0.67
6708.00,0.67
6707.00,0.67
6706.00,0.67
6705.00,0.68
6704.00,0.68
6703.00,0.68
6702.00,0.68
6701.00,0.68
6700.00,0.68
6699.00,0.68
6698.00,0.68
6697.00,0.68
6696.00,0.68
6695.00,0.68
6694.00,0.68
6693.00,0.68
6692.00,0.68
6691.00,0.68
6690.00,0.68
6689.00,0.69
6688.00,0.69
6687.00,0.69
6686.00,0.69
6685.00,0.69
6684.00,0.69
6683.00,0.69
6682.00,0.69
6681.00,0.69
6680.00,0.70
6679.00,0.70
6678.00,0.70
6677.00,0.70
6676.00,0.70
6675.00,0.70
6674.00,0.70
6673.00,0.70
6672.00,0.70
6671.00,0.70
6670.00,0.70
6669.00,0.70
6668.00,0.70
6667.00,0.70
6666.00,0.71
6665.00,0.71
6664.00,0.71
6663.00,0.71
6662.00,0.71
6661.00,0.71
6660.00,0.71
6659.00,0.71
6658.00,0.71
6657.00,0.71
6656.00,0.71
6655.00,0.71
6654.00,0.71
6653.00,0.72
6652.00,0.72
6651.00,0.72
6650.00,0.72
6649.00,0.72
6648.00,0.72
6647.00,0.72
6646.00,0.72
6645.00,0.72
6644.00,0.72
6643.00,0.72
6642.00,0.72
6641.00,0.73
6640.00,0.73
6639.00,0.73
6638.00,0.73
6637.00,0.73
6636.00,0.73
6635.00,0.73
6634.00,0.73
6633.00,0.73
6632.00,0.73
6631.00,0.73
6630.00,0.74
6629.00,0.74
6628.00,0.74
6627.00,0.74
6626.00,0.74
6625.00,0.74
6624.00,0.74
6623.00,0.74
6622.00,0.74
6621.00,0.74
6620.00,0.74
6619.00,0.74
6618.00,0.75
6617.00,0.75
6616.00,0.75
6615.00,0.75
6614.00,0.75
6613.00,0.75
6612.00,0.75
6611.00,0.75
6610.00,0.75
6609.00,0.75
6608.00,0.76
6607.00,0.76
6606.00,0.76
6605.00,0.76
6604.00,0.76
6603.00,0.76
6602.00,0.76
6601.00,0.76
6600.00,0.76
6599.00,0.76
6598.00,0.76
6597.00,0.76
6596.00,0.76
6595.00,0.76
6594.00,0.76
6593.00,0.76
6592.00,0.76
6591.00,0.77
6590.00,0.77
6589.00,0.77
6588.00,0.77
6587.00,0.77
6586.00,0.77
6585.00,0.77
6584.00,0.77
6583.00,0.77
6582.00,0.77
6581.00,0.77
6580.00,0.77
6579.00,0.78
6578.00,0.78
6577.00,0.78
6576.00,0.78
6575.00,0.78
6574.00,0.78
6573.00,0.78
6572.00,0.78
6571.00,0.78
6570.00,0.78
6569.00,0.79
6568.00,0.79
6567.00,0.79
6566.00,0.79
6565.00,0.79
6564.00,0.79
6563.00,0.79
6562.00,0.80
6561.00,0.80
6560.00,0.80
6559.00,0.80
6558.00,0.80
6557.00,0.80
6556.00,0.80
6555.00,0.80
6554.00,0.80
6553.00,0.80
6552.00,0.80
6551.00,0.80
6550.00,0.80
6549.00,0.80
6548.00,0.80
6547.00,0.80
6546.00,0.80
6545.00,0.80
6544.00,0.80
6543.00,0.80
6542.00,0.80
6541.00,0.80
6540.00,0.80
6539.00,0.81
6538.00,0.81
6537.00,0.81
6536.00,0.81
6535.00,0.81
6534.00,0.81
6533.00,0.81
6532.00,0.81
6531.00,0.81
6530.00,0.82
6529.00,0.82
6528.00,0.82
6527.00,0.82
6526.00,0.82
6525.00,0.82
6524.00,0.82
6523.00,0.82
6522.00,0.82
6521.00,0.83
6520.00,0.83
6519.00,0.83
6518.00,0.83
6517.00,0.83
6516.00,0.83
6515.00,0.83
6514.00,0.83
6513.00,0.83
6512.00,0.83
6511.00,0.83
6510.00,0.83
6509.00,0.83
6508.00,0.84
6507.00,0.84
6506.00,0.84
6505.00,0.84
6504.00,0.84
6503.00,0.84
6502.00,0.84
6501.00,0.84
6500.00,0.84
6499.00,0.85
6498.00,0.85
6497.00,0.85
6496.00,0.85
6495.00,0.85
6494.00,0.85
6493.00,0.85
6492.00,0.85
6491.00,0.85
6490.00,0.85
6489.00,0.85
6488.00,0.85
6487.00,0.86
6486.00,0.86
6485.00,0.86
6484.00,0.86
6483.00,0.86
6482.00,0.86
6481.00,0.86
6480.00,0.86
6479.00,0.86
6478.00,0.86
6477.00,0.86
6476.00,0.86
6475.00,0.86
6474.00,0.86
6473.00,0.86
6472.00,0.86
6471.00,0.86
6470.00,0.86
6469.00,0.86
6468.00,0.86
6467.00,0.86
6466.00,0.86
6465.00,0.87
6464.00,0.87
6463.00,0.87
6462.00,0.87
6461.00,0.87
6460.00,0.87
6459.00,0.87
6458.00,0.87
6457.00,0.87
6456.00,0.87
6455.00,0.87
6454.00,0.87
6453.00,0.87
6452.00,0.87
6451.00,0.87
6450.00,0.87
6449.00,0.88
6448.00,0.88
6447.00,0.88
6446.00,0.88
6445.00,0.88
6444.00,0.88
6443.00,0.88
6442.00,0.88
6441.00,0.88
6440.00,0.88
6439.00,0.88
6438.00,0.88
6437.00,0.88
6436.00,0.88
6435.00,0.89
6434.00,0.89
6433.00,0.89
6432.00,0.89
6431.00,0.89
6430.00,0.89
6429.00,0.89
6428.00,0.89
6427.00,0.89
6426.00,0.89
6425.00,0.90
6424.00,0.90
6423.00,0.90
6422.00,0.90
6421.00,0.90
6420.00,0.90
6419.00,0.90
6418.00,0.90
6417.00,0.90
6416.00,0.90
6415.00,0.90
6414.00,0.90
6413.00,0.90
6412.00,0.90
6411.00,0.90
6410.00,0.90
6409.00,0.90
6408.00,0.90
6407.00,0.90
6406.00,0.90
6405.00,0.90
6404.00,0.90
6403.00,0.90
6402.00,0.90
6401.00,0.91
6400.00,0.91
6399.00,0.91
6398.00,0.91
6397.00,0.91
6396.00,0.91
6395.00,0.91
6394.00,0.91
6393.00,0.91
6392.00,0.91
6391.00,0.91
6390.00,0.91
6389.00,0.91
6388.00,0.91
6387.00,0.91
6386.00,0.91
6385.00,0.91
6384.00,0.91
6383.00,0.91
6382.00,0.92
6381.00,0.92
6380.00,0.92
6379.00,0.92
6378.00,0.92
6377.00,0.92
6376.00,0.92
6375.00,0.92
6374.00,0.92
6373.00,0.92
6372.00,0.93
6371.00,0.93
6370.00,0.93
6369.00,0.93
6368.00,0.93
6367.00,0.93
6366.00,0.93
6365.00,0.93
6364.00,0.93
6363.00,0.93
6362.00,0.94
6361.00,0.94
6360.00,0.94
6359.00,0.94
6358.00,0.94
6357.00,0.94
6356.00,0.94
6355.00,0.94
6354.00,0.94
6353.00,0.94
6352.00,0.94
6351.00,0.94
6350.00,0.94
6349.00,0.95
6348.00,0.95
6347.00,0.95
6346.00,0.95
6345.00,0.95
6344.00,0.95
6343.00,0.95
6342.00,0.95
6341.00,0.95
6340.00,0.96
6339.00,0.96
6338.00,0.96
6337.00,0.96
6336.00,0.96
6335.00,0.96
6334.00,0.96
6333.00,0.97
6332.00,0.97
6331.00,0.97
6330.00,0.97
6329.00,0.97
6328.00,0.97
6327.00,0.97
6326.00,0.97
6325.00,0.97
6324.00,0.97
6323.00,0.97
6322.00,0.98
6321.00,0.98
6320.00,0.98
6319.00,0.98
6318.00,0.98
6317.00,0.98
6316.00,0.98
6315.00,0.98
6314.00,0.98
6313.00,0.98
6312.00,0.98
6311.00,0.98
6310.00,0.98
6309.00,0.98
6308.00,0.98
6307.00,0.98
6306.00,0.98
6305.00,0.99
6304.00,0.99
6303.00,0.99
6302.00,0.99
6301.00,0.99
6300.00,0.99
6299.00,0.99
6298.00,0.99
6297.00,0.99
6296.00,0.99
6295.00,0.99
6294.00,0.99
6293.00,0.99
6292.00,1.00
6291.00,1.00
6290.00,1.00
6289.00,1.00
6288.00,1.00
6287.00,1.00
6286.00,1.00
6285.00,1.00
6284.00,1.00
6283.00,1.01
6282.00,1.01
6281.00,1.01
6280.00,1.01
6279.00,1.01
6278.00,1.01
6277.00,1.01
6276.00,1.01
6275.00,1.02
6274.00,1.02
6273.00,1.02
6272.00,1.02
6271.00,1.02
6270.00,1.02
6269.00,1.02
6268.00,1.02
6267.00,1.02
6266.00,1.02
6265.00,1.03
6264.00,1.03
6263.00,1.03
6262.00,1.03
6261.00,1.03
6260.00,1.03
6259.00,1.03
6258.00,1.03
6257.00,1.04
6256.00,1.04
6255.00,1.04
6254.00,1.04
6253.00,1.04
6252.00,1.04
6251.00,1.04
6250.00,1.05
6249.00,1.05
6248.00,1.05
6247.00,1.05
6246.00,1.05
6245.00,1.05
6244.00,1.05
6243.00,1.05
6242.00,1.05
6241.00,1.05
6240.00,1.06
6239.00,1.06
6238.00,1.06
6237.00,1.06
6236.00,1.06
6235.00,1.06
6234.00,1.06
6233.00,1.06
6232.00,1.06
6231.00,1.06
6230.00,1.06
6229.00,1.06
6228.00,1.06
6227.00,1.06
6226.00,1.06
6225.00,1.06
6224.00,1.06
6223.00,1.07
6222.00,1.07
6221.00,1.07
6220.00,1.07
6219.00,1.07
6218.00,1.07
6217.00,1.07
6216.00,1.07
6215.00,1.08
6214.00,1.08
6213.00,1.08
6212.00,1.08
6211.00,1.08
6210.00,1.08
6209.00,1.09
6208.00,1.09
6207.00,1.09
6206.00,1.09
6205.00,1.09
6204.00,1.09
6203.00,1.09
6202.00,1.09
6201.00,1.09
6200.00,1.09
6199.00,1.09
6198.00,1.10
6197.00,1.10
6196.00,1.10
6195.00,1.10
6194.00,1.10
6193.00,1.10
6192.00,1.10
6191.00,1.10
6190.00,1.10
6189.00,1.10
6188.00,1.11
6187.00,1.11
6186.00,1.11
6185.00,1.11
6184.00,1.11
6183.00,1.11
6182.00,1.11
6181.00,1.11
6180.00,1.11
6179.00,1.11
6178.00,1.12
6177.00,1.12
6176.00,1.12
6175.00,1.12
6174.00,1.12
6173.00,1.12
6172.00,1.12
6171.00,1.12
6170.00,1.12
6169.00,1.12
6168.00,1.13
6167.00,1.13
6166.00,1.13
6165.00,1.13
6164.00,1.13
6163.00,1.13
6162.00,1.13
6161.00,1.14
6160.00,1.14
6159.00,1.14
6158.00,1.14
6157.00,1.14
6156.00,1.14
6155.00,1.15
6154.00,1.15
6153.00,1.15
6152.00,1.15
6151.00,1.15
6150.00,1.15
6149.00,1.15
6148.00,1.16
6147.00,1.16
6146.00,1.16
6145.00,1.16
6144.00,1.16
6143.00,1.16
6142.00,1.16
6141.00,1.16
6140.00,1.16
6139.00,1.17
6138.00,1.17
6137.00,1.17
6136.00,1.17
6135.00,1.17
6134.00,1.17
6133.00,1.17
6132.00,1.17
6131.00,1.17
6130.00,1.18
6129.00,1.18
6128.00,1.18
6127.00,1.18
6126.00,1.18
6125.00,1.18
6124.00,1.18
6123.00,1.18
6122.00,1.18
6121.00,1.19
6120.00,1.19
6119.00,1.19
6118.00,1.19
6117.00,1.19
6116.00,1.19
6115.00,1.19
6114.00,1.19
6113.00,1.19
6112.00,1.20
6111.00,1.20
6110.00,1.20
6109.00,1.20
6108.00,1.20
6107.00,1.20
6106.00,1.20
6105.00,1.20
6104.00,1.20
6103.00,1.20
6102.00,1.20
6101.00,1.21
6100.00,1.21
6099.00,1.21
6098.00,1.21
6097.00,1.21
6096.00,1.21
6095.00,1.21
6094.00,1.21
6093.00,1.21
6092.00,1.21
6091.00,1.22
6090.00,1.22
6089.00,1.22
6088.00,1.22
6087.00,1.22
6086.00,1.22
6085.00,1.22
6084.00,1.22
6083.00,1.23
6082.00,1.23
6081.00,1.23
6080.00,1.23
6079.00,1.23
6078.00,1.23
6077.00,1.23
6076.00,1.23
6075.00,1.23
6074.00,1.24
6073.00,1.24
6072.00,1.24
6071.00,1.24
6070.00,1.24
6069.00,1.24
6068.00,1.24
6067.00,1.24
6066.00,1.24
6065.00,1.24
6064.00,1.25
6063.00,1.25
6062.00,1.25
6061.00,1.25
6060.00,1.25
6059.00,1.25
6058.00,1.25
6057.00,1.25
6056.00,1.25
6055.00,1.25
6054.00,1.25
6053.00,1.25
6052.00,1.25
6051.00,1.25
6050.00,1.25
6049.00,1.26
6048.00,1.26
6047.00,1.26
6046.00,1.26
6045.00,1.26
6044.00,1.26
6043.00,1.26
6042.00,1.26
6041.00,1.26
6040.00,1.26
6039.00,1.26
6038.00,1.26
6037.00,1.26
6036.00,1.26
6035.00,1.26
6034.00,1.27
6033.00,1.27
6032.00,1.27
6031.00,1.27
6030.00,1.27
6029.00,1.27
6028.00,1.27
6027.00,1.27
6026.00,1.27
6025.00,1.27
6024.00,1.27
6023.00,1.27
6022.00,1.27
6021.00,1.27
6020.00,1.27
6019.00,1.28
6018.00,1.28
6017.00,1.28
6016.00,1.28
6015.00,1.28
6014.00,1.28
6013.00,1.28
6012.00,1.28
6011.00,1.28
6010.00,1.28
6009.00,1.28
6008.00,1.28
6007.00,1.28
6006.00,1.28
6005.00,1.28
6004.00,1.28
6003.00,1.28
6002.00,1.28
6001.00,1.28
6000.00,1.28
5999.00,1.27
5998.00,1.27
5997.00,1.27
5996.00,1.27
5995.00,1.27
5994.00,1.27
5993.00,1.27
5992.00,1.27
5991.00,1.27
5990.00,1.27
5989.00,1.26
5988.00,1.26
5987.00,1.26
5986.00,1.26
5985.00,1.26
5984.00,1.26
5983.00,1.25
5982.00,1.25
5981.00,1.25
5980.00,1.25
5979.00,1.25
5978.00,1.24
5977.00,1.24
5976.00,1.24
5975.00,1.23
5974.00,1.23
5973.00,1.23
5972.00,1.22
5971.00,1.22
5970.00,1.21
5969.00,1.21
5968.00,1.21
5967.00,1.20
5966.00,1.20
5965.00,1.19
5964.00,1.19
5963.00,1.18
5962.00,1.18
5961.00,1.17
5960.00,1.17
5959.00,1.16
5958.00,1.16
5957.00,1.15
5956.00,1.15
5955.00,1.14
5954.00,1.14
5953.00,1.14
5952.00,1.13
5951.00,1.13
5950.00,1.12
5949.00,1.12
5948.00,1.12
5947.00,1.12
5946.00,1.11
5945.00,1.11
5944.00,1.11
5943.00,1.11
5942.00,1.10
5941.00,1.10
5940.00,1.10
5939.00,1.10
5938.00,1.10
5937.00,1.10
5936.00,1.09
5935.00,1.09
5934.00,1.09
5933.00,1.09
5932.00,1.09
5931.00,1.09
5930.00,1.09
5929.00,1.08
5928.00,1.08
5927.00,1.08
5926.00,1.08
5925.00,1.08
5924.00,1.08
5923.00,1.08
5922.00,1.07
5921.00,1.07
5920.00,1.07
5919.00,1.07
5918.00,1.07
5917.00,1.07
5916.00,1.06
5915.00,1.06
5914.00,1.06
5913.00,1.06
5912.00,1.06
5911.00,1.05
5910.00,1.05
5909.00,1.05
5908.00,1.05
5907.00,1.05
5906.00,1.05
5905.00,1.04
5904.00,1.04
5903.00,1.04
5902.00,1.04
5901.00,1.04
5900.00,1.04
5899.00,1.04
5898.00,1.04
5897.00,1.04
5896.00,1.04
5895.00,1.04
5894.00,1.04
5893.00,1.04
5892.00,1.05
5891.00,1.05
5890.00,1.05
5889.00,1.05
5888.00,1.05
5887.00,1.05
5886.00,1.06
5885.00,1.06
5884.00,1.06
5883.00,1.06
5882.00,1.06
5881.00,1.07
5880.00,1.07
5879.00,1.07
5878.00,1.07
5877.00,1.07
5876.00,1.08
5875.00,1.08
5874.00,1.08
5873.00,1.08
5872.00,1.08
5871.00,1.09
5870.00,1.09
5869.00,1.09
5868.00,1.09
5867.00,1.09
5866.00,1.10
5865.00,1.10
5864.00,1.10
5863.00,1.10
5862.00,1.10
5861.00,1.10
5860.00,1.11
5859.00,1.11
5858.00,1.11
5857.00,1.11
5856.00,1.11
5855.00,1.11
5854.00,1.11
5853.00,1.11
5852.00,1.11
5851.00,1.11
5850.00,1.11
5849.00,1.11
5848.00,1.11
5847.00,1.11
5846.00,1.11
5845.00,1.11
5844.00,1.11
5843.00,1.11
5842.00,1.11
5841.00,1.11
5840.00,1.11
5839.00,1.11
5838.00,1.11
5837.00,1.11
5836.00,1.11
5835.00,1.11
5834.00,1.11
5833.00,1.11
5832.00,1.11
5831.00,1.11
5830.00,1.11
5829.00,1.11
5828.00,1.11
5827.00,1.11
5826.00,1.11
5825.00,1.11
5824.00,1.11
5823.00,1.11
5822.00,1.11
5821.00,1.11
5820.00,1.11
5819.00,1.11
5818.00,1.11
5817.00,1.11
5816.00,1.11
5815.00,1.11
5814.00,1.11
5813.00,1.11
5812.00,1.11
5811.00,1.11
5810.00,1.11
5809.00,1.11
5808.00,1.11
5807.00,1.11
5806.00,1.11
5805.00,1.11
5804.00,1.11
5803.00,1.11
5802.00,1.11
5801.00,1.11
5800.00,1.11
5799.00,1.11
5798.00,1.11
5797.00,1.11
5796.00,1.10
5795.00,1.10
5794.00,1.10
5793.00,1.10
5792.00,1.10
5791.00,1.10
5790.00,1.10
5789.00,1.09
5788.00,1.09
5787.00,1.09
5786.00,1.09
5785.00,1.09
5784.00,1.09
5783.00,1.09
5782.00,1.09
5781.00,1.09
5780.00,1.09
5779.00,1.09
5778.00,1.09
5777.00,1.09
5776.00,1.09
5775.00,1.09
5774.00,1.09
5773.00,1.09
5772.00,1.09
5771.00,1.09
5770.00,1.09
5769.00,1.09
5768.00,1.09
5767.00,1.09
5766.00,1.09
5765.00,1.09
5764.00,1.09
5763.00,1.09
5762.00,1.10
5761.00,1.10
5760.00,1.10
5759.00,1.10
5758.00,1.10
5757.00,1.10
5756.00,1.10
5755.00,1.10
5754.00,1.11
5753.00,1.11
5752.00,1.11
5751.00,1.11
5750.00,1.11
5749.00,1.11
5748.00,1.12
5747.00,1.12
5746.00,1.12
5745.00,1.12
5744.00,1.12
5743.00,1.12
5742.00,1.13
5741.00,1.13
5740.00,1.13
5739.00,1.13
5738.00,1.13
5737.00,1.13
5736.00,1.13
5735.00,1.13
5734.00,1.14
5733.00,1.14
5732.00,1.14
5731.00,1.14
5730.00,1.14
5729.00,1.14
5728.00,1.14
5727.00,1.14
5726.00,1.14
5725.00,1.14
5724.00,1.14
5723.00,1.14
5722.00,1.14
5721.00,1.14
5720.00,1.14
5719.00,1.14
5718.00,1.14
5717.00,1.14
5716.00,1.14
5715.00,1.14
5714.00,1.14
5713.00,1.14
5712.00,1.14
5711.00,1.14
5710.00,1.14
5709.00,1.14
5708.00,1.14
5707.00,1.14
5706.00,1.14
5705.00,1.13
5704.00,1.13
5703.00,1.13
5702.00,1.13
5701.00,1.13
5700.00,1.13
5699.00,1.13
5698.00,1.13
5697.00,1.13
5696.00,1.13
5695.00,1.13
5694.00,1.12
5693.00,1.12
5692.00,1.12
5691.00,1.12
5690.00,1.12
5689.00,1.12
5688.00,1.12
5687.00,1.12
5686.00,1.12
5685.00,1.12
5684.00,1.12
5683.00,1.12
5682.00,1.11
5681.00,1.11
5680.00,1.11
5679.00,1.11
5678.00,1.11
5677.00,1.11
5676.00,1.12
5675.00,1.12
5674.00,1.12
5673.00,1.12
5672.00,1.12
5671.00,1.12
5670.00,1.12
5669.00,1.12
5668.00,1.12
5667.00,1.12
5666.00,1.12
5665.00,1.12
5664.00,1.12
5663.00,1.12
5662.00,1.13
5661.00,1.13
5660.00,1.13
5659.00,1.13
5658.00,1.13
5657.00,1.13
5656.00,1.13
5655.00,1.13
5654.00,1.13
5653.00,1.13
5652.00,1.13
5651.00,1.14
5650.00,1.14
5649.00,1.14
5648.00,1.14
5647.00,1.14
5646.00,1.14
5645.00,1.14
5644.00,1.14
5643.00,1.14
5642.00,1.15
5641.00,1.15
5640.00,1.15
5639.00,1.15
5638.00,1.15
5637.00,1.15
5636.00,1.15
5635.00,1.15
5634.00,1.15
5633.00,1.16
5632.00,1.16
5631.00,1.16
5630.00,1.16
5629.00,1.16
5628.00,1.16
5627.00,1.16
5626.00,1.16
5625.00,1.16
5624.00,1.16
5623.00,1.17
5622.00,1.17
5621.00,1.17
5620.00,1.17
5619.00,1.17
5618.00,1.17
5617.00,1.17
5616.00,1.17
5615.00,1.17
5614.00,1.18
5613.00,1.18
5612.00,1.18
5611.00,1.18
5610.00,1.18
5609.00,1.18
5608.00,1.18
5607.00,1.18
5606.00,1.18
5605.00,1.19
5604.00,1.19
5603.00,1.19
5602.00,1.19
5601.00,1.19
5600.00,1.19
5599.00,1.19
5598.00,1.19
5597.00,1.19
5596.00,1.20
5595.00,1.20
5594.00,1.20
5593.00,1.20
5592.00,1.20
5591.00,1.20
5590.00,1.20
5589.00,1.20
5588.00,1.21
5587.00,1.21
5586.00,1.21
5585.00,1.21
5584.00,1.21
5583.00,1.21
5582.00,1.21
5581.00,1.22
5580.00,1.22
5579.00,1.22
5578.00,1.22
5577.00,1.22
5576.00,1.22
5575.00,1.22
5574.00,1.22
5573.00,1.23
5572.00,1.23
5571.00,1.23
5570.00,1.23
5569.00,1.23
5568.00,1.23
5567.00,1.23
5566.00,1.23
5565.00,1.23
5564.00,1.23
5563.00,1.23
5562.00,1.23
5561.00,1.24
5560.00,1.24
5559.00,1.24
5558.00,1.24
5557.00,1.24
5556.00,1.24
5555.00,1.24
5554.00,1.24
5553.00,1.24
5552.00,1.24
5551.00,1.25
5550.00,1.25
5549.00,1.25
5548.00,1.25
5547.00,1.25
5546.00,1.25
5545.00,1.25
5544.00,1.25
5543.00,1.26
5542.00,1.26
5541.00,1.26
5540.00,1.26
5539.00,1.26
5538.00,1.26
5537.00,1.26
5536.00,1.26
5535.00,1.26
5534.00,1.26
5533.00,1.26
5532.00,1.26
5531.00,1.26
5530.00,1.27
5529.00,1.27
5528.00,1.27
5527.00,1.27
5526.00,1.27
5525.00,1.27
5524.00,1.27
5523.00,1.27
5522.00,1.27
5521.00,1.27
5520.00,1.27
5519.00,1.27
5518.00,1.27
5517.00,1.27
5516.00,1.27
5515.00,1.27
5514.00,1.27
5513.00,1.27
5512.00,1.27
5511.00,1.27
5510.00,1.27
5509.00,1.27
5508.00,1.27
5507.00,1.27
5506.00,1.27
5505.00,1.28
5504.00,1.28
5503.00,1.28
5502.00,1.28
5501.00,1.28
5500.00,1.28
5499.00,1.28
5498.00,1.28
5497.00,1.28
5496.00,1.28
5495.00,1.28
5494.00,1.28
5493.00,1.28
5492.00,1.28
5491.00,1.28
5490.00,1.29
5489.00,1.29
5488.00,1.29
5487.00,1.29
5486.00,1.29
5485.00,1.29
5484.00,1.29
5483.00,1.30
5482.00,1.30
5481.00,1.30
5480.00,1.30
5479.00,1.30
5478.00,1.30
5477.00,1.30
5476.00,1.30
5475.00,1.31
5474.00,1.31
5473.00,1.31
5472.00,1.31
5471.00,1.31
5470.00,1.31
5469.00,1.31
5468.00,1.31
5467.00,1.31
5466.00,1.31
5465.00,1.31
5464.00,1.31
5463.00,1.31
5462.00,1.31
5461.00,1.31
5460.00,1.31
5459.00,1.31
5458.00,1.32
5457.00,1.32
5456.00,1.32
5455.00,1.32
5454.00,1.32
5453.00,1.32
5452.00,1.32
5451.00,1.32
5450.00,1.32
5449.00,1.32
5448.00,1.32
5447.00,1.32
5446.00,1.32
5445.00,1.32
5444.00,1.32
5443.00,1.32
5442.00,1.32
5441.00,1.32
5440.00,1.32
5439.00,1.32
5438.00,1.32
5437.00,1.32
5436.00,1.32
5435.00,1.32
5434.00,1.32
5433.00,1.32
5432.00,1.32
5431.00,1.32
5430.00,1.32
5429.00,1.32
5428.00,1.32
5427.00,1.32
5426.00,1.32
5425.00,1.32
5424.00,1.32
5423.00,1.32
5422.00,1.32
5421.00,1.32
5420.00,1.32
5419.00,1.32
5418.00,1.32
5417.00,1.32
5416.00,1.32
5415.00,1.32
5414.00,1.32
5413.00,1.32
5412.00,1.32
5411.00,1.32
5410.00,1.32
5409.00,1.31
5408.00,1.31
5407.00,1.31
5406.00,1.31
5405.00,1.31
5404.00,1.31
5403.00,1.31
5402.00,1.31
5401.00,1.31
5400.00,1.31
5399.00,1.31
5398.00,1.30
5397.00,1.30
5396.00,1.30
5395.00,1.30
5394.00,1.30
5393.00,1.30
5392.00,1.29
5391.00,1.29
5390.00,1.29
5389.00,1.29
5388.00,1.29
5387.00,1.28
5386.00,1.28
5385.00,1.28
5384.00,1.28
5383.00,1.27
5382.00,1.27
5381.00,1.27
5380.00,1.27
5379.00,1.26
5378.00,1.26
5377.00,1.26
5376.00,1.25
5375.00,1.25
5374.00,1.24
5373.00,1.24
5372.00,1.24
5371.00,1.23
5370.00,1.23
5369.00,1.22
5368.00,1.22
5367.00,1.21
5366.00,1.21
5365.00,1.20
5364.00,1.20
5363.00,1.19
5362.00,1.19
5361.00,1.18
5360.00,1.17
5359.00,1.17
5358.00,1.16
5357.00,1.16
5356.00,1.15
5355.00,1.14
5354.00,1.14
5353.00,1.13
5352.00,1.12
5351.00,1.12
5350.00,1.11
5349.00,1.10
5348.00,1.09
5347.00,1.09
5346.00,1.08
5345.00,1.07
5344.00,1.06
5343.00,1.05
5342.00,1.05
5341.00,1.04
5340.00,1.03
5339.00,1.02
5338.00,1.01
5337.00,1.01
5336.00,1.00
5335.00,0.99
5334.00,0.98
5333.00,0.97
5332.00,0.97
5331.00,0.96
5330.00,0.95
5329.00,0.94
5328.00,0.94
5327.00,0.93
5326.00,0.92
5325.00,0.92
5324.00,0.91
5323.00,0.90
5322.00,0.90
5321.00,0.89
5320.00,0.89
5319.00,0.88
5318.00,0.87
5317.00,0.87
5316.00,0.86
5315.00,0.86
5314.00,0.85
5313.00,0.85
5312.00,0.84
5311.00,0.84
5310.00,0.83
5309.00,0.83
5308.00,0.82
5307.00,0.82
5306.00,0.82
5305.00,0.81
5304.00,0.81
5303.00,0.80
5302.00,0.80
5301.00,0.80
5300.00,0.80
5299.00,0.79
5298.00,0.79
5297.00,0.79
5296.00,0.79
5295.00,0.78
5294.00,0.78
5293.00,0.78
5292.00,0.78
5291.00,0.78
5290.00,0.78
5289.00,0.78
5288.00,0.77
5287.00,0.77
5286.00,0.77
5285.00,0.77
5284.00,0.77
5283.00,0.77
5282.00,0.77
5281.00,0.77
5280.00,0.77
5279.00,0.77
5278.00,0.77
5277.00,0.77
5276.00,0.77
5275.00,0.77
5274.00,0.77
5273.00,0.77
5272.00,0.77
5271.00,0.77
5270.00,0.77
5269.00,0.77
5268.00,0.77
5267.00,0.77
5266.00,0.77
5265.00,0.77
5264.00,0.77
5263.00,0.78
5262.00,0.78
5261.00,0.78
5260.00,0.78
5259.00,0.78
5258.00,0.78
5257.00,0.78
5256.00,0.78
5255.00,0.78
5254.00,0.78
5253.00,0.78
5252.00,0.77
5251.00,0.77
5250.00,0.77
5249.00,0.77
5248.00,0.77
5247.00,0.77
5246.00,0.77
5245.00,0.77
5244.00,0.77
5243.00,0.77
5242.00,0.77
5241.00,0.77
5240.00,0.77
5239.00,0.77
5238.00,0.77
5237.00,0.77
5236.00,0.77
5235.00,0.77
5234.00,0.77
5233.00,0.77
5232.00,0.77
5231.00,0.77
5230.00,0.78
5229.00,0.78
5228.00,0.78
5227.00,0.78
5226.00,0.78
5225.00,0.78
5224.00,0.78
5223.00,0.78
5222.00,0.78
5221.00,0.78
5220.00,0.78
5219.00,0.78
5218.00,0.78
5217.00,0.78
5216.00,0.78
5215.00,0.78
5214.00,0.78
5213.00,0.78
5212.00,0.78
5211.00,0.78
5210.00,0.78
5209.00,0.78
5208.00,0.78
5207.00,0.78
5206.00,0.78
5205.00,0.78
5204.00,0.78
5203.00,0.78
5202.00,0.78
5201.00,0.78
5200.00,0.78
5199.00,0.78
5198.00,0.78
5197.00,0.78
5196.00,0.78
5195.00,0.78
5194.00,0.79
5193.00,0.79
5192.00,0.79
5191.00,0.79
5190.00,0.79
5189.00,0.79
5188.00,0.79
5187.00,0.79
5186.00,0.79
5185.00,0.79
5184.00,0.79
5183.00,0.79
5182.00,0.79
5181.00,0.79
5180.00,0.79
5179.00,0.79
5178.00,0.79
5177.00,0.79
5176.00,0.79
5175.00,0.80
5174.00,0.80
5173.00,0.80
5172.00,0.80
5171.00,0.80
5170.00,0.80
5169.00,0.80
5168.00,0.80
5167.00,0.80
5166.00,0.80
5165.00,0.80
5164.00,0.80
5163.00,0.80
5162.00,0.80
5161.00,0.80
5160.00,0.80
5159.00,0.80
5158.00,0.80
5157.00,0.80
5156.00,0.80
5155.00,0.80
5154.00,0.80
5153.00,0.81
5152.00,0.81
5151.00,0.81
5150.00,0.81
5149.00,0.81
5148.00,0.81
5147.00,0.81
5146.00,0.81
5145.00,0.81
5144.00,0.81
5143.00,0.81
5142.00,0.81
5141.00,0.81
5140.00,0.81
5139.00,0.81
5138.00,0.81
5137.00,0.81
5136.00,0.81
5135.00,0.81
5134.00,0.81
5133.00,0.81
5132.00,0.81
5131.00,0.81
5130.00,0.81
5129.00,0.81
5128.00,0.81
5127.00,0.81
5126.00,0.81
5125.00,0.81
5124.00,0.81
5123.00,0.81
5122.00,0.81
5121.00,0.82
5120.00,0.82
5119.00,0.82
5118.00,0.82
5117.00,0.82
5116.00,0.82
5115.00,0.82
5114.00,0.82
5113.00,0.82
5112.00,0.82
5111.00,0.82
5110.00,0.82
5109.00,0.82
5108.00,0.82
5107.00,0.82
5106.00,0.82
5105.00,0.82
5104.00,0.82
5103.00,0.82
5102.00,0.82
5101.00,0.82
5100.00,0.82
5099.00,0.82
5098.00,0.82
5097.00,0.82
5096.00,0.82
5095.00,0.82
5094.00,0.82
5093.00,0.82
5092.00,0.82
5091.00,0.82
5090.00,0.82
5089.00,0.82
5088.00,0.83
5087.00,0.83
5086.00,0.83
5085.00,0.83
5084.00,0.83
5083.00,0.83
5082.00,0.83
5081.00,0.83
5080.00,0.83
5079.00,0.83
5078.00,0.83
5077.00,0.83
5076.00,0.83
5075.00,0.83
5074.00,0.83
5073.00,0.83
5072.00,0.83
5071.00,0.83
5070.00,0.83
5069.00,0.83
5068.00,0.83
5067.00,0.84
5066.00,0.84
5065.00,0.84
5064.00,0.84
5063.00,0.84
5062.00,0.84
5061.00,0.84
5060.00,0.84
5059.00,0.84
5058.00,0.84
5057.00,0.84
5056.00,0.84
5055.00,0.84
5054.00,0.84
5053.00,0.84
5052.00,0.84
5051.00,0.85
5050.00,0.85
5049.00,0.85
5048.00,0.85
5047.00,0.85
5046.00,0.85
5045.00,0.85
5044.00,0.85
5043.00,0.85
5042.00,0.85
5041.00,0.85
5040.00,0.85
5039.00,0.85
5038.00,0.85
5037.00,0.85
5036.00,0.85
5035.00,0.85
5034.00,0.85
5033.00,0.85
5032.00,0.85
5031.00,0.85
5030.00,0.85
5029.00,0.85
5028.00,0.85
5027.00,0.86
5026.00,0.86
5025.00,0.86
5024.00,0.86
5023.00,0.86
5022.00,0.86
5021.00,0.86
5020.00,0.86
5019.00,0.86
5018.00,0.86
5017.00,0.86
5016.00,0.86
5015.00,0.86
5014.00,0.86
5013.00,0.86
5012.00,0.86
5011.00,0.86
5010.00,0.86
5009.00,0.86
5008.00,0.86
5007.00,0.87
5006.00,0.87
5005.00,0.87
5004.00,0.87
5003.00,0.87
5002.00,0.87
5001.00,0.87
5000.00,0.87
4999.00,0.87
4998.00,0.87
4997.00,0.87
4996.00,0.87
4995.00,0.87
4994.00,0.87
4993.00,0.87
4992.00,0.87
4991.00,0.87
4990.00,0.87
4989.00,0.87
4988.00,0.87
4987.00,0.87
4986.00,0.87
4985.00,0.87
4984.00,0.87
4983.00,0.87
4982.00,0.88
4981.00,0.88
4980.00,0.88
4979.00,0.88
4978.00,0.88
4977.00,0.88
4976.00,0.88
4975.00,0.88
4974.00,0.88
4973.00,0.88
4972.00,0.88
4971.00,0.88
4970.00,0.88
4969.00,0.88
4968.00,0.88
4967.00,0.88
4966.00,0.89
4965.00,0.89
4964.00,0.89
4963.00,0.89
4962.00,0.89
4961.00,0.89
4960.00,0.89
4959.00,0.89
4958.00,0.89
4957.00,0.89
4956.00,0.89
4955.00,0.89
4954.00,0.89
4953.00,0.89
4952.00,0.89
4951.00,0.89
4950.00,0.90
4949.00,0.90
4948.00,0.90
4947.00,0.90
4946.00,0.90
4945.00,0.90
4944.00,0.90
4943.00,0.90
4942.00,0.90
4941.00,0.91
4940.00,0.91
4939.00,0.91
4938.00,0.91
4937.00,0.91
4936.00,0.91
4935.00,0.91
4934.00,0.91
4933.00,0.91
4932.00,0.91
4931.00,0.91
4930.00,0.91
4929.00,0.91
4928.00,0.91
4927.00,0.92
4926.00,0.92
4925.00,0.92
4924.00,0.92
4923.00,0.92
4922.00,0.92
4921.00,0.92
4920.00,0.92
4919.00,0.92
4918.00,0.92
4917.00,0.92
4916.00,0.92
4915.00,0.92
4914.00,0.92
4913.00,0.92
4912.00,0.92
4911.00,0.92
4910.00,0.92
4909.00,0.92
4908.00,0.92
4907.00,0.92
4906.00,0.92
4905.00,0.92
4904.00,0.92
4903.00,0.92
4902.00,0.93
4901.00,0.93
4900.00,0.93
4899.00,0.93
4898.00,0.93
4897.00,0.93
4896.00,0.93
4895.00,0.93
4894.00,0.93
4893.00,0.93
4892.00,0.93
4891.00,0.93
4890.00,0.93
4889.00,0.93
4888.00,0.93
4887.00,0.93
4886.00,0.93
4885.00,0.93
4884.00,0.94
4883.00,0.94
4882.00,0.94
4881.00,0.94
4880.00,0.94
4879.00,0.94
4878.00,0.94
4877.00,0.94
4876.00,0.94
4875.00,0.94
4874.00,0.94
4873.00,0.94
4872.00,0.94
4871.00,0.94
4870.00,0.94
4869.00,0.95
4868.00,0.95
4867.00,0.95
4866.00,0.95
4865.00,0.95
4864.00,0.95
4863.00,0.95
4862.00,0.95
4861.00,0.95
4860.00,0.95
4859.00,0.95
4858.00,0.95
4857.00,0.95
4856.00,0.95
4855.00,0.95
4854.00,0.96
4853.00,0.96
4852.00,0.96
4851.00,0.96
4850.00,0.96
4849.00,0.96
4848.00,0.96
4847.00,0.96
4846.00,0.96
4845.00,0.96
4844.00,0.96
4843.00,0.96
4842.00,0.96
4841.00,0.96
4840.00,0.97
4839.00,0.97
4838.00,0.97
4837.00,0.97
4836.00,0.97
4835.00,0.97
4834.00,0.97
4833.00,0.97
4832.00,0.97
4831.00,0.97
4830.00,0.97
4829.00,0.97
4828.00,0.97
4827.00,0.97
4826.00,0.97
4825.00,0.98
4824.00,0.98
4823.00,0.98
4822.00,0.98
4821.00,0.98
4820.00,0.98
4819.00,0.98
4818.00,0.98
4817.00,0.98
4816.00,0.99
4815.00,0.99
4814.00,0.99
4813.00,0.99
4812.00,0.99
4811.00,0.99
4810.00,0.99
4809.00,0.99
4808.00,0.99
4807.00,0.99
4806.00,0.99
4805.00,0.99
4804.00,0.99
4803.00,0.99
4802.00,0.99
4801.00,0.99
4800.00,0.99
4799.00,0.99
4798.00,1.00
4797.00,1.00
4796.00,1.00
4795.00,1.00
4794.00,1.00
4793.00,1.00
4792.00,1.00
4791.00,1.00
4790.00,1.00
4789.00,1.00
4788.00,1.01
4787.00,1.01
4786.00,1.01
4785.00,1.01
4784.00,1.01
4783.00,1.01
4782.00,1.01
4781.00,1.01
4780.00,1.01
4779.00,1.01
4778.00,1.01
4777.00,1.01
4776.00,1.01
4775.00,1.01
4774.00,1.01
4773.00,1.01
4772.00,1.02
4771.00,1.02
4770.00,1.02
4769.00,1.02
4768.00,1.02
4767.00,1.02
4766.00,1.02
4765.00,1.02
4764.00,1.03
4763.00,1.03
4762.00,1.03
4761.00,1.03
4760.00,1.03
4759.00,1.03
4758.00,1.03
4757.00,1.03
4756.00,1.03
4755.00,1.04
4754.00,1.04
4753.00,1.04
4752.00,1.04
4751.00,1.04
4750.00,1.04
4749.00,1.04
4748.00,1.04
4747.00,1.04
4746.00,1.04
4745.00,1.04
4744.00,1.04
4743.00,1.04
4742.00,1.04
4741.00,1.04
4740.00,1.04
4739.00,1.05
4738.00,1.05
4737.00,1.05
4736.00,1.05
4735.00,1.05
4734.00,1.05
4733.00,1.05
4732.00,1.05
4731.00,1.05
4730.00,1.06
4729.00,1.06
4728.00,1.06
4727.00,1.06
4726.00,1.06
4725.00,1.06
4724.00,1.06
4723.00,1.06
4722.00,1.06
4721.00,1.07
4720.00,1.07
4719.00,1.07
4718.00,1.07
4717.00,1.07
4716.00,1.07
4715.00,1.07
4714.00,1.07
4713.00,1.07
4712.00,1.07
4711.00,1.07
4710.00,1.08
4709.00,1.08
4708.00,1.08
4707.00,1.08
4706.00,1.08
4705.00,1.08
4704.00,1.09
4703.00,1.09
4702.00,1.09
4701.00,1.09
4700.00,1.09
4699.00,1.09
4698.00,1.10
4697.00,1.10
4696.00,1.10
4695.00,1.10
4694.00,1.10
4693.00,1.11
4692.00,1.11
4691.00,1.11
4690.00,1.11
4689.00,1.11
4688.00,1.11
4687.00,1.11
4686.00,1.11
4685.00,1.11
4684.00,1.11
4683.00,1.11
4682.00,1.11
4681.00,1.11
4680.00,1.11
4679.00,1.11
4678.00,1.11
4677.00,1.11
4676.00,1.11
4675.00,1.11
4674.00,1.12
4673.00,1.12
4672.00,1.12
4671.00,1.12
4670.00,1.12
4669.00,1.12
4668.00,1.12
4667.00,1.13
4666.00,1.13
4665.00,1.13
4664.00,1.13
4663.00,1.13
4662.00,1.13
4661.00,1.13
4660.00,1.13
4659.00,1.14
4658.00,1.14
4657.00,1.14
4656.00,1.14
4655.00,1.14
4654.00,1.14
4653.00,1.14
4652.00,1.14
4651.00,1.14
4650.00,1.14
4649.00,1.14
4648.00,1.14
4647.00,1.14
4646.00,1.15
4645.00,1.15
4644.00,1.15
4643.00,1.15
4642.00,1.15
4641.00,1.15
4640.00,1.15
4639.00,1.15
4638.00,1.15
4637.00,1.15
4636.00,1.15
4635.00,1.16
4634.00,1.16
4633.00,1.16
4632.00,1.16
4631.00,1.16
4630.00,1.16
4629.00,1.16
4628.00,1.16
4627.00,1.16
4626.00,1.16
4625.00,1.17
4624.00,1.17
4623.00,1.17
4622.00,1.17
4621.00,1.17
4620.00,1.17
4619.00,1.17
4618.00,1.17
4617.00,1.17
4616.00,1.17
4615.00,1.17
4614.00,1.17
4613.00,1.17
4612.00,1.17
4611.00,1.17
4610.00,1.17
4609.00,1.17
4608.00,1.17
4607.00,1.17
4606.00,1.18
4605.00,1.18
4604.00,1.18
4603.00,1.18
4602.00,1.18
4601.00,1.18
4600.00,1.18
4599.00,1.18
4598.00,1.18
4597.00,1.18
4596.00,1.18
4595.00,1.19
4594.00,1.19
4593.00,1.19
4592.00,1.19
4591.00,1.19
4590.00,1.19
4589.00,1.19
4588.00,1.19
4587.00,1.20
4586.00,1.20
4585.00,1.20
4584.00,1.20
4583.00,1.20
4582.00,1.20
4581.00,1.20
4580.00,1.20
4579.00,1.20
4578.00,1.20
4577.00,1.20
4576.00,1.20
4575.00,1.20
4574.00,1.20
4573.00,1.20
4572.00,1.20
4571.00,1.20
4570.00,1.20
4569.00,1.20
4568.00,1.20
4567.00,1.20
4566.00,1.20
4565.00,1.20
4564.00,1.20
4563.00,1.20
4562.00,1.20
4561.00,1.20
4560.00,1.20
4559.00,1.20
4558.00,1.20
4557.00,1.20
4556.00,1.21
4555.00,1.21
4554.00,1.21
4553.00,1.21
4552.00,1.21
4551.00,1.21
4550.00,1.22
4549.00,1.22
4548.00,1.22
4547.00,1.22
4546.00,1.22
4545.00,1.22
4544.00,1.23
4543.00,1.23
4542.00,1.23
4541.00,1.23
4540.00,1.23
4539.00,1.23
4538.00,1.23
4537.00,1.23
4536.00,1.23
4535.00,1.23
4534.00,1.23
4533.00,1.23
4532.00,1.23
4531.00,1.23
4530.00,1.23
4529.00,1.23
4528.00,1.23
4527.00,1.23
4526.00,1.23
4525.00,1.23
4524.00,1.23
4523.00,1.23
4522.00,1.23
4521.00,1.23
4520.00,1.23
4519.00,1.23
4518.00,1.23
4517.00,1.23
4516.00,1.23
4515.00,1.23
4514.00,1.23
4513.00,1.23
4512.00,1.23
4511.00,1.23
4510.00,1.23
4509.00,1.23
4508.00,1.23
4507.00,1.23
4506.00,1.23
4505.00,1.23
4504.00,1.23
4503.00,1.24
4502.00,1.24
4501.00,1.24
4500.00,1.24
4499.00,1.24
4498.00,1.24
4497.00,1.24
4496.00,1.24
4495.00,1.24
4494.00,1.24
4493.00,1.24
4492.00,1.24
4491.00,1.24
4490.00,1.24
4489.00,1.24
4488.00,1.24
4487.00,1.24
4486.00,1.23
4485.00,1.23
4484.00,1.23
4483.00,1.23
4482.00,1.23
4481.00,1.23
4480.00,1.23
4479.00,1.22
4478.00,1.22
4477.00,1.22
4476.00,1.22
4475.00,1.22
4474.00,1.22
4473.00,1.21
4472.00,1.21
4471.00,1.21
4470.00,1.21
4469.00,1.21
4468.00,1.20
4467.00,1.20
4466.00,1.20
4465.00,1.20
4464.00,1.20
4463.00,1.20
4462.00,1.19
4461.00,1.19
4460.00,1.19
4459.00,1.19
4458.00,1.19
4457.00,1.18
4456.00,1.18
4455.00,1.18
4454.00,1.18
4453.00,1.18
4452.00,1.17
4451.00,1.17
4450.00,1.17
4449.00,1.17
4448.00,1.16
4447.00,1.16
4446.00,1.16
4445.00,1.16
4444.00,1.15
4443.00,1.15
4442.00,1.15
4441.00,1.15
4440.00,1.14
4439.00,1.14
4438.00,1.14
4437.00,1.14
4436.00,1.13
4435.00,1.13
4434.00,1.13
4433.00,1.13
4432.00,1.13
4431.00,1.12
4430.00,1.12
4429.00,1.12
4428.00,1.12
4427.00,1.12
4426.00,1.12
4425.00,1.12
4424.00,1.12
4423.00,1.12
4422.00,1.12
4421.00,1.12
4420.00,1.12
4419.00,1.12
4418.00,1.12
4417.00,1.12
4416.00,1.12
4415.00,1.12
4414.00,1.12
4413.00,1.12
4412.00,1.12
4411.00,1.12
4410.00,1.12
4409.00,1.12
4408.00,1.12
4407.00,1.12
4406.00,1.12
4405.00,1.12
4404.00,1.12
4403.00,1.12
4402.00,1.12
4401.00,1.12
4400.00,1.12
4399.00,1.13
4398.00,1.13
4397.00,1.13
4396.00,1.13
4395.00,1.13
4394.00,1.13
4393.00,1.13
4392.00,1.13
4391.00,1.14
4390.00,1.14
4389.00,1.14
4388.00,1.14
4387.00,1.14
4386.00,1.14
4385.00,1.14
4384.00,1.14
4383.00,1.14
4382.00,1.14
4381.00,1.14
4380.00,1.14
4379.00,1.14
4378.00,1.14
4377.00,1.14
4376.00,1.14
4375.00,1.14
4374.00,1.14
4373.00,1.14
4372.00,1.14
4371.00,1.14
4370.00,1.15
4369.00,1.15
4368.00,1.15
4367.00,1.15
4366.00,1.15
4365.00,1.15
4364.00,1.15
4363.00,1.15
4362.00,1.15
4361.00,1.15
4360.00,1.15
4359.00,1.15
4358.00,1.15
4357.00,1.15
4356.00,1.15
4355.00,1.15
4354.00,1.15
4353.00,1.15
4352.00,1.15
4351.00,1.15
4350.00,1.15
4349.00,1.15
4348.00,1.15
4347.00,1.15
4346.00,1.15
4345.00,1.15
4344.00,1.15
4343.00,1.15
4342.00,1.15
4341.00,1.15
4340.00,1.16
4339.00,1.16
4338.00,1.16
4337.00,1.16
4336.00,1.16
4335.00,1.16
4334.00,1.16
4333.00,1.16
4332.00,1.17
4331.00,1.17
4330.00,1.17
4329.00,1.17
4328.00,1.17
4327.00,1.17
4326.00,1.17
4325.00,1.17
4324.00,1.17
4323.00,1.17
4322.00,1.17
4321.00,1.17
4320.00,1.17
4319.00,1.17
4318.00,1.17
4317.00,1.17
4316.00,1.17
4315.00,1.18
4314.00,1.18
4313.00,1.18
4312.00,1.18
4311.00,1.18
4310.00,1.18
4309.00,1.18
4308.00,1.18
4307.00,1.19
4306.00,1.19
4305.00,1.19
4304.00,1.19
4303.00,1.19
4302.00,1.19
4301.00,1.19
4300.00,1.19
4299.00,1.20
4298.00,1.20
4297.00,1.20
4296.00,1.20
4295.00,1.20
4294.00,1.20
4293.00,1.20
4292.00,1.20
4291.00,1.20
4290.00,1.20
4289.00,1.20
4288.00,1.20
4287.00,1.20
4286.00,1.20
4285.00,1.20
4284.00,1.20
4283.00,1.20
4282.00,1.20
4281.00,1.20
4280.00,1.20
4279.00,1.20
4278.00,1.20
4277.00,1.20
4276.00,1.20
4275.00,1.20
4274.00,1.20
4273.00,1.20
4272.00,1.20
4271.00,1.20
4270.00,1.20
4269.00,1.20
4268.00,1.20
4267.00,1.20
4266.00,1.20
4265.00,1.20
4264.00,1.20
4263.00,1.20
4262.00,1.20
4261.00,1.20
4260.00,1.20
4259.00,1.20
4258.00,1.20
4257.00,1.20
4256.00,1.20
4255.00,1.21
4254.00,1.21
4253.00,1.21
4252.00,1.21
4251.00,1.21
4250.00,1.21
4249.00,1.21
4248.00,1.21
4247.00,1.21
4246.00,1.21
4245.00,1.21
4244.00,1.21
4243.00,1.22
4242.00,1.22
4241.00,1.22
4240.00,1.22
4239.00,1.22
4238.00,1.22
4237.00,1.22
4236.00,1.22
4235.00,1.22
4234.00,1.22
4233.00,1.22
4232.00,1.23
4231.00,1.23
4230.00,1.23
4229.00,1.23
4228.00,1.23
4227.00,1.23
4226.00,1.23
4225.00,1.23
4224.00,1.23
4223.00,1.23
4222.00,1.23
4221.00,1.23
4220.00,1.23
4219.00,1.23
4218.00,1.23
4217.00,1.23
4216.00,1.23
4215.00,1.23
4214.00,1.23
4213.00,1.24
4212.00,1.24
4211.00,1.24
4210.00,1.24
4209.00,1.24
4208.00,1.24
4207.00,1.24
4206.00,1.24
4205.00,1.24
4204.00,1.24
4203.00,1.24
4202.00,1.24
4201.00,1.24
4200.00,1.24
4199.00,1.24
4198.00,1.24
4197.00,1.24
4196.00,1.24
4195.00,1.24
4194.00,1.24
4193.00,1.24
4192.00,1.24
4191.00,1.24
4190.00,1.24
4189.00,1.24
4188.00,1.24
4187.00,1.24
4186.00,1.24
4185.00,1.24
4184.00,1.24
4183.00,1.24
4182.00,1.24
4181.00,1.24
4180.00,1.24
4179.00,1.24
4178.00,1.24
4177.00,1.24
4176.00,1.24
4175.00,1.24
4174.00,1.25
4173.00,1.25
4172.00,1.25
4171.00,1.25
4170.00,1.25
4169.00,1.25
4168.00,1.25
4167.00,1.25
4166.00,1.25
4165.00,1.25
4164.00,1.25
4163.00,1.25
4162.00,1.25
4161.00,1.25
4160.00,1.25
4159.00,1.25
4158.00,1.25
4157.00,1.26
4156.00,1.26
4155.00,1.26
4154.00,1.26
4153.00,1.26
4152.00,1.26
4151.00,1.26
4150.00,1.26
4149.00,1.26
4148.00,1.26
4147.00,1.26
4146.00,1.26
4145.00,1.26
4144.00,1.26
4143.00,1.26
4142.00,1.26
4141.00,1.26
4140.00,1.26
4139.00,1.26
4138.00,1.26
4137.00,1.26
4136.00,1.26
4135.00,1.27
4134.00,1.27
4133.00,1.27
4132.00,1.27
4131.00,1.27
4130.00,1.27
4129.00,1.27
4128.00,1.27
4127.00,1.27
4126.00,1.27
4125.00,1.27
4124.00,1.27
4123.00,1.27
4122.00,1.27
4121.00,1.27
4120.00,1.27
4119.00,1.27
4118.00,1.27
4117.00,1.27
4116.00,1.27
4115.00,1.27
4114.00,1.27
4113.00,1.27
4112.00,1.27
4111.00,1.27
4110.00,1.27
4109.00,1.27
4108.00,1.27
4107.00,1.27
4106.00,1.28
4105.00,1.28
4104.00,1.28
4103.00,1.28
4102.00,1.28
4101.00,1.28
4100.00,1.28
4099.00,1.29
4098.00,1.29
4097.00,1.29
4096.00,1.29
4095.00,1.29
4094.00,1.29
4093.00,1.29
4092.00,1.29
4091.00,1.29
4090.00,1.29
4089.00,1.29
4088.00,1.29
4087.00,1.29
4086.00,1.29
4085.00,1.29
4084.00,1.29
4083.00,1.29
4082.00,1.29
4081.00,1.29
4080.00,1.29
4079.00,1.29
4078.00,1.29
4077.00,1.29
4076.00,1.29
4075.00,1.29
4074.00,1.29
4073.00,1.29
4072.00,1.29
4071.00,1.29
4070.00,1.29
4069.00,1.29
4068.00,1.29
4067.00,1.29
4066.00,1.29
4065.00,1.29
4064.00,1.29
4063.00,1.29
4062.00,1.29
4061.00,1.29
4060.00,1.29
4059.00,1.29
4058.00,1.29
4057.00,1.29
4056.00,1.30
4055.00,1.30
4054.00,1.30
4053.00,1.30
4052.00,1.30
4051.00,1.30
4050.00,1.30
4049.00,1.30
4048.00,1.31
4047.00,1.31
4046.00,1.31
4045.00,1.31
4044.00,1.31
4043.00,1.31
4042.00,1.31
4041.00,1.31
4040.00,1.31
4039.00,1.32
4038.00,1.32
4037.00,1.32
4036.00,1.32
4035.00,1.32
4034.00,1.32
4033.00,1.32
4032.00,1.32
4031.00,1.32
4030.00,1.32
4029.00,1.32
4028.00,1.32
4027.00,1.32
4026.00,1.32
4025.00,1.32
4024.00,1.31
4023.00,1.31
4022.00,1.31
4021.00,1.31
4020.00,1.31
4019.00,1.30
4018.00,1.30
4017.00,1.30
4016.00,1.30
4015.00,1.30
4014.00,1.30
4013.00,1.30
4012.00,1.30
4011.00,1.30
4010.00,1.30
4009.00,1.30
4008.00,1.30
4007.00,1.31
4006.00,1.31
4005.00,1.31
4004.00,1.31
4003.00,1.32
4002.00,1.32
4001.00,1.32
4000.00,1.32
