创建为新数据集,样品 039 用户 Administrator 日期 星期三, 十一月 01 2017
cm-1,%T
10000.00,2.07
9999.00,2.07
9998.00,2.07
9997.00,2.07
9996.00,2.07
9995.00,2.07
9994.00,2.07
9993.00,2.07
9992.00,2.07
9991.00,2.06
9990.00,2.06
9989.00,2.06
9988.00,2.06
9987.00,2.06
9986.00,2.06
9985.00,2.06
9984.00,2.05
9983.00,2.05
9982.00,2.05
9981.00,2.05
9980.00,2.05
9979.00,2.04
9978.00,2.04
9977.00,2.04
9976.00,2.04
9975.00,2.04
9974.00,2.04
9973.00,2.04
9972.00,2.03
9971.00,2.03
9970.00,2.03
9969.00,2.03
9968.00,2.03
9967.00,2.03
9966.00,2.03
9965.00,2.03
9964.00,2.03
9963.00,2.03
9962.00,2.03
9961.00,2.03
9960.00,2.04
9959.00,2.04
9958.00,2.04
9957.00,2.04
9956.00,2.04
9955.00,2.03
9954.00,2.03
9953.00,2.03
9952.00,2.03
9951.00,2.03
9950.00,2.03
9949.00,2.03
9948.00,2.03
9947.00,2.02
9946.00,2.02
9945.00,2.02
9944.00,2.02
9943.00,2.01
9942.00,2.01
9941.00,2.01
9940.00,2.01
9939.00,2.01
9938.00,2.01
9937.00,2.01
9936.00,2.01
9935.00,2.01
9934.00,2.01
9933.00,2.01
9932.00,2.01
9931.00,2.01
9930.00,2.02
9929.00,2.02
9928.00,2.02
9927.00,2.02
9926.00,2.02
9925.00,2.02
9924.00,2.03
9923.00,2.03
9922.00,2.03
9921.00,2.03
9920.00,2.03
9919.00,2.03
9918.00,2.03
9917.00,2.03
9916.00,2.03
9915.00,2.03
9914.00,2.04
9913.00,2.04
9912.00,2.04
9911.00,2.04
9910.00,2.04
9909.00,2.04
9908.00,2.04
9907.00,2.04
9906.00,2.04
9905.00,2.04
9904.00,2.04
9903.00,2.04
9902.00,2.04
9901.00,2.04
9900.00,2.04
9899.00,2.04
9898.00,2.04
9897.00,2.04
9896.00,2.04
9895.00,2.04
9894.00,2.04
9893.00,2.04
9892.00,2.04
9891.00,2.04
9890.00,2.04
9889.00,2.04
9888.00,2.04
9887.00,2.04
9886.00,2.04
9885.00,2.04
9884.00,2.04
9883.00,2.04
9882.00,2.03
9881.00,2.03
9880.00,2.03
9879.00,2.03
9878.00,2.03
9877.00,2.03
9876.00,2.03
9875.00,2.03
9874.00,2.03
9873.00,2.03
9872.00,2.03
9871.00,2.03
9870.00,2.03
9869.00,2.02
9868.00,2.02
9867.00,2.02
9866.00,2.02
9865.00,2.02
9864.00,2.02
9863.00,2.02
9862.00,2.02
9861.00,2.02
9860.00,2.02
9859.00,2.02
9858.00,2.02
9857.00,2.02
9856.00,2.03
9855.00,2.03
9854.00,2.03
9853.00,2.03
9852.00,2.03
9851.00,2.03
9850.00,2.03
9849.00,2.03
9848.00,2.03
9847.00,2.03
9846.00,2.03
9845.00,2.03
9844.00,2.03
9843.00,2.03
9842.00,2.03
9841.00,2.03
9840.00,2.03
9839.00,2.03
9838.00,2.03
9837.00,2.03
9836.00,2.03
9835.00,2.03
9834.00,2.04
9833.00,2.04
9832.00,2.04
9831.00,2.04
9830.00,2.04
9829.00,2.04
9828.00,2.03
9827.00,2.03
9826.00,2.03
9825.00,2.03
9824.00,2.03
9823.00,2.03
9822.00,2.02
9821.00,2.02
9820.00,2.02
9819.00,2.02
9818.00,2.02
9817.00,2.02
9816.00,2.02
9815.00,2.01
9814.00,2.01
9813.00,2.01
9812.00,2.01
9811.00,2.01
9810.00,2.02
9809.00,2.02
9808.00,2.02
9807.00,2.02
9806.00,2.02
9805.00,2.02
9804.00,2.02
9803.00,2.02
9802.00,2.03
9801.00,2.03
9800.00,2.03
9799.00,2.03
9798.00,2.03
9797.00,2.03
9796.00,2.03
9795.00,2.03
9794.00,2.03
9793.00,2.03
9792.00,2.03
9791.00,2.03
9790.00,2.03
9789.00,2.03
9788.00,2.03
9787.00,2.03
9786.00,2.03
9785.00,2.03
9784.00,2.03
9783.00,2.03
9782.00,2.03
9781.00,2.03
9780.00,2.03
9779.00,2.03
9778.00,2.03
9777.00,2.03
9776.00,2.03
9775.00,2.03
9774.00,2.03
9773.00,2.03
9772.00,2.02
9771.00,2.02
9770.00,2.02
9769.00,2.02
9768.00,2.02
9767.00,2.02
9766.00,2.02
9765.00,2.02
9764.00,2.02
9763.00,2.02
9762.00,2.02
9761.00,2.02
9760.00,2.01
9759.00,2.01
9758.00,2.01
9757.00,2.01
9756.00,2.01
9755.00,2.01
9754.00,2.01
9753.00,2.01
9752.00,2.02
9751.00,2.02
9750.00,2.02
9749.00,2.02
9748.00,2.02
9747.00,2.03
9746.00,2.03
9745.00,2.03
9744.00,2.03
9743.00,2.03
9742.00,2.04
9741.00,2.04
9740.00,2.04
9739.00,2.04
9738.00,2.04
9737.00,2.04
9736.00,2.04
9735.00,2.04
9734.00,2.04
9733.00,2.04
9732.00,2.04
9731.00,2.04
9730.00,2.04
9729.00,2.04
9728.00,2.03
9727.00,2.03
9726.00,2.03
9725.00,2.03
9724.00,2.03
9723.00,2.03
9722.00,2.03
9721.00,2.03
9720.00,2.03
9719.00,2.03
9718.00,2.03
9717.00,2.03
9716.00,2.03
9715.00,2.03
9714.00,2.03
9713.00,2.03
9712.00,2.03
9711.00,2.03
9710.00,2.03
9709.00,2.03
9708.00,2.03
9707.00,2.02
9706.00,2.02
9705.00,2.02
9704.00,2.02
9703.00,2.02
9702.00,2.02
9701.00,2.02
9700.00,2.02
9699.00,2.02
9698.00,2.02
9697.00,2.02
9696.00,2.02
9695.00,2.02
9694.00,2.02
9693.00,2.02
9692.00,2.01
9691.00,2.01
9690.00,2.01
9689.00,2.01
9688.00,2.01
9687.00,2.01
9686.00,2.01
9685.00,2.00
9684.00,2.00
9683.00,2.00
9682.00,2.00
9681.00,2.00
9680.00,2.00
9679.00,2.00
9678.00,2.00
9677.00,2.00
9676.00,2.00
9675.00,2.00
9674.00,2.00
9673.00,2.01
9672.00,2.01
9671.00,2.01
9670.00,2.01
9669.00,2.01
9668.00,2.02
9667.00,2.02
9666.00,2.02
9665.00,2.02
9664.00,2.02
9663.00,2.03
9662.00,2.03
9661.00,2.03
9660.00,2.03
9659.00,2.03
9658.00,2.03
9657.00,2.03
9656.00,2.03
9655.00,2.03
9654.00,2.03
9653.00,2.03
9652.00,2.03
9651.00,2.03
9650.00,2.03
9649.00,2.02
9648.00,2.02
9647.00,2.02
9646.00,2.02
9645.00,2.02
9644.00,2.02
9643.00,2.02
9642.00,2.02
9641.00,2.02
9640.00,2.02
9639.00,2.02
9638.00,2.02
9637.00,2.02
9636.00,2.02
9635.00,2.02
9634.00,2.03
9633.00,2.03
9632.00,2.03
9631.00,2.03
9630.00,2.03
9629.00,2.03
9628.00,2.03
9627.00,2.03
9626.00,2.03
9625.00,2.03
9624.00,2.03
9623.00,2.03
9622.00,2.03
9621.00,2.03
9620.00,2.03
9619.00,2.02
9618.00,2.02
9617.00,2.02
9616.00,2.02
9615.00,2.02
9614.00,2.02
9613.00,2.02
9612.00,2.01
9611.00,2.01
9610.00,2.01
9609.00,2.01
9608.00,2.01
9607.00,2.01
9606.00,2.01
9605.00,2.01
9604.00,2.01
9603.00,2.01
9602.00,2.01
9601.00,2.02
9600.00,2.02
9599.00,2.01
9598.00,2.01
9597.00,2.01
9596.00,2.01
9595.00,2.01
9594.00,2.01
9593.00,2.01
9592.00,2.01
9591.00,2.01
9590.00,2.01
9589.00,2.01
9588.00,2.01
9587.00,2.01
9586.00,2.01
9585.00,2.01
9584.00,2.01
9583.00,2.01
9582.00,2.01
9581.00,2.01
9580.00,2.01
9579.00,2.01
9578.00,2.01
9577.00,2.01
9576.00,2.01
9575.00,2.01
9574.00,2.01
9573.00,2.01
9572.00,2.01
9571.00,2.01
9570.00,2.01
9569.00,2.01
9568.00,2.01
9567.00,2.01
9566.00,2.01
9565.00,2.01
9564.00,2.01
9563.00,2.01
9562.00,2.01
9561.00,2.01
9560.00,2.01
9559.00,2.01
9558.00,2.01
9557.00,2.01
9556.00,2.01
9555.00,2.01
9554.00,2.01
9553.00,2.01
9552.00,2.01
9551.00,2.01
9550.00,2.01
9549.00,2.01
9548.00,2.01
9547.00,2.01
9546.00,2.01
9545.00,2.01
9544.00,2.01
9543.00,2.01
9542.00,2.01
9541.00,2.01
9540.00,2.01
9539.00,2.01
9538.00,2.01
9537.00,2.01
9536.00,2.01
9535.00,2.01
9534.00,2.01
9533.00,2.01
9532.00,2.01
9531.00,2.01
9530.00,2.01
9529.00,2.01
9528.00,2.02
9527.00,2.02
9526.00,2.02
9525.00,2.02
9524.00,2.02
9523.00,2.03
9522.00,2.03
9521.00,2.03
9520.00,2.03
9519.00,2.04
9518.00,2.04
9517.00,2.04
9516.00,2.04
9515.00,2.04
9514.00,2.04
9513.00,2.04
9512.00,2.04
9511.00,2.04
9510.00,2.04
9509.00,2.04
9508.00,2.04
9507.00,2.04
9506.00,2.04
9505.00,2.04
9504.00,2.03
9503.00,2.03
9502.00,2.03
9501.00,2.03
9500.00,2.03
9499.00,2.03
9498.00,2.03
9497.00,2.03
9496.00,2.03
9495.00,2.03
9494.00,2.03
9493.00,2.03
9492.00,2.03
9491.00,2.03
9490.00,2.03
9489.00,2.03
9488.00,2.03
9487.00,2.03
9486.00,2.03
9485.00,2.03
9484.00,2.03
9483.00,2.03
9482.00,2.03
9481.00,2.03
9480.00,2.03
9479.00,2.03
9478.00,2.03
9477.00,2.03
9476.00,2.03
9475.00,2.02
9474.00,2.02
9473.00,2.02
9472.00,2.02
9471.00,2.02
9470.00,2.01
9469.00,2.01
9468.00,2.01
9467.00,2.01
9466.00,2.01
9465.00,2.01
9464.00,2.01
9463.00,2.01
9462.00,2.01
9461.00,2.01
9460.00,2.01
9459.00,2.01
9458.00,2.01
9457.00,2.01
9456.00,2.02
9455.00,2.02
9454.00,2.02
9453.00,2.02
9452.00,2.02
9451.00,2.03
9450.00,2.03
9449.00,2.03
9448.00,2.03
9447.00,2.03
9446.00,2.03
9445.00,2.03
9444.00,2.03
9443.00,2.04
9442.00,2.04
9441.00,2.04
9440.00,2.04
9439.00,2.04
9438.00,2.04
9437.00,2.04
9436.00,2.04
9435.00,2.04
9434.00,2.04
9433.00,2.04
9432.00,2.04
9431.00,2.04
9430.00,2.04
9429.00,2.04
9428.00,2.04
9427.00,2.04
9426.00,2.04
9425.00,2.04
9424.00,2.05
9423.00,2.05
9422.00,2.05
9421.00,2.05
9420.00,2.05
9419.00,2.05
9418.00,2.05
9417.00,2.05
9416.00,2.05
9415.00,2.04
9414.00,2.04
9413.00,2.04
9412.00,2.04
9411.00,2.04
9410.00,2.04
9409.00,2.04
9408.00,2.04
9407.00,2.04
9406.00,2.04
9405.00,2.04
9404.00,2.04
9403.00,2.04
9402.00,2.04
9401.00,2.03
9400.00,2.03
9399.00,2.03
9398.00,2.03
9397.00,2.03
9396.00,2.03
9395.00,2.03
9394.00,2.03
9393.00,2.03
9392.00,2.03
9391.00,2.03
9390.00,2.03
9389.00,2.03
9388.00,2.03
9387.00,2.03
9386.00,2.03
9385.00,2.03
9384.00,2.03
9383.00,2.03
9382.00,2.03
9381.00,2.03
9380.00,2.03
9379.00,2.03
9378.00,2.04
9377.00,2.04
9376.00,2.04
9375.00,2.04
9374.00,2.04
9373.00,2.04
9372.00,2.04
9371.00,2.04
9370.00,2.04
9369.00,2.04
9368.00,2.04
9367.00,2.04
9366.00,2.04
9365.00,2.04
9364.00,2.04
9363.00,2.04
9362.00,2.04
9361.00,2.04
9360.00,2.04
9359.00,2.05
9358.00,2.05
9357.00,2.05
9356.00,2.05
9355.00,2.05
9354.00,2.05
9353.00,2.05
9352.00,2.05
9351.00,2.05
9350.00,2.05
9349.00,2.04
9348.00,2.04
9347.00,2.04
9346.00,2.04
9345.00,2.04
9344.00,2.04
9343.00,2.04
9342.00,2.03
9341.00,2.03
9340.00,2.03
9339.00,2.03
9338.00,2.03
9337.00,2.03
9336.00,2.03
9335.00,2.03
9334.00,2.03
9333.00,2.03
9332.00,2.03
9331.00,2.04
9330.00,2.04
9329.00,2.04
9328.00,2.04
9327.00,2.04
9326.00,2.04
9325.00,2.04
9324.00,2.05
9323.00,2.05
9322.00,2.05
9321.00,2.05
9320.00,2.05
9319.00,2.05
9318.00,2.05
9317.00,2.05
9316.00,2.05
9315.00,2.05
9314.00,2.05
9313.00,2.06
9312.00,2.06
9311.00,2.06
9310.00,2.06
9309.00,2.06
9308.00,2.06
9307.00,2.06
9306.00,2.06
9305.00,2.06
9304.00,2.06
9303.00,2.06
9302.00,2.06
9301.00,2.06
9300.00,2.06
9299.00,2.06
9298.00,2.06
9297.00,2.06
9296.00,2.06
9295.00,2.06
9294.00,2.06
9293.00,2.06
9292.00,2.06
9291.00,2.06
9290.00,2.06
9289.00,2.06
9288.00,2.06
9287.00,2.06
9286.00,2.06
9285.00,2.06
9284.00,2.06
9283.00,2.06
9282.00,2.07
9281.00,2.07
9280.00,2.07
9279.00,2.06
9278.00,2.06
9277.00,2.06
9276.00,2.06
9275.00,2.06
9274.00,2.06
9273.00,2.06
9272.00,2.06
9271.00,2.06
9270.00,2.05
9269.00,2.05
9268.00,2.05
9267.00,2.05
9266.00,2.05
9265.00,2.05
9264.00,2.05
9263.00,2.05
9262.00,2.05
9261.00,2.05
9260.00,2.05
9259.00,2.05
9258.00,2.05
9257.00,2.05
9256.00,2.05
9255.00,2.05
9254.00,2.05
9253.00,2.05
9252.00,2.05
9251.00,2.05
9250.00,2.05
9249.00,2.06
9248.00,2.06
9247.00,2.06
9246.00,2.06
9245.00,2.06
9244.00,2.06
9243.00,2.06
9242.00,2.06
9241.00,2.06
9240.00,2.06
9239.00,2.06
9238.00,2.06
9237.00,2.06
9236.00,2.06
9235.00,2.06
9234.00,2.06
9233.00,2.06
9232.00,2.06
9231.00,2.06
9230.00,2.06
9229.00,2.05
9228.00,2.05
9227.00,2.05
9226.00,2.05
9225.00,2.05
9224.00,2.05
9223.00,2.05
9222.00,2.05
9221.00,2.05
9220.00,2.04
9219.00,2.04
9218.00,2.04
9217.00,2.04
9216.00,2.04
9215.00,2.04
9214.00,2.04
9213.00,2.04
9212.00,2.04
9211.00,2.04
9210.00,2.04
9209.00,2.04
9208.00,2.04
9207.00,2.04
9206.00,2.04
9205.00,2.05
9204.00,2.05
9203.00,2.05
9202.00,2.05
9201.00,2.05
9200.00,2.05
9199.00,2.05
9198.00,2.05
9197.00,2.05
9196.00,2.05
9195.00,2.05
9194.00,2.05
9193.00,2.05
9192.00,2.05
9191.00,2.05
9190.00,2.05
9189.00,2.05
9188.00,2.05
9187.00,2.05
9186.00,2.05
9185.00,2.05
9184.00,2.05
9183.00,2.05
9182.00,2.05
9181.00,2.06
9180.00,2.06
9179.00,2.06
9178.00,2.06
9177.00,2.06
9176.00,2.06
9175.00,2.06
9174.00,2.06
9173.00,2.06
9172.00,2.06
9171.00,2.06
9170.00,2.06
9169.00,2.06
9168.00,2.06
9167.00,2.06
9166.00,2.06
9165.00,2.06
9164.00,2.06
9163.00,2.06
9162.00,2.06
9161.00,2.06
9160.00,2.06
9159.00,2.05
9158.00,2.05
9157.00,2.05
9156.00,2.05
9155.00,2.05
9154.00,2.05
9153.00,2.05
9152.00,2.05
9151.00,2.05
9150.00,2.05
9149.00,2.05
9148.00,2.05
9147.00,2.05
9146.00,2.05
9145.00,2.05
9144.00,2.05
9143.00,2.05
9142.00,2.05
9141.00,2.05
9140.00,2.05
9139.00,2.05
9138.00,2.05
9137.00,2.05
9136.00,2.05
9135.00,2.05
9134.00,2.05
9133.00,2.05
9132.00,2.05
9131.00,2.05
9130.00,2.04
9129.00,2.04
9128.00,2.04
9127.00,2.04
9126.00,2.04
9125.00,2.04
9124.00,2.04
9123.00,2.04
9122.00,2.04
9121.00,2.04
9120.00,2.04
9119.00,2.05
9118.00,2.05
9117.00,2.05
9116.00,2.05
9115.00,2.05
9114.00,2.05
9113.00,2.05
9112.00,2.05
9111.00,2.05
9110.00,2.06
9109.00,2.06
9108.00,2.05
9107.00,2.05
9106.00,2.05
9105.00,2.05
9104.00,2.05
9103.00,2.05
9102.00,2.05
9101.00,2.05
9100.00,2.05
9099.00,2.05
9098.00,2.05
9097.00,2.04
9096.00,2.04
9095.00,2.04
9094.00,2.04
9093.00,2.04
9092.00,2.04
9091.00,2.04
9090.00,2.04
9089.00,2.05
9088.00,2.05
9087.00,2.05
9086.00,2.05
9085.00,2.05
9084.00,2.05
9083.00,2.05
9082.00,2.05
9081.00,2.05
9080.00,2.05
9079.00,2.05
9078.00,2.05
9077.00,2.05
9076.00,2.05
9075.00,2.05
9074.00,2.05
9073.00,2.05
9072.00,2.05
9071.00,2.05
9070.00,2.05
9069.00,2.05
9068.00,2.05
9067.00,2.04
9066.00,2.04
9065.00,2.04
9064.00,2.04
9063.00,2.04
9062.00,2.04
9061.00,2.04
9060.00,2.04
9059.00,2.04
9058.00,2.04
9057.00,2.04
9056.00,2.04
9055.00,2.04
9054.00,2.04
9053.00,2.04
9052.00,2.04
9051.00,2.04
9050.00,2.04
9049.00,2.04
9048.00,2.04
9047.00,2.04
9046.00,2.04
9045.00,2.04
9044.00,2.04
9043.00,2.04
9042.00,2.05
9041.00,2.05
9040.00,2.05
9039.00,2.05
9038.00,2.05
9037.00,2.05
9036.00,2.05
9035.00,2.05
9034.00,2.04
9033.00,2.04
9032.00,2.04
9031.00,2.04
9030.00,2.04
9029.00,2.04
9028.00,2.04
9027.00,2.04
9026.00,2.04
9025.00,2.04
9024.00,2.04
9023.00,2.04
9022.00,2.04
9021.00,2.04
9020.00,2.04
9019.00,2.04
9018.00,2.04
9017.00,2.03
9016.00,2.03
9015.00,2.03
9014.00,2.03
9013.00,2.03
9012.00,2.03
9011.00,2.03
9010.00,2.03
9009.00,2.02
9008.00,2.02
9007.00,2.02
9006.00,2.02
9005.00,2.02
9004.00,2.02
9003.00,2.02
9002.00,2.03
9001.00,2.03
9000.00,2.03
8999.00,2.03
8998.00,2.03
8997.00,2.03
8996.00,2.03
8995.00,2.03
8994.00,2.03
8993.00,2.03
8992.00,2.03
8991.00,2.03
8990.00,2.03
8989.00,2.03
8988.00,2.03
8987.00,2.03
8986.00,2.03
8985.00,2.03
8984.00,2.03
8983.00,2.03
8982.00,2.04
8981.00,2.04
8980.00,2.04
8979.00,2.04
8978.00,2.04
8977.00,2.04
8976.00,2.04
8975.00,2.04
8974.00,2.04
8973.00,2.04
8972.00,2.04
8971.00,2.04
8970.00,2.04
8969.00,2.04
8968.00,2.04
8967.00,2.04
8966.00,2.03
8965.00,2.03
8964.00,2.03
8963.00,2.03
8962.00,2.03
8961.00,2.03
8960.00,2.03
8959.00,2.03
8958.00,2.03
8957.00,2.02
8956.00,2.02
8955.00,2.02
8954.00,2.02
8953.00,2.02
8952.00,2.02
8951.00,2.02
8950.00,2.02
8949.00,2.02
8948.00,2.01
8947.00,2.01
8946.00,2.01
8945.00,2.01
8944.00,2.01
8943.00,2.01
8942.00,2.01
8941.00,2.02
8940.00,2.02
8939.00,2.02
8938.00,2.02
8937.00,2.02
8936.00,2.02
8935.00,2.02
8934.00,2.02
8933.00,2.02
8932.00,2.02
8931.00,2.03
8930.00,2.03
8929.00,2.03
8928.00,2.03
8927.00,2.03
8926.00,2.03
8925.00,2.03
8924.00,2.03
8923.00,2.03
8922.00,2.03
8921.00,2.03
8920.00,2.03
8919.00,2.03
8918.00,2.03
8917.00,2.03
8916.00,2.03
8915.00,2.03
8914.00,2.03
8913.00,2.03
8912.00,2.03
8911.00,2.03
8910.00,2.03
8909.00,2.03
8908.00,2.03
8907.00,2.03
8906.00,2.03
8905.00,2.03
8904.00,2.03
8903.00,2.03
8902.00,2.03
8901.00,2.03
8900.00,2.03
8899.00,2.03
8898.00,2.03
8897.00,2.03
8896.00,2.03
8895.00,2.03
8894.00,2.03
8893.00,2.03
8892.00,2.02
8891.00,2.02
8890.00,2.02
8889.00,2.02
8888.00,2.02
8887.00,2.02
8886.00,2.02
8885.00,2.02
8884.00,2.01
8883.00,2.01
8882.00,2.01
8881.00,2.01
8880.00,2.01
8879.00,2.01
8878.00,2.01
8877.00,2.01
8876.00,2.01
8875.00,2.01
8874.00,2.00
8873.00,2.00
8872.00,2.00
8871.00,2.00
8870.00,2.01
8869.00,2.01
8868.00,2.01
8867.00,2.01
8866.00,2.01
8865.00,2.01
8864.00,2.01
8863.00,2.01
8862.00,2.01
8861.00,2.01
8860.00,2.01
8859.00,2.02
8858.00,2.02
8857.00,2.02
8856.00,2.02
8855.00,2.02
8854.00,2.02
8853.00,2.02
8852.00,2.02
8851.00,2.02
8850.00,2.02
8849.00,2.02
8848.00,2.02
8847.00,2.02
8846.00,2.02
8845.00,2.02
8844.00,2.01
8843.00,2.01
8842.00,2.01
8841.00,2.01
8840.00,2.01
8839.00,2.01
8838.00,2.01
8837.00,2.01
8836.00,2.00
8835.00,2.00
8834.00,2.00
8833.00,2.00
8832.00,2.00
8831.00,2.00
8830.00,2.00
8829.00,2.00
8828.00,2.00
8827.00,2.00
8826.00,2.00
8825.00,2.00
8824.00,2.00
8823.00,2.00
8822.00,2.00
8821.00,2.00
8820.00,2.00
8819.00,2.00
8818.00,2.00
8817.00,1.99
8816.00,1.99
8815.00,1.99
8814.00,1.99
8813.00,1.99
8812.00,1.99
8811.00,1.99
8810.00,1.99
8809.00,1.99
8808.00,1.99
8807.00,1.98
8806.00,1.98
8805.00,1.98
8804.00,1.98
8803.00,1.98
8802.00,1.98
8801.00,1.98
8800.00,1.98
8799.00,1.98
8798.00,1.98
8797.00,1.98
8796.00,1.98
8795.00,1.98
8794.00,1.98
8793.00,1.98
8792.00,1.98
8791.00,1.98
8790.00,1.98
8789.00,1.97
8788.00,1.97
8787.00,1.97
8786.00,1.97
8785.00,1.97
8784.00,1.97
8783.00,1.97
8782.00,1.97
8781.00,1.97
8780.00,1.97
8779.00,1.96
8778.00,1.96
8777.00,1.96
8776.00,1.96
8775.00,1.96
8774.00,1.96
8773.00,1.96
8772.00,1.96
8771.00,1.96
8770.00,1.96
8769.00,1.96
8768.00,1.96
8767.00,1.96
8766.00,1.96
8765.00,1.96
8764.00,1.96
8763.00,1.96
8762.00,1.96
8761.00,1.96
8760.00,1.96
8759.00,1.96
8758.00,1.96
8757.00,1.96
8756.00,1.96
8755.00,1.96
8754.00,1.96
8753.00,1.96
8752.00,1.95
8751.00,1.95
8750.00,1.95
8749.00,1.95
8748.00,1.95
8747.00,1.95
8746.00,1.95
8745.00,1.94
8744.00,1.94
8743.00,1.94
8742.00,1.94
8741.00,1.94
8740.00,1.94
8739.00,1.94
8738.00,1.94
8737.00,1.94
8736.00,1.94
8735.00,1.94
8734.00,1.94
8733.00,1.94
8732.00,1.94
8731.00,1.94
8730.00,1.94
8729.00,1.94
8728.00,1.95
8727.00,1.95
8726.00,1.95
8725.00,1.95
8724.00,1.95
8723.00,1.95
8722.00,1.95
8721.00,1.95
8720.00,1.95
8719.00,1.95
8718.00,1.95
8717.00,1.95
8716.00,1.95
8715.00,1.95
8714.00,1.95
8713.00,1.95
8712.00,1.95
8711.00,1.95
8710.00,1.95
8709.00,1.94
8708.00,1.94
8707.00,1.94
8706.00,1.94
8705.00,1.94
8704.00,1.94
8703.00,1.94
8702.00,1.94
8701.00,1.94
8700.00,1.94
8699.00,1.94
8698.00,1.94
8697.00,1.94
8696.00,1.94
8695.00,1.94
8694.00,1.94
8693.00,1.94
8692.00,1.94
8691.00,1.94
8690.00,1.94
8689.00,1.94
8688.00,1.94
8687.00,1.94
8686.00,1.94
8685.00,1.94
8684.00,1.94
8683.00,1.94
8682.00,1.94
8681.00,1.94
8680.00,1.94
8679.00,1.94
8678.00,1.94
8677.00,1.94
8676.00,1.94
8675.00,1.94
8674.00,1.94
8673.00,1.94
8672.00,1.94
8671.00,1.94
8670.00,1.94
8669.00,1.94
8668.00,1.94
8667.00,1.94
8666.00,1.93
8665.00,1.93
8664.00,1.93
8663.00,1.93
8662.00,1.93
8661.00,1.93
8660.00,1.93
8659.00,1.93
8658.00,1.93
8657.00,1.93
8656.00,1.93
8655.00,1.92
8654.00,1.92
8653.00,1.92
8652.00,1.92
8651.00,1.92
8650.00,1.92
8649.00,1.92
8648.00,1.92
8647.00,1.92
8646.00,1.92
8645.00,1.91
8644.00,1.91
8643.00,1.91
8642.00,1.91
8641.00,1.91
8640.00,1.91
8639.00,1.91
8638.00,1.91
8637.00,1.91
8636.00,1.91
8635.00,1.91
8634.00,1.91
8633.00,1.91
8632.00,1.91
8631.00,1.91
8630.00,1.91
8629.00,1.91
8628.00,1.91
8627.00,1.91
8626.00,1.91
8625.00,1.91
8624.00,1.91
8623.00,1.91
8622.00,1.91
8621.00,1.91
8620.00,1.91
8619.00,1.91
8618.00,1.91
8617.00,1.90
8616.00,1.90
8615.00,1.90
8614.00,1.90
8613.00,1.90
8612.00,1.90
8611.00,1.90
8610.00,1.90
8609.00,1.90
8608.00,1.90
8607.00,1.90
8606.00,1.90
8605.00,1.90
8604.00,1.90
8603.00,1.90
8602.00,1.90
8601.00,1.90
8600.00,1.90
8599.00,1.91
8598.00,1.91
8597.00,1.91
8596.00,1.91
8595.00,1.91
8594.00,1.90
8593.00,1.90
8592.00,1.90
8591.00,1.90
8590.00,1.90
8589.00,1.90
8588.00,1.90
8587.00,1.90
8586.00,1.90
8585.00,1.89
8584.00,1.89
8583.00,1.89
8582.00,1.89
8581.00,1.89
8580.00,1.89
8579.00,1.89
8578.00,1.89
8577.00,1.89
8576.00,1.89
8575.00,1.89
8574.00,1.89
8573.00,1.89
8572.00,1.89
8571.00,1.89
8570.00,1.89
8569.00,1.89
8568.00,1.89
8567.00,1.89
8566.00,1.89
8565.00,1.89
8564.00,1.89
8563.00,1.88
8562.00,1.88
8561.00,1.88
8560.00,1.88
8559.00,1.88
8558.00,1.88
8557.00,1.88
8556.00,1.88
8555.00,1.88
8554.00,1.88
8553.00,1.87
8552.00,1.87
8551.00,1.87
8550.00,1.87
8549.00,1.87
8548.00,1.87
8547.00,1.87
8546.00,1.87
8545.00,1.87
8544.00,1.87
8543.00,1.87
8542.00,1.87
8541.00,1.87
8540.00,1.87
8539.00,1.87
8538.00,1.87
8537.00,1.87
8536.00,1.87
8535.00,1.87
8534.00,1.88
8533.00,1.88
8532.00,1.88
8531.00,1.88
8530.00,1.88
8529.00,1.88
8528.00,1.88
8527.00,1.88
8526.00,1.88
8525.00,1.88
8524.00,1.87
8523.00,1.87
8522.00,1.87
8521.00,1.87
8520.00,1.87
8519.00,1.87
8518.00,1.87
8517.00,1.87
8516.00,1.87
8515.00,1.86
8514.00,1.86
8513.00,1.86
8512.00,1.86
8511.00,1.86
8510.00,1.86
8509.00,1.86
8508.00,1.86
8507.00,1.86
8506.00,1.85
8505.00,1.85
8504.00,1.85
8503.00,1.85
8502.00,1.85
8501.00,1.85
8500.00,1.85
8499.00,1.85
8498.00,1.85
8497.00,1.85
8496.00,1.85
8495.00,1.84
8494.00,1.84
8493.00,1.84
8492.00,1.84
8491.00,1.84
8490.00,1.84
8489.00,1.83
8488.00,1.83
8487.00,1.83
8486.00,1.83
8485.00,1.83
8484.00,1.82
8483.00,1.82
8482.00,1.82
8481.00,1.82
8480.00,1.82
8479.00,1.82
8478.00,1.82
8477.00,1.82
8476.00,1.82
8475.00,1.82
8474.00,1.82
8473.00,1.82
8472.00,1.82
8471.00,1.82
8470.00,1.82
8469.00,1.82
8468.00,1.82
8467.00,1.82
8466.00,1.82
8465.00,1.82
8464.00,1.82
8463.00,1.82
8462.00,1.82
8461.00,1.82
8460.00,1.81
8459.00,1.81
8458.00,1.81
8457.00,1.81
8456.00,1.81
8455.00,1.81
8454.00,1.81
8453.00,1.81
8452.00,1.81
8451.00,1.81
8450.00,1.81
8449.00,1.81
8448.00,1.81
8447.00,1.81
8446.00,1.81
8445.00,1.81
8444.00,1.81
8443.00,1.81
8442.00,1.81
8441.00,1.81
8440.00,1.81
8439.00,1.81
8438.00,1.81
8437.00,1.81
8436.00,1.81
8435.00,1.81
8434.00,1.81
8433.00,1.81
8432.00,1.81
8431.00,1.80
8430.00,1.80
8429.00,1.80
8428.00,1.80
8427.00,1.80
8426.00,1.80
8425.00,1.80
8424.00,1.80
8423.00,1.80
8422.00,1.81
8421.00,1.81
8420.00,1.81
8419.00,1.81
8418.00,1.81
8417.00,1.81
8416.00,1.81
8415.00,1.81
8414.00,1.81
8413.00,1.82
8412.00,1.82
8411.00,1.82
8410.00,1.82
8409.00,1.82
8408.00,1.82
8407.00,1.82
8406.00,1.83
8405.00,1.83
8404.00,1.83
8403.00,1.83
8402.00,1.83
8401.00,1.83
8400.00,1.83
8399.00,1.83
8398.00,1.84
8397.00,1.84
8396.00,1.84
8395.00,1.84
8394.00,1.84
8393.00,1.84
8392.00,1.84
8391.00,1.84
8390.00,1.85
8389.00,1.85
8388.00,1.85
8387.00,1.85
8386.00,1.85
8385.00,1.85
8384.00,1.86
8383.00,1.86
8382.00,1.86
8381.00,1.86
8380.00,1.86
8379.00,1.86
8378.00,1.86
8377.00,1.86
8376.00,1.87
8375.00,1.87
8374.00,1.87
8373.00,1.87
8372.00,1.87
8371.00,1.87
8370.00,1.87
8369.00,1.87
8368.00,1.87
8367.00,1.87
8366.00,1.87
8365.00,1.87
8364.00,1.87
8363.00,1.87
8362.00,1.87
8361.00,1.87
8360.00,1.88
8359.00,1.88
8358.00,1.88
8357.00,1.88
8356.00,1.88
8355.00,1.88
8354.00,1.88
8353.00,1.88
8352.00,1.88
8351.00,1.88
8350.00,1.88
8349.00,1.88
8348.00,1.88
8347.00,1.88
8346.00,1.88
8345.00,1.88
8344.00,1.89
8343.00,1.89
8342.00,1.89
8341.00,1.89
8340.00,1.89
8339.00,1.89
8338.00,1.89
8337.00,1.89
8336.00,1.89
8335.00,1.89
8334.00,1.89
8333.00,1.89
8332.00,1.89
8331.00,1.89
8330.00,1.89
8329.00,1.88
8328.00,1.88
8327.00,1.88
8326.00,1.88
8325.00,1.88
8324.00,1.88
8323.00,1.88
8322.00,1.88
8321.00,1.88
8320.00,1.88
8319.00,1.88
8318.00,1.88
8317.00,1.88
8316.00,1.88
8315.00,1.88
8314.00,1.88
8313.00,1.88
8312.00,1.88
8311.00,1.88
8310.00,1.88
8309.00,1.88
8308.00,1.88
8307.00,1.88
8306.00,1.88
8305.00,1.88
8304.00,1.88
8303.00,1.88
8302.00,1.88
8301.00,1.88
8300.00,1.88
8299.00,1.89
8298.00,1.89
8297.00,1.89
8296.00,1.89
8295.00,1.89
8294.00,1.89
8293.00,1.88
8292.00,1.88
8291.00,1.88
8290.00,1.88
8289.00,1.88
8288.00,1.88
8287.00,1.88
8286.00,1.88
8285.00,1.88
8284.00,1.88
8283.00,1.88
8282.00,1.88
8281.00,1.89
8280.00,1.89
8279.00,1.89
8278.00,1.89
8277.00,1.89
8276.00,1.89
8275.00,1.89
8274.00,1.89
8273.00,1.89
8272.00,1.89
8271.00,1.89
8270.00,1.89
8269.00,1.89
8268.00,1.89
8267.00,1.89
8266.00,1.90
8265.00,1.90
8264.00,1.90
8263.00,1.90
8262.00,1.90
8261.00,1.90
8260.00,1.90
8259.00,1.90
8258.00,1.89
8257.00,1.89
8256.00,1.89
8255.00,1.89
8254.00,1.89
8253.00,1.89
8252.00,1.89
8251.00,1.89
8250.00,1.89
8249.00,1.89
8248.00,1.89
8247.00,1.89
8246.00,1.89
8245.00,1.89
8244.00,1.89
8243.00,1.89
8242.00,1.89
8241.00,1.89
8240.00,1.89
8239.00,1.89
8238.00,1.89
8237.00,1.89
8236.00,1.90
8235.00,1.90
8234.00,1.90
8233.00,1.90
8232.00,1.90
8231.00,1.90
8230.00,1.90
8229.00,1.90
8228.00,1.90
8227.00,1.90
8226.00,1.90
8225.00,1.90
8224.00,1.91
8223.00,1.91
8222.00,1.91
8221.00,1.91
8220.00,1.91
8219.00,1.91
8218.00,1.91
8217.00,1.91
8216.00,1.91
8215.00,1.91
8214.00,1.91
8213.00,1.91
8212.00,1.91
8211.00,1.91
8210.00,1.92
8209.00,1.92
8208.00,1.92
8207.00,1.92
8206.00,1.92
8205.00,1.92
8204.00,1.92
8203.00,1.92
8202.00,1.92
8201.00,1.92
8200.00,1.92
8199.00,1.92
8198.00,1.92
8197.00,1.91
8196.00,1.91
8195.00,1.91
8194.00,1.91
8193.00,1.91
8192.00,1.91
8191.00,1.91
8190.00,1.91
8189.00,1.91
8188.00,1.91
8187.00,1.91
8186.00,1.91
8185.00,1.91
8184.00,1.91
8183.00,1.91
8182.00,1.91
8181.00,1.91
8180.00,1.91
8179.00,1.91
8178.00,1.92
8177.00,1.92
8176.00,1.92
8175.00,1.92
8174.00,1.92
8173.00,1.92
8172.00,1.92
8171.00,1.92
8170.00,1.92
8169.00,1.92
8168.00,1.92
8167.00,1.92
8166.00,1.93
8165.00,1.93
8164.00,1.93
8163.00,1.93
8162.00,1.93
8161.00,1.93
8160.00,1.93
8159.00,1.93
8158.00,1.93
8157.00,1.93
8156.00,1.93
8155.00,1.93
8154.00,1.93
8153.00,1.94
8152.00,1.94
8151.00,1.94
8150.00,1.94
8149.00,1.94
8148.00,1.94
8147.00,1.94
8146.00,1.94
8145.00,1.94
8144.00,1.94
8143.00,1.94
8142.00,1.94
8141.00,1.94
8140.00,1.94
8139.00,1.94
8138.00,1.94
8137.00,1.94
8136.00,1.94
8135.00,1.95
8134.00,1.95
8133.00,1.95
8132.00,1.95
8131.00,1.95
8130.00,1.95
8129.00,1.95
8128.00,1.95
8127.00,1.95
8126.00,1.95
8125.00,1.95
8124.00,1.95
8123.00,1.95
8122.00,1.95
8121.00,1.95
8120.00,1.95
8119.00,1.95
8118.00,1.95
8117.00,1.95
8116.00,1.95
8115.00,1.95
8114.00,1.96
8113.00,1.96
8112.00,1.96
8111.00,1.96
8110.00,1.95
8109.00,1.95
8108.00,1.95
8107.00,1.95
8106.00,1.95
8105.00,1.95
8104.00,1.95
8103.00,1.95
8102.00,1.95
8101.00,1.95
8100.00,1.95
8099.00,1.95
8098.00,1.95
8097.00,1.95
8096.00,1.95
8095.00,1.95
8094.00,1.95
8093.00,1.95
8092.00,1.95
8091.00,1.95
8090.00,1.95
8089.00,1.95
8088.00,1.95
8087.00,1.95
8086.00,1.95
8085.00,1.95
8084.00,1.95
8083.00,1.95
8082.00,1.95
8081.00,1.95
8080.00,1.95
8079.00,1.95
8078.00,1.95
8077.00,1.95
8076.00,1.95
8075.00,1.95
8074.00,1.95
8073.00,1.95
8072.00,1.95
8071.00,1.96
8070.00,1.96
8069.00,1.96
8068.00,1.96
8067.00,1.96
8066.00,1.96
8065.00,1.96
8064.00,1.96
8063.00,1.96
8062.00,1.96
8061.00,1.96
8060.00,1.96
8059.00,1.96
8058.00,1.96
8057.00,1.96
8056.00,1.96
8055.00,1.96
8054.00,1.96
8053.00,1.96
8052.00,1.96
8051.00,1.96
8050.00,1.96
8049.00,1.96
8048.00,1.96
8047.00,1.96
8046.00,1.96
8045.00,1.96
8044.00,1.96
8043.00,1.96
8042.00,1.96
8041.00,1.96
8040.00,1.96
8039.00,1.96
8038.00,1.96
8037.00,1.96
8036.00,1.96
8035.00,1.96
8034.00,1.96
8033.00,1.96
8032.00,1.96
8031.00,1.96
8030.00,1.96
8029.00,1.96
8028.00,1.96
8027.00,1.96
8026.00,1.96
8025.00,1.96
8024.00,1.96
8023.00,1.96
8022.00,1.96
8021.00,1.97
8020.00,1.97
8019.00,1.97
8018.00,1.97
8017.00,1.97
8016.00,1.97
8015.00,1.97
8014.00,1.97
8013.00,1.97
8012.00,1.97
8011.00,1.97
8010.00,1.97
8009.00,1.97
8008.00,1.97
8007.00,1.97
8006.00,1.97
8005.00,1.97
8004.00,1.97
8003.00,1.97
8002.00,1.98
8001.00,1.98
8000.00,1.98
7999.00,1.98
7998.00,1.98
7997.00,1.98
7996.00,1.98
7995.00,1.98
7994.00,1.98
7993.00,1.98
7992.00,1.98
7991.00,1.98
7990.00,1.98
7989.00,1.98
7988.00,1.98
7987.00,1.98
7986.00,1.98
7985.00,1.98
7984.00,1.98
7983.00,1.98
7982.00,1.98
7981.00,1.98
7980.00,1.98
7979.00,1.98
7978.00,1.98
7977.00,1.98
7976.00,1.98
7975.00,1.98
7974.00,1.98
7973.00,1.98
7972.00,1.98
7971.00,1.98
7970.00,1.98
7969.00,1.98
7968.00,1.98
7967.00,1.98
7966.00,1.98
7965.00,1.98
7964.00,1.98
7963.00,1.98
7962.00,1.98
7961.00,1.98
7960.00,1.98
7959.00,1.98
7958.00,1.98
7957.00,1.98
7956.00,1.98
7955.00,1.98
7954.00,1.98
7953.00,1.98
7952.00,1.98
7951.00,1.98
7950.00,1.98
7949.00,1.98
7948.00,1.98
7947.00,1.98
7946.00,1.98
7945.00,1.98
7944.00,1.98
7943.00,1.98
7942.00,1.98
7941.00,1.99
7940.00,1.99
7939.00,1.99
7938.00,1.99
7937.00,1.99
7936.00,1.99
7935.00,1.99
7934.00,1.99
7933.00,1.99
7932.00,1.99
7931.00,1.99
7930.00,1.99
7929.00,1.99
7928.00,1.99
7927.00,1.99
7926.00,1.99
7925.00,1.99
7924.00,1.99
7923.00,1.99
7922.00,1.99
7921.00,1.99
7920.00,2.00
7919.00,2.00
7918.00,2.00
7917.00,2.00
7916.00,2.00
7915.00,2.00
7914.00,2.00
7913.00,2.00
7912.00,2.00
7911.00,2.00
7910.00,2.00
7909.00,2.00
7908.00,2.00
7907.00,2.00
7906.00,2.00
7905.00,2.00
7904.00,2.00
7903.00,2.00
7902.00,2.00
7901.00,2.00
7900.00,2.00
7899.00,2.00
7898.00,2.00
7897.00,2.00
7896.00,2.00
7895.00,2.00
7894.00,2.00
7893.00,2.00
7892.00,2.00
7891.00,2.00
7890.00,2.00
7889.00,2.00
7888.00,2.00
7887.00,2.00
7886.00,2.00
7885.00,2.00
7884.00,2.00
7883.00,2.00
7882.00,2.00
7881.00,2.00
7880.00,2.00
7879.00,2.00
7878.00,2.00
7877.00,2.00
7876.00,2.00
7875.00,2.00
7874.00,2.00
7873.00,2.00
7872.00,2.00
7871.00,2.00
7870.00,2.00
7869.00,2.00
7868.00,2.00
7867.00,2.00
7866.00,2.00
7865.00,2.00
7864.00,2.00
7863.00,2.00
7862.00,2.00
7861.00,2.00
7860.00,2.00
7859.00,2.00
7858.00,2.00
7857.00,2.00
7856.00,2.00
7855.00,2.00
7854.00,2.00
7853.00,2.00
7852.00,2.00
7851.00,2.01
7850.00,2.01
7849.00,2.01
7848.00,2.01
7847.00,2.01
7846.00,2.01
7845.00,2.01
7844.00,2.01
7843.00,2.01
7842.00,2.01
7841.00,2.01
7840.00,2.01
7839.00,2.01
7838.00,2.01
7837.00,2.01
7836.00,2.01
7835.00,2.02
7834.00,2.02
7833.00,2.02
7832.00,2.02
7831.00,2.02
7830.00,2.02
7829.00,2.02
7828.00,2.02
7827.00,2.02
7826.00,2.02
7825.00,2.02
7824.00,2.02
7823.00,2.02
7822.00,2.02
7821.00,2.02
7820.00,2.03
7819.00,2.03
7818.00,2.03
7817.00,2.03
7816.00,2.03
7815.00,2.03
7814.00,2.03
7813.00,2.03
7812.00,2.03
7811.00,2.03
7810.00,2.03
7809.00,2.03
7808.00,2.03
7807.00,2.03
7806.00,2.03
7805.00,2.03
7804.00,2.03
7803.00,2.04
7802.00,2.04
7801.00,2.04
7800.00,2.04
7799.00,2.04
7798.00,2.04
7797.00,2.04
7796.00,2.04
7795.00,2.04
7794.00,2.04
7793.00,2.04
7792.00,2.04
7791.00,2.04
7790.00,2.04
7789.00,2.04
7788.00,2.04
7787.00,2.04
7786.00,2.04
7785.00,2.04
7784.00,2.04
7783.00,2.04
7782.00,2.04
7781.00,2.04
7780.00,2.04
7779.00,2.04
7778.00,2.04
7777.00,2.04
7776.00,2.04
7775.00,2.04
7774.00,2.04
7773.00,2.04
7772.00,2.04
7771.00,2.04
7770.00,2.04
7769.00,2.04
7768.00,2.04
7767.00,2.04
7766.00,2.04
7765.00,2.04
7764.00,2.04
7763.00,2.04
7762.00,2.04
7761.00,2.04
7760.00,2.04
7759.00,2.04
7758.00,2.04
7757.00,2.04
7756.00,2.04
7755.00,2.04
7754.00,2.04
7753.00,2.04
7752.00,2.04
7751.00,2.04
7750.00,2.04
7749.00,2.04
7748.00,2.04
7747.00,2.04
7746.00,2.04
7745.00,2.04
7744.00,2.04
7743.00,2.04
7742.00,2.04
7741.00,2.04
7740.00,2.04
7739.00,2.04
7738.00,2.04
7737.00,2.04
7736.00,2.04
7735.00,2.04
7734.00,2.04
7733.00,2.04
7732.00,2.04
7731.00,2.05
7730.00,2.05
7729.00,2.05
7728.00,2.05
7727.00,2.05
7726.00,2.05
7725.00,2.05
7724.00,2.05
7723.00,2.05
7722.00,2.05
7721.00,2.05
7720.00,2.06
7719.00,2.06
7718.00,2.06
7717.00,2.06
7716.00,2.06
7715.00,2.06
7714.00,2.06
7713.00,2.06
7712.00,2.06
7711.00,2.06
7710.00,2.06
7709.00,2.06
7708.00,2.06
7707.00,2.06
7706.00,2.06
7705.00,2.06
7704.00,2.06
7703.00,2.06
7702.00,2.06
7701.00,2.06
7700.00,2.06
7699.00,2.06
7698.00,2.06
7697.00,2.06
7696.00,2.06
7695.00,2.06
7694.00,2.06
7693.00,2.06
7692.00,2.06
7691.00,2.06
7690.00,2.06
7689.00,2.06
7688.00,2.06
7687.00,2.06
7686.00,2.06
7685.00,2.06
7684.00,2.06
7683.00,2.06
7682.00,2.06
7681.00,2.06
7680.00,2.06
7679.00,2.06
7678.00,2.06
7677.00,2.06
7676.00,2.06
7675.00,2.06
7674.00,2.06
7673.00,2.06
7672.00,2.06
7671.00,2.06
7670.00,2.06
7669.00,2.06
7668.00,2.06
7667.00,2.06
7666.00,2.06
7665.00,2.06
7664.00,2.06
7663.00,2.06
7662.00,2.06
7661.00,2.06
7660.00,2.06
7659.00,2.06
7658.00,2.06
7657.00,2.07
7656.00,2.07
7655.00,2.07
7654.00,2.07
7653.00,2.07
7652.00,2.07
7651.00,2.07
7650.00,2.07
7649.00,2.07
7648.00,2.07
7647.00,2.07
7646.00,2.06
7645.00,2.06
7644.00,2.06
7643.00,2.06
7642.00,2.06
7641.00,2.06
7640.00,2.06
7639.00,2.06
7638.00,2.06
7637.00,2.06
7636.00,2.06
7635.00,2.06
7634.00,2.06
7633.00,2.06
7632.00,2.06
7631.00,2.06
7630.00,2.06
7629.00,2.06
7628.00,2.06
7627.00,2.06
7626.00,2.06
7625.00,2.06
7624.00,2.06
7623.00,2.06
7622.00,2.06
7621.00,2.06
7620.00,2.06
7619.00,2.06
7618.00,2.06
7617.00,2.06
7616.00,2.06
7615.00,2.06
7614.00,2.06
7613.00,2.06
7612.00,2.06
7611.00,2.06
7610.00,2.06
7609.00,2.06
7608.00,2.06
7607.00,2.06
7606.00,2.06
7605.00,2.06
7604.00,2.06
7603.00,2.06
7602.00,2.06
7601.00,2.06
7600.00,2.06
7599.00,2.06
7598.00,2.06
7597.00,2.06
7596.00,2.06
7595.00,2.06
7594.00,2.06
7593.00,2.07
7592.00,2.07
7591.00,2.07
7590.00,2.07
7589.00,2.07
7588.00,2.07
7587.00,2.07
7586.00,2.07
7585.00,2.07
7584.00,2.07
7583.00,2.07
7582.00,2.07
7581.00,2.07
7580.00,2.07
7579.00,2.07
7578.00,2.07
7577.00,2.06
7576.00,2.06
7575.00,2.06
7574.00,2.06
7573.00,2.06
7572.00,2.06
7571.00,2.06
7570.00,2.06
7569.00,2.06
7568.00,2.06
7567.00,2.06
7566.00,2.06
7565.00,2.06
7564.00,2.06
7563.00,2.06
7562.00,2.06
7561.00,2.06
7560.00,2.06
7559.00,2.06
7558.00,2.06
7557.00,2.06
7556.00,2.06
7555.00,2.06
7554.00,2.06
7553.00,2.06
7552.00,2.06
7551.00,2.06
7550.00,2.06
7549.00,2.06
7548.00,2.06
7547.00,2.06
7546.00,2.06
7545.00,2.06
7544.00,2.06
7543.00,2.06
7542.00,2.06
7541.00,2.05
7540.00,2.05
7539.00,2.05
7538.00,2.05
7537.00,2.05
7536.00,2.05
7535.00,2.05
7534.00,2.05
7533.00,2.05
7532.00,2.05
7531.00,2.05
7530.00,2.05
7529.00,2.04
7528.00,2.04
7527.00,2.04
7526.00,2.04
7525.00,2.04
7524.00,2.04
7523.00,2.04
7522.00,2.04
7521.00,2.04
7520.00,2.04
7519.00,2.04
7518.00,2.04
7517.00,2.04
7516.00,2.04
7515.00,2.04
7514.00,2.04
7513.00,2.04
7512.00,2.04
7511.00,2.04
7510.00,2.04
7509.00,2.04
7508.00,2.04
7507.00,2.04
7506.00,2.04
7505.00,2.04
7504.00,2.04
7503.00,2.04
7502.00,2.04
7501.00,2.04
7500.00,2.04
7499.00,2.04
7498.00,2.04
7497.00,2.04
7496.00,2.04
7495.00,2.04
7494.00,2.04
7493.00,2.04
7492.00,2.04
7491.00,2.03
7490.00,2.03
7489.00,2.03
7488.00,2.03
7487.00,2.03
7486.00,2.03
7485.00,2.02
7484.00,2.02
7483.00,2.02
7482.00,2.02
7481.00,2.02
7480.00,2.02
7479.00,2.02
7478.00,2.02
7477.00,2.02
7476.00,2.01
7475.00,2.01
7474.00,2.01
7473.00,2.01
7472.00,2.01
7471.00,2.01
7470.00,2.01
7469.00,2.01
7468.00,2.01
7467.00,2.01
7466.00,2.00
7465.00,2.00
7464.00,2.00
7463.00,2.00
7462.00,2.00
7461.00,2.00
7460.00,2.00
7459.00,2.00
7458.00,2.00
7457.00,2.00
7456.00,2.00
7455.00,2.00
7454.00,2.00
7453.00,2.00
7452.00,2.00
7451.00,1.99
7450.00,1.99
7449.00,1.99
7448.00,1.99
7447.00,1.99
7446.00,1.99
7445.00,1.99
7444.00,1.99
7443.00,1.99
7442.00,1.99
7441.00,1.99
7440.00,1.99
7439.00,1.98
7438.00,1.98
7437.00,1.98
7436.00,1.98
7435.00,1.98
7434.00,1.98
7433.00,1.98
7432.00,1.98
7431.00,1.98
7430.00,1.98
7429.00,1.98
7428.00,1.97
7427.00,1.97
7426.00,1.97
7425.00,1.97
7424.00,1.97
7423.00,1.97
7422.00,1.97
7421.00,1.97
7420.00,1.97
7419.00,1.96
7418.00,1.96
7417.00,1.96
7416.00,1.96
7415.00,1.96
7414.00,1.96
7413.00,1.96
7412.00,1.95
7411.00,1.95
7410.00,1.95
7409.00,1.95
7408.00,1.95
7407.00,1.95
7406.00,1.94
7405.00,1.94
7404.00,1.94
7403.00,1.94
7402.00,1.94
7401.00,1.94
7400.00,1.93
7399.00,1.93
7398.00,1.93
7397.00,1.93
7396.00,1.93
7395.00,1.93
7394.00,1.93
7393.00,1.92
7392.00,1.92
7391.00,1.92
7390.00,1.92
7389.00,1.92
7388.00,1.92
7387.00,1.92
7386.00,1.92
7385.00,1.92
7384.00,1.92
7383.00,1.92
7382.00,1.91
7381.00,1.91
7380.00,1.91
7379.00,1.91
7378.00,1.91
7377.00,1.91
7376.00,1.91
7375.00,1.90
7374.00,1.90
7373.00,1.90
7372.00,1.90
7371.00,1.90
7370.00,1.90
7369.00,1.90
7368.00,1.89
7367.00,1.89
7366.00,1.89
7365.00,1.89
7364.00,1.89
7363.00,1.89
7362.00,1.89
7361.00,1.89
7360.00,1.89
7359.00,1.89
7358.00,1.89
7357.00,1.89
7356.00,1.89
7355.00,1.89
7354.00,1.89
7353.00,1.89
7352.00,1.89
7351.00,1.89
7350.00,1.89
7349.00,1.89
7348.00,1.89
7347.00,1.89
7346.00,1.89
7345.00,1.89
7344.00,1.89
7343.00,1.89
7342.00,1.89
7341.00,1.89
7340.00,1.89
7339.00,1.89
7338.00,1.89
7337.00,1.89
7336.00,1.89
7335.00,1.89
7334.00,1.89
7333.00,1.89
7332.00,1.89
7331.00,1.89
7330.00,1.89
7329.00,1.88
7328.00,1.88
7327.00,1.88
7326.00,1.88
7325.00,1.88
7324.00,1.88
7323.00,1.88
7322.00,1.88
7321.00,1.88
7320.00,1.87
7319.00,1.87
7318.00,1.87
7317.00,1.87
7316.00,1.87
7315.00,1.86
7314.00,1.86
7313.00,1.86
7312.00,1.86
7311.00,1.86
7310.00,1.85
7309.00,1.85
7308.00,1.85
7307.00,1.85
7306.00,1.85
7305.00,1.84
7304.00,1.84
7303.00,1.84
7302.00,1.84
7301.00,1.84
7300.00,1.83
7299.00,1.83
7298.00,1.83
7297.00,1.83
7296.00,1.83
7295.00,1.82
7294.00,1.82
7293.00,1.82
7292.00,1.82
7291.00,1.82
7290.00,1.81
7289.00,1.81
7288.00,1.81
7287.00,1.81
7286.00,1.81
7285.00,1.81
7284.00,1.80
7283.00,1.80
7282.00,1.80
7281.00,1.80
7280.00,1.80
7279.00,1.79
7278.00,1.79
7277.00,1.79
7276.00,1.79
7275.00,1.79
7274.00,1.79
7273.00,1.78
7272.00,1.78
7271.00,1.78
7270.00,1.78
7269.00,1.78
7268.00,1.78
7267.00,1.78
7266.00,1.78
7265.00,1.77
7264.00,1.77
7263.00,1.77
7262.00,1.77
7261.00,1.77
7260.00,1.77
7259.00,1.77
7258.00,1.77
7257.00,1.76
7256.00,1.76
7255.00,1.76
7254.00,1.76
7253.00,1.75
7252.00,1.75
7251.00,1.75
7250.00,1.74
7249.00,1.74
7248.00,1.73
7247.00,1.73
7246.00,1.73
7245.00,1.72
7244.00,1.72
7243.00,1.71
7242.00,1.71
7241.00,1.70
7240.00,1.70
7239.00,1.70
7238.00,1.69
7237.00,1.69
7236.00,1.68
7235.00,1.68
7234.00,1.67
7233.00,1.67
7232.00,1.66
7231.00,1.66
7230.00,1.65
7229.00,1.65
7228.00,1.64
7227.00,1.64
7226.00,1.63
7225.00,1.63
7224.00,1.62
7223.00,1.61
7222.00,1.61
7221.00,1.60
7220.00,1.60
7219.00,1.59
7218.00,1.59
7217.00,1.58
7216.00,1.57
7215.00,1.57
7214.00,1.56
7213.00,1.56
7212.00,1.55
7211.00,1.55
7210.00,1.54
7209.00,1.53
7208.00,1.53
7207.00,1.52
7206.00,1.52
7205.00,1.51
7204.00,1.51
7203.00,1.50
7202.00,1.49
7201.00,1.49
7200.00,1.48
7199.00,1.48
7198.00,1.47
7197.00,1.47
7196.00,1.46
7195.00,1.46
7194.00,1.45
7193.00,1.45
7192.00,1.44
7191.00,1.44
7190.00,1.43
7189.00,1.43
7188.00,1.42
7187.00,1.42
7186.00,1.41
7185.00,1.41
7184.00,1.40
7183.00,1.40
7182.00,1.39
7181.00,1.39
7180.00,1.38
7179.00,1.38
7178.00,1.38
7177.00,1.37
7176.00,1.37
7175.00,1.36
7174.00,1.36
7173.00,1.35
7172.00,1.35
7171.00,1.35
7170.00,1.34
7169.00,1.34
7168.00,1.34
7167.00,1.33
7166.00,1.33
7165.00,1.32
7164.00,1.32
7163.00,1.32
7162.00,1.31
7161.00,1.31
7160.00,1.31
7159.00,1.30
7158.00,1.30
7157.00,1.29
7156.00,1.29
7155.00,1.29
7154.00,1.28
7153.00,1.28
7152.00,1.27
7151.00,1.27
7150.00,1.26
7149.00,1.26
7148.00,1.26
7147.00,1.25
7146.00,1.25
7145.00,1.24
7144.00,1.24
7143.00,1.23
7142.00,1.23
7141.00,1.22
7140.00,1.22
7139.00,1.22
7138.00,1.21
7137.00,1.21
7136.00,1.20
7135.00,1.20
7134.00,1.19
7133.00,1.19
7132.00,1.18
7131.00,1.18
7130.00,1.17
7129.00,1.17
7128.00,1.17
7127.00,1.16
7126.00,1.16
7125.00,1.15
7124.00,1.15
7123.00,1.15
7122.00,1.14
7121.00,1.14
7120.00,1.13
7119.00,1.13
7118.00,1.13
7117.00,1.12
7116.00,1.12
7115.00,1.12
7114.00,1.11
7113.00,1.11
7112.00,1.11
7111.00,1.10
7110.00,1.10
7109.00,1.09
7108.00,1.09
7107.00,1.09
7106.00,1.08
7105.00,1.08
7104.00,1.08
7103.00,1.07
7102.00,1.07
7101.00,1.07
7100.00,1.06
7099.00,1.06
7098.00,1.06
7097.00,1.05
7096.00,1.05
7095.00,1.05
7094.00,1.04
7093.00,1.04
7092.00,1.04
7091.00,1.03
7090.00,1.03
7089.00,1.03
7088.00,1.03
7087.00,1.02
7086.00,1.02
7085.00,1.02
7084.00,1.02
7083.00,1.01
7082.00,1.01
7081.00,1.01
7080.00,1.00
7079.00,1.00
7078.00,1.00
7077.00,1.00
7076.00,0.99
7075.00,0.99
7074.00,0.99
7073.00,0.98
7072.00,0.98
7071.00,0.98
7070.00,0.98
7069.00,0.98
7068.00,0.97
7067.00,0.97
7066.00,0.97
7065.00,0.97
7064.00,0.97
7063.00,0.96
7062.00,0.96
7061.00,0.96
7060.00,0.96
7059.00,0.96
7058.00,0.95
7057.00,0.95
7056.00,0.95
7055.00,0.95
7054.00,0.95
7053.00,0.94
7052.00,0.94
7051.00,0.94
7050.00,0.94
7049.00,0.93
7048.00,0.93
7047.00,0.93
7046.00,0.93
7045.00,0.92
7044.00,0.92
7043.00,0.92
7042.00,0.92
7041.00,0.91
7040.00,0.91
7039.00,0.91
7038.00,0.91
7037.00,0.91
7036.00,0.91
7035.00,0.90
7034.00,0.90
7033.00,0.90
7032.00,0.90
7031.00,0.90
7030.00,0.90
7029.00,0.90
7028.00,0.89
7027.00,0.89
7026.00,0.89
7025.00,0.89
7024.00,0.89
7023.00,0.89
7022.00,0.89
7021.00,0.89
7020.00,0.89
7019.00,0.88
7018.00,0.88
7017.00,0.88
7016.00,0.88
7015.00,0.88
7014.00,0.88
7013.00,0.88
7012.00,0.88
7011.00,0.87
7010.00,0.87
7009.00,0.87
7008.00,0.87
7007.00,0.87
7006.00,0.87
7005.00,0.86
7004.00,0.86
7003.00,0.86
7002.00,0.86
7001.00,0.86
7000.00,0.86
6999.00,0.85
6998.00,0.85
6997.00,0.85
6996.00,0.85
6995.00,0.85
6994.00,0.85
6993.00,0.85
6992.00,0.85
6991.00,0.85
6990.00,0.85
6989.00,0.85
6988.00,0.85
6987.00,0.85
6986.00,0.85
6985.00,0.85
6984.00,0.84
6983.00,0.84
6982.00,0.84
6981.00,0.84
6980.00,0.84
6979.00,0.84
6978.00,0.84
6977.00,0.84
6976.00,0.84
6975.00,0.84
6974.00,0.84
6973.00,0.84
6972.00,0.84
6971.00,0.84
6970.00,0.84
6969.00,0.83
6968.00,0.83
6967.00,0.83
6966.00,0.83
6965.00,0.83
6964.00,0.83
6963.00,0.83
6962.00,0.83
6961.00,0.83
6960.00,0.83
6959.00,0.83
6958.00,0.83
6957.00,0.83
6956.00,0.83
6955.00,0.82
6954.00,0.82
6953.00,0.82
6952.00,0.82
6951.00,0.82
6950.00,0.82
6949.00,0.82
6948.00,0.82
6947.00,0.82
6946.00,0.82
6945.00,0.82
6944.00,0.82
6943.00,0.82
6942.00,0.81
6941.00,0.81
6940.00,0.81
6939.00,0.81
6938.00,0.81
6937.00,0.81
6936.00,0.81
6935.00,0.81
6934.00,0.81
6933.00,0.81
6932.00,0.81
6931.00,0.81
6930.00,0.81
6929.00,0.81
6928.00,0.81
6927.00,0.81
6926.00,0.81
6925.00,0.81
6924.00,0.81
6923.00,0.81
6922.00,0.81
6921.00,0.80
6920.00,0.80
6919.00,0.80
6918.00,0.80
6917.00,0.80
6916.00,0.80
6915.00,0.80
6914.00,0.80
6913.00,0.80
6912.00,0.80
6911.00,0.80
6910.00,0.80
6909.00,0.80
6908.00,0.80
6907.00,0.80
6906.00,0.80
6905.00,0.80
6904.00,0.80
6903.00,0.80
6902.00,0.80
6901.00,0.80
6900.00,0.80
6899.00,0.80
6898.00,0.80
6897.00,0.80
6896.00,0.80
6895.00,0.79
6894.00,0.79
6893.00,0.79
6892.00,0.79
6891.00,0.79
6890.00,0.79
6889.00,0.79
6888.00,0.79
6887.00,0.79
6886.00,0.79
6885.00,0.79
6884.00,0.79
6883.00,0.79
6882.00,0.79
6881.00,0.79
6880.00,0.80
6879.00,0.80
6878.00,0.80
6877.00,0.80
6876.00,0.80
6875.00,0.80
6874.00,0.80
6873.00,0.80
6872.00,0.80
6871.00,0.80
6870.00,0.80
6869.00,0.80
6868.00,0.80
6867.00,0.80
6866.00,0.80
6865.00,0.80
6864.00,0.80
6863.00,0.80
6862.00,0.80
6861.00,0.80
6860.00,0.80
6859.00,0.80
6858.00,0.80
6857.00,0.80
6856.00,0.80
6855.00,0.80
6854.00,0.80
6853.00,0.80
6852.00,0.80
6851.00,0.80
6850.00,0.80
6849.00,0.80
6848.00,0.80
6847.00,0.80
6846.00,0.80
6845.00,0.80
6844.00,0.80
6843.00,0.80
6842.00,0.80
6841.00,0.81
6840.00,0.81
6839.00,0.81
6838.00,0.81
6837.00,0.81
6836.00,0.81
6835.00,0.81
6834.00,0.81
6833.00,0.81
6832.00,0.81
6831.00,0.81
6830.00,0.81
6829.00,0.81
6828.00,0.81
6827.00,0.81
6826.00,0.81
6825.00,0.81
6824.00,0.81
6823.00,0.81
6822.00,0.81
6821.00,0.81
6820.00,0.81
6819.00,0.81
6818.00,0.81
6817.00,0.81
6816.00,0.82
6815.00,0.82
6814.00,0.82
6813.00,0.82
6812.00,0.82
6811.00,0.82
6810.00,0.82
6809.00,0.82
6808.00,0.82
6807.00,0.82
6806.00,0.82
6805.00,0.82
6804.00,0.82
6803.00,0.82
6802.00,0.82
6801.00,0.83
6800.00,0.83
6799.00,0.83
6798.00,0.83
6797.00,0.83
6796.00,0.83
6795.00,0.83
6794.00,0.83
6793.00,0.83
6792.00,0.83
6791.00,0.83
6790.00,0.83
6789.00,0.83
6788.00,0.83
6787.00,0.84
6786.00,0.84
6785.00,0.84
6784.00,0.84
6783.00,0.84
6782.00,0.84
6781.00,0.84
6780.00,0.84
6779.00,0.84
6778.00,0.84
6777.00,0.84
6776.00,0.84
6775.00,0.84
6774.00,0.84
6773.00,0.84
6772.00,0.85
6771.00,0.85
6770.00,0.85
6769.00,0.85
6768.00,0.85
6767.00,0.85
6766.00,0.85
6765.00,0.85
6764.00,0.86
6763.00,0.86
6762.00,0.86
6761.00,0.86
6760.00,0.86
6759.00,0.86
6758.00,0.86
6757.00,0.86
6756.00,0.86
6755.00,0.87
6754.00,0.87
6753.00,0.87
6752.00,0.87
6751.00,0.87
6750.00,0.87
6749.00,0.87
6748.00,0.87
6747.00,0.87
6746.00,0.87
6745.00,0.88
6744.00,0.88
6743.00,0.88
6742.00,0.88
6741.00,0.88
6740.00,0.88
6739.00,0.88
6738.00,0.88
6737.00,0.89
6736.00,0.89
6735.00,0.89
6734.00,0.89
6733.00,0.89
6732.00,0.89
6731.00,0.89
6730.00,0.90
6729.00,0.90
6728.00,0.90
6727.00,0.90
6726.00,0.90
6725.00,0.90
6724.00,0.90
6723.00,0.90
6722.00,0.91
6721.00,0.91
6720.00,0.91
6719.00,0.91
6718.00,0.91
6717.00,0.91
6716.00,0.91
6715.00,0.91
6714.00,0.91
6713.00,0.91
6712.00,0.92
6711.00,0.92
6710.00,0.92
6709.00,0.92
6708.00,0.92
6707.00,0.92
6706.00,0.92
6705.00,0.92
6704.00,0.93
6703.00,0.93
6702.00,0.93
6701.00,0.93
6700.00,0.93
6699.00,0.93
6698.00,0.93
6697.00,0.94
6696.00,0.94
6695.00,0.94
6694.00,0.94
6693.00,0.94
6692.00,0.94
6691.00,0.95
6690.00,0.95
6689.00,0.95
6688.00,0.95
6687.00,0.95
6686.00,0.96
6685.00,0.96
6684.00,0.96
6683.00,0.96
6682.00,0.96
6681.00,0.97
6680.00,0.97
6679.00,0.97
6678.00,0.97
6677.00,0.97
6676.00,0.98
6675.00,0.98
6674.00,0.98
6673.00,0.98
6672.00,0.98
6671.00,0.98
6670.00,0.99
6669.00,0.99
6668.00,0.99
6667.00,0.99
6666.00,0.99
6665.00,0.99
6664.00,0.99
6663.00,0.99
6662.00,0.99
6661.00,0.99
6660.00,1.00
6659.00,1.00
6658.00,1.00
6657.00,1.00
6656.00,1.00
6655.00,1.00
6654.00,1.00
6653.00,1.01
6652.00,1.01
6651.00,1.01
6650.00,1.01
6649.00,1.01
6648.00,1.02
6647.00,1.02
6646.00,1.02
6645.00,1.02
6644.00,1.02
6643.00,1.03
6642.00,1.03
6641.00,1.03
6640.00,1.03
6639.00,1.03
6638.00,1.03
6637.00,1.03
6636.00,1.04
6635.00,1.04
6634.00,1.04
6633.00,1.04
6632.00,1.04
6631.00,1.04
6630.00,1.04
6629.00,1.05
6628.00,1.05
6627.00,1.05
6626.00,1.05
6625.00,1.05
6624.00,1.05
6623.00,1.05
6622.00,1.06
6621.00,1.06
6620.00,1.06
6619.00,1.06
6618.00,1.06
6617.00,1.06
6616.00,1.06
6615.00,1.06
6614.00,1.06
6613.00,1.07
6612.00,1.07
6611.00,1.07
6610.00,1.07
6609.00,1.07
6608.00,1.07
6607.00,1.07
6606.00,1.08
6605.00,1.08
6604.00,1.08
6603.00,1.08
6602.00,1.08
6601.00,1.08
6600.00,1.08
6599.00,1.09
6598.00,1.09
6597.00,1.09
6596.00,1.09
6595.00,1.09
6594.00,1.09
6593.00,1.10
6592.00,1.10
6591.00,1.10
6590.00,1.10
6589.00,1.10
6588.00,1.11
6587.00,1.11
6586.00,1.11
6585.00,1.11
6584.00,1.11
6583.00,1.12
6582.00,1.12
6581.00,1.12
6580.00,1.12
6579.00,1.12
6578.00,1.12
6577.00,1.13
6576.00,1.13
6575.00,1.13
6574.00,1.13
6573.00,1.13
6572.00,1.13
6571.00,1.13
6570.00,1.14
6569.00,1.14
6568.00,1.14
6567.00,1.14
6566.00,1.14
6565.00,1.14
6564.00,1.14
6563.00,1.15
6562.00,1.15
6561.00,1.15
6560.00,1.15
6559.00,1.15
6558.00,1.15
6557.00,1.16
6556.00,1.16
6555.00,1.16
6554.00,1.16
6553.00,1.16
6552.00,1.16
6551.00,1.16
6550.00,1.16
6549.00,1.17
6548.00,1.17
6547.00,1.17
6546.00,1.17
6545.00,1.17
6544.00,1.17
6543.00,1.17
6542.00,1.17
6541.00,1.17
6540.00,1.18
6539.00,1.18
6538.00,1.18
6537.00,1.18
6536.00,1.18
6535.00,1.18
6534.00,1.18
6533.00,1.19
6532.00,1.19
6531.00,1.19
6530.00,1.19
6529.00,1.19
6528.00,1.19
6527.00,1.19
6526.00,1.19
6525.00,1.19
6524.00,1.19
6523.00,1.19
6522.00,1.20
6521.00,1.20
6520.00,1.20
6519.00,1.20
6518.00,1.20
6517.00,1.20
6516.00,1.20
6515.00,1.20
6514.00,1.20
6513.00,1.20
6512.00,1.21
6511.00,1.21
6510.00,1.21
6509.00,1.21
6508.00,1.21
6507.00,1.21
6506.00,1.21
6505.00,1.22
6504.00,1.22
6503.00,1.22
6502.00,1.22
6501.00,1.22
6500.00,1.22
6499.00,1.22
6498.00,1.22
6497.00,1.22
6496.00,1.22
6495.00,1.22
6494.00,1.22
6493.00,1.23
6492.00,1.23
6491.00,1.23
6490.00,1.23
6489.00,1.23
6488.00,1.23
6487.00,1.23
6486.00,1.23
6485.00,1.23
6484.00,1.23
6483.00,1.24
6482.00,1.24
6481.00,1.24
6480.00,1.24
6479.00,1.24
6478.00,1.24
6477.00,1.24
6476.00,1.25
6475.00,1.25
6474.00,1.25
6473.00,1.25
6472.00,1.25
6471.00,1.25
6470.00,1.25
6469.00,1.25
6468.00,1.25
6467.00,1.25
6466.00,1.25
6465.00,1.25
6464.00,1.25
6463.00,1.25
6462.00,1.25
6461.00,1.25
6460.00,1.25
6459.00,1.26
6458.00,1.26
6457.00,1.26
6456.00,1.26
6455.00,1.26
6454.00,1.26
6453.00,1.26
6452.00,1.26
6451.00,1.26
6450.00,1.26
6449.00,1.26
6448.00,1.26
6447.00,1.26
6446.00,1.26
6445.00,1.26
6444.00,1.26
6443.00,1.26
6442.00,1.27
6441.00,1.27
6440.00,1.27
6439.00,1.27
6438.00,1.27
6437.00,1.27
6436.00,1.27
6435.00,1.27
6434.00,1.27
6433.00,1.27
6432.00,1.27
6431.00,1.27
6430.00,1.27
6429.00,1.28
6428.00,1.28
6427.00,1.28
6426.00,1.28
6425.00,1.28
6424.00,1.28
6423.00,1.28
6422.00,1.28
6421.00,1.28
6420.00,1.28
6419.00,1.28
6418.00,1.29
6417.00,1.29
6416.00,1.29
6415.00,1.29
6414.00,1.29
6413.00,1.29
6412.00,1.29
6411.00,1.29
6410.00,1.29
6409.00,1.29
6408.00,1.29
6407.00,1.29
6406.00,1.30
6405.00,1.30
6404.00,1.30
6403.00,1.30
6402.00,1.30
6401.00,1.30
6400.00,1.30
6399.00,1.30
6398.00,1.30
6397.00,1.30
6396.00,1.30
6395.00,1.31
6394.00,1.31
6393.00,1.31
6392.00,1.31
6391.00,1.31
6390.00,1.31
6389.00,1.31
6388.00,1.31
6387.00,1.32
6386.00,1.32
6385.00,1.32
6384.00,1.32
6383.00,1.32
6382.00,1.32
6381.00,1.32
6380.00,1.32
6379.00,1.32
6378.00,1.32
6377.00,1.32
6376.00,1.33
6375.00,1.33
6374.00,1.33
6373.00,1.33
6372.00,1.33
6371.00,1.33
6370.00,1.33
6369.00,1.33
6368.00,1.33
6367.00,1.33
6366.00,1.33
6365.00,1.33
6364.00,1.33
6363.00,1.34
6362.00,1.34
6361.00,1.34
6360.00,1.34
6359.00,1.34
6358.00,1.34
6357.00,1.34
6356.00,1.34
6355.00,1.34
6354.00,1.34
6353.00,1.35
6352.00,1.35
6351.00,1.35
6350.00,1.35
6349.00,1.35
6348.00,1.35
6347.00,1.35
6346.00,1.35
6345.00,1.36
6344.00,1.36
6343.00,1.36
6342.00,1.36
6341.00,1.36
6340.00,1.36
6339.00,1.36
6338.00,1.36
6337.00,1.37
6336.00,1.37
6335.00,1.37
6334.00,1.37
6333.00,1.37
6332.00,1.37
6331.00,1.37
6330.00,1.38
6329.00,1.38
6328.00,1.38
6327.00,1.38
6326.00,1.38
6325.00,1.39
6324.00,1.39
6323.00,1.39
6322.00,1.39
6321.00,1.39
6320.00,1.40
6319.00,1.40
6318.00,1.40
6317.00,1.40
6316.00,1.40
6315.00,1.41
6314.00,1.41
6313.00,1.41
6312.00,1.41
6311.00,1.41
6310.00,1.41
6309.00,1.42
6308.00,1.42
6307.00,1.42
6306.00,1.42
6305.00,1.42
6304.00,1.42
6303.00,1.42
6302.00,1.42
6301.00,1.43
6300.00,1.43
6299.00,1.43
6298.00,1.43
6297.00,1.43
6296.00,1.43
6295.00,1.43
6294.00,1.44
6293.00,1.44
6292.00,1.44
6291.00,1.44
6290.00,1.44
6289.00,1.44
6288.00,1.45
6287.00,1.45
6286.00,1.45
6285.00,1.45
6284.00,1.45
6283.00,1.45
6282.00,1.46
6281.00,1.46
6280.00,1.46
6279.00,1.46
6278.00,1.46
6277.00,1.46
6276.00,1.47
6275.00,1.47
6274.00,1.47
6273.00,1.47
6272.00,1.47
6271.00,1.47
6270.00,1.48
6269.00,1.48
6268.00,1.48
6267.00,1.48
6266.00,1.48
6265.00,1.48
6264.00,1.49
6263.00,1.49
6262.00,1.49
6261.00,1.49
6260.00,1.49
6259.00,1.50
6258.00,1.50
6257.00,1.50
6256.00,1.50
6255.00,1.50
6254.00,1.51
6253.00,1.51
6252.00,1.51
6251.00,1.51
6250.00,1.51
6249.00,1.51
6248.00,1.52
6247.00,1.52
6246.00,1.52
6245.00,1.52
6244.00,1.52
6243.00,1.53
6242.00,1.53
6241.00,1.53
6240.00,1.53
6239.00,1.53
6238.00,1.54
6237.00,1.54
6236.00,1.54
6235.00,1.54
6234.00,1.55
6233.00,1.55
6232.00,1.55
6231.00,1.55
6230.00,1.56
6229.00,1.56
6228.00,1.56
6227.00,1.56
6226.00,1.56
6225.00,1.57
6224.00,1.57
6223.00,1.57
6222.00,1.57
6221.00,1.57
6220.00,1.57
6219.00,1.58
6218.00,1.58
6217.00,1.58
6216.00,1.58
6215.00,1.58
6214.00,1.58
6213.00,1.58
6212.00,1.59
6211.00,1.59
6210.00,1.59
6209.00,1.59
6208.00,1.59
6207.00,1.59
6206.00,1.60
6205.00,1.60
6204.00,1.60
6203.00,1.60
6202.00,1.60
6201.00,1.60
6200.00,1.61
6199.00,1.61
6198.00,1.61
6197.00,1.61
6196.00,1.62
6195.00,1.62
6194.00,1.62
6193.00,1.62
6192.00,1.63
6191.00,1.63
6190.00,1.63
6189.00,1.63
6188.00,1.64
6187.00,1.64
6186.00,1.64
6185.00,1.64
6184.00,1.65
6183.00,1.65
6182.00,1.65
6181.00,1.65
6180.00,1.65
6179.00,1.66
6178.00,1.66
6177.00,1.66
6176.00,1.66
6175.00,1.66
6174.00,1.67
6173.00,1.67
6172.00,1.67
6171.00,1.67
6170.00,1.68
6169.00,1.68
6168.00,1.68
6167.00,1.68
6166.00,1.68
6165.00,1.69
6164.00,1.69
6163.00,1.69
6162.00,1.69
6161.00,1.70
6160.00,1.70
6159.00,1.70
6158.00,1.70
6157.00,1.71
6156.00,1.71
6155.00,1.71
6154.00,1.72
6153.00,1.72
6152.00,1.72
6151.00,1.72
6150.00,1.73
6149.00,1.73
6148.00,1.73
6147.00,1.73
6146.00,1.74
6145.00,1.74
6144.00,1.74
6143.00,1.74
6142.00,1.74
6141.00,1.75
6140.00,1.75
6139.00,1.75
6138.00,1.75
6137.00,1.75
6136.00,1.76
6135.00,1.76
6134.00,1.76
6133.00,1.76
6132.00,1.76
6131.00,1.77
6130.00,1.77
6129.00,1.77
6128.00,1.77
6127.00,1.77
6126.00,1.78
6125.00,1.78
6124.00,1.78
6123.00,1.78
6122.00,1.79
6121.00,1.79
6120.00,1.79
6119.00,1.79
6118.00,1.80
6117.00,1.80
6116.00,1.80
6115.00,1.80
6114.00,1.80
6113.00,1.81
6112.00,1.81
6111.00,1.81
6110.00,1.81
6109.00,1.82
6108.00,1.82
6107.00,1.82
6106.00,1.82
6105.00,1.83
6104.00,1.83
6103.00,1.83
6102.00,1.83
6101.00,1.84
6100.00,1.84
6099.00,1.84
6098.00,1.84
6097.00,1.85
6096.00,1.85
6095.00,1.85
6094.00,1.85
6093.00,1.85
6092.00,1.86
6091.00,1.86
6090.00,1.86
6089.00,1.86
6088.00,1.86
6087.00,1.87
6086.00,1.87
6085.00,1.87
6084.00,1.87
6083.00,1.87
6082.00,1.88
6081.00,1.88
6080.00,1.88
6079.00,1.88
6078.00,1.88
6077.00,1.88
6076.00,1.89
6075.00,1.89
6074.00,1.89
6073.00,1.89
6072.00,1.89
6071.00,1.90
6070.00,1.90
6069.00,1.90
6068.00,1.90
6067.00,1.90
6066.00,1.91
6065.00,1.91
6064.00,1.91
6063.00,1.91
6062.00,1.92
6061.00,1.92
6060.00,1.92
6059.00,1.92
6058.00,1.92
6057.00,1.93
6056.00,1.93
6055.00,1.93
6054.00,1.93
6053.00,1.93
6052.00,1.93
6051.00,1.93
6050.00,1.94
6049.00,1.94
6048.00,1.94
6047.00,1.94
6046.00,1.94
6045.00,1.94
6044.00,1.94
6043.00,1.94
6042.00,1.95
6041.00,1.95
6040.00,1.95
6039.00,1.95
6038.00,1.95
6037.00,1.95
6036.00,1.95
6035.00,1.95
6034.00,1.95
6033.00,1.96
6032.00,1.96
6031.00,1.96
6030.00,1.96
6029.00,1.96
6028.00,1.96
6027.00,1.96
6026.00,1.96
6025.00,1.96
6024.00,1.96
6023.00,1.96
6022.00,1.96
6021.00,1.96
6020.00,1.96
6019.00,1.96
6018.00,1.97
6017.00,1.97
6016.00,1.97
6015.00,1.97
6014.00,1.97
6013.00,1.97
6012.00,1.97
6011.00,1.97
6010.00,1.97
6009.00,1.97
6008.00,1.97
6007.00,1.97
6006.00,1.97
6005.00,1.97
6004.00,1.97
6003.00,1.96
6002.00,1.96
6001.00,1.96
6000.00,1.96
5999.00,1.96
5998.00,1.96
5997.00,1.96
5996.00,1.96
5995.00,1.95
5994.00,1.95
5993.00,1.95
5992.00,1.95
5991.00,1.95
5990.00,1.94
5989.00,1.94
5988.00,1.94
5987.00,1.93
5986.00,1.93
5985.00,1.93
5984.00,1.92
5983.00,1.92
5982.00,1.91
5981.00,1.91
5980.00,1.90
5979.00,1.90
5978.00,1.89
5977.00,1.89
5976.00,1.88
5975.00,1.87
5974.00,1.86
5973.00,1.86
5972.00,1.85
5971.00,1.84
5970.00,1.83
5969.00,1.82
5968.00,1.81
5967.00,1.80
5966.00,1.79
5965.00,1.78
5964.00,1.77
5963.00,1.75
5962.00,1.74
5961.00,1.73
5960.00,1.72
5959.00,1.71
5958.00,1.70
5957.00,1.68
5956.00,1.67
5955.00,1.66
5954.00,1.65
5953.00,1.64
5952.00,1.63
5951.00,1.62
5950.00,1.61
5949.00,1.60
5948.00,1.59
5947.00,1.59
5946.00,1.58
5945.00,1.57
5944.00,1.57
5943.00,1.56
5942.00,1.56
5941.00,1.56
5940.00,1.55
5939.00,1.55
5938.00,1.55
5937.00,1.55
5936.00,1.54
5935.00,1.54
5934.00,1.54
5933.00,1.54
5932.00,1.54
5931.00,1.54
5930.00,1.54
5929.00,1.53
5928.00,1.53
5927.00,1.53
5926.00,1.53
5925.00,1.53
5924.00,1.52
5923.00,1.52
5922.00,1.52
5921.00,1.51
5920.00,1.51
5919.00,1.50
5918.00,1.50
5917.00,1.50
5916.00,1.49
5915.00,1.49
5914.00,1.48
5913.00,1.48
5912.00,1.48
5911.00,1.47
5910.00,1.47
5909.00,1.46
5908.00,1.46
5907.00,1.46
5906.00,1.46
5905.00,1.46
5904.00,1.45
5903.00,1.45
5902.00,1.45
5901.00,1.45
5900.00,1.45
5899.00,1.46
5898.00,1.46
5897.00,1.46
5896.00,1.46
5895.00,1.46
5894.00,1.47
5893.00,1.47
5892.00,1.47
5891.00,1.48
5890.00,1.48
5889.00,1.48
5888.00,1.49
5887.00,1.49
5886.00,1.50
5885.00,1.50
5884.00,1.51
5883.00,1.51
5882.00,1.52
5881.00,1.52
5880.00,1.53
5879.00,1.53
5878.00,1.54
5877.00,1.54
5876.00,1.54
5875.00,1.55
5874.00,1.55
5873.00,1.56
5872.00,1.56
5871.00,1.57
5870.00,1.57
5869.00,1.57
5868.00,1.58
5867.00,1.58
5866.00,1.58
5865.00,1.59
5864.00,1.59
5863.00,1.59
5862.00,1.59
5861.00,1.60
5860.00,1.60
5859.00,1.60
5858.00,1.60
5857.00,1.60
5856.00,1.61
5855.00,1.61
5854.00,1.61
5853.00,1.61
5852.00,1.61
5851.00,1.61
5850.00,1.61
5849.00,1.61
5848.00,1.61
5847.00,1.61
5846.00,1.62
5845.00,1.62
5844.00,1.62
5843.00,1.62
5842.00,1.62
5841.00,1.62
5840.00,1.62
5839.00,1.62
5838.00,1.62
5837.00,1.61
5836.00,1.61
5835.00,1.61
5834.00,1.61
5833.00,1.61
5832.00,1.61
5831.00,1.61
5830.00,1.61
5829.00,1.61
5828.00,1.61
5827.00,1.61
5826.00,1.61
5825.00,1.61
5824.00,1.61
5823.00,1.61
5822.00,1.61
5821.00,1.62
5820.00,1.62
5819.00,1.62
5818.00,1.62
5817.00,1.62
5816.00,1.62
5815.00,1.62
5814.00,1.62
5813.00,1.62
5812.00,1.62
5811.00,1.62
5810.00,1.61
5809.00,1.61
5808.00,1.61
5807.00,1.61
5806.00,1.61
5805.00,1.61
5804.00,1.61
5803.00,1.60
5802.00,1.60
5801.00,1.60
5800.00,1.60
5799.00,1.59
5798.00,1.59
5797.00,1.59
5796.00,1.59
5795.00,1.58
5794.00,1.58
5793.00,1.58
5792.00,1.57
5791.00,1.57
5790.00,1.56
5789.00,1.56
5788.00,1.56
5787.00,1.55
5786.00,1.55
5785.00,1.54
5784.00,1.54
5783.00,1.54
5782.00,1.53
5781.00,1.53
5780.00,1.53
5779.00,1.53
5778.00,1.52
5777.00,1.52
5776.00,1.52
5775.00,1.52
5774.00,1.52
5773.00,1.52
5772.00,1.52
5771.00,1.52
5770.00,1.52
5769.00,1.52
5768.00,1.52
5767.00,1.52
5766.00,1.53
5765.00,1.53
5764.00,1.53
5763.00,1.54
5762.00,1.54
5761.00,1.54
5760.00,1.55
5759.00,1.55
5758.00,1.56
5757.00,1.56
5756.00,1.57
5755.00,1.57
5754.00,1.58
5753.00,1.59
5752.00,1.59
5751.00,1.60
5750.00,1.60
5749.00,1.61
5748.00,1.62
5747.00,1.62
5746.00,1.63
5745.00,1.63
5744.00,1.64
5743.00,1.64
5742.00,1.65
5741.00,1.65
5740.00,1.65
5739.00,1.66
5738.00,1.66
5737.00,1.67
5736.00,1.67
5735.00,1.67
5734.00,1.68
5733.00,1.68
5732.00,1.68
5731.00,1.68
5730.00,1.68
5729.00,1.69
5728.00,1.69
5727.00,1.69
5726.00,1.69
5725.00,1.69
5724.00,1.69
5723.00,1.69
5722.00,1.69
5721.00,1.69
5720.00,1.70
5719.00,1.70
5718.00,1.70
5717.00,1.70
5716.00,1.70
5715.00,1.70
5714.00,1.70
5713.00,1.70
5712.00,1.70
5711.00,1.69
5710.00,1.69
5709.00,1.69
5708.00,1.69
5707.00,1.69
5706.00,1.69
5705.00,1.69
5704.00,1.69
5703.00,1.69
5702.00,1.69
5701.00,1.68
5700.00,1.68
5699.00,1.68
5698.00,1.68
5697.00,1.68
5696.00,1.67
5695.00,1.67
5694.00,1.67
5693.00,1.67
5692.00,1.66
5691.00,1.66
5690.00,1.66
5689.00,1.65
5688.00,1.65
5687.00,1.65
5686.00,1.65
5685.00,1.64
5684.00,1.64
5683.00,1.64
5682.00,1.63
5681.00,1.63
5680.00,1.63
5679.00,1.63
5678.00,1.63
5677.00,1.62
5676.00,1.62
5675.00,1.62
5674.00,1.62
5673.00,1.62
5672.00,1.62
5671.00,1.62
5670.00,1.62
5669.00,1.62
5668.00,1.63
5667.00,1.63
5666.00,1.63
5665.00,1.63
5664.00,1.63
5663.00,1.63
5662.00,1.64
5661.00,1.64
5660.00,1.64
5659.00,1.64
5658.00,1.65
5657.00,1.65
5656.00,1.65
5655.00,1.65
5654.00,1.66
5653.00,1.66
5652.00,1.66
5651.00,1.67
5650.00,1.67
5649.00,1.67
5648.00,1.67
5647.00,1.68
5646.00,1.68
5645.00,1.68
5644.00,1.69
5643.00,1.69
5642.00,1.69
5641.00,1.69
5640.00,1.70
5639.00,1.70
5638.00,1.70
5637.00,1.71
5636.00,1.71
5635.00,1.71
5634.00,1.71
5633.00,1.72
5632.00,1.72
5631.00,1.72
5630.00,1.72
5629.00,1.73
5628.00,1.73
5627.00,1.73
5626.00,1.74
5625.00,1.74
5624.00,1.74
5623.00,1.74
5622.00,1.75
5621.00,1.75
5620.00,1.75
5619.00,1.75
5618.00,1.76
5617.00,1.76
5616.00,1.76
5615.00,1.76
5614.00,1.77
5613.00,1.77
5612.00,1.77
5611.00,1.77
5610.00,1.77
5609.00,1.78
5608.00,1.78
5607.00,1.78
5606.00,1.78
5605.00,1.79
5604.00,1.79
5603.00,1.79
5602.00,1.79
5601.00,1.80
5600.00,1.80
5599.00,1.80
5598.00,1.80
5597.00,1.81
5596.00,1.81
5595.00,1.81
5594.00,1.81
5593.00,1.82
5592.00,1.82
5591.00,1.82
5590.00,1.83
5589.00,1.83
5588.00,1.83
5587.00,1.83
5586.00,1.84
5585.00,1.84
5584.00,1.84
5583.00,1.84
5582.00,1.84
5581.00,1.85
5580.00,1.85
5579.00,1.85
5578.00,1.85
5577.00,1.85
5576.00,1.85
5575.00,1.86
5574.00,1.86
5573.00,1.86
5572.00,1.86
5571.00,1.86
5570.00,1.87
5569.00,1.87
5568.00,1.87
5567.00,1.87
5566.00,1.87
5565.00,1.88
5564.00,1.88
5563.00,1.88
5562.00,1.88
5561.00,1.88
5560.00,1.89
5559.00,1.89
5558.00,1.89
5557.00,1.89
5556.00,1.89
5555.00,1.90
5554.00,1.90
5553.00,1.90
5552.00,1.90
5551.00,1.90
5550.00,1.91
5549.00,1.91
5548.00,1.91
5547.00,1.91
5546.00,1.91
5545.00,1.91
5544.00,1.92
5543.00,1.92
5542.00,1.92
5541.00,1.92
5540.00,1.92
5539.00,1.93
5538.00,1.93
5537.00,1.93
5536.00,1.93
5535.00,1.93
5534.00,1.94
5533.00,1.94
5532.00,1.94
5531.00,1.94
5530.00,1.94
5529.00,1.94
5528.00,1.95
5527.00,1.95
5526.00,1.95
5525.00,1.95
5524.00,1.95
5523.00,1.95
5522.00,1.95
5521.00,1.96
5520.00,1.96
5519.00,1.96
5518.00,1.96
5517.00,1.96
5516.00,1.96
5515.00,1.96
5514.00,1.96
5513.00,1.97
5512.00,1.97
5511.00,1.97
5510.00,1.97
5509.00,1.97
5508.00,1.97
5507.00,1.97
5506.00,1.97
5505.00,1.97
5504.00,1.97
5503.00,1.97
5502.00,1.97
5501.00,1.97
5500.00,1.97
5499.00,1.97
5498.00,1.98
5497.00,1.98
5496.00,1.98
5495.00,1.98
5494.00,1.98
5493.00,1.98
5492.00,1.98
5491.00,1.98
5490.00,1.98
5489.00,1.99
5488.00,1.99
5487.00,1.99
5486.00,1.99
5485.00,1.99
5484.00,1.99
5483.00,2.00
5482.00,2.00
5481.00,2.00
5480.00,2.00
5479.00,2.00
5478.00,2.01
5477.00,2.01
5476.00,2.01
5475.00,2.01
5474.00,2.01
5473.00,2.02
5472.00,2.02
5471.00,2.02
5470.00,2.02
5469.00,2.03
5468.00,2.03
5467.00,2.03
5466.00,2.03
5465.00,2.03
5464.00,2.04
5463.00,2.04
5462.00,2.04
5461.00,2.04
5460.00,2.04
5459.00,2.05
5458.00,2.05
5457.00,2.05
5456.00,2.05
5455.00,2.05
5454.00,2.05
5453.00,2.05
5452.00,2.05
5451.00,2.06
5450.00,2.06
5449.00,2.06
5448.00,2.06
5447.00,2.06
5446.00,2.06
5445.00,2.06
5444.00,2.06
5443.00,2.06
5442.00,2.06
5441.00,2.06
5440.00,2.07
5439.00,2.07
5438.00,2.07
5437.00,2.07
5436.00,2.07
5435.00,2.07
5434.00,2.07
5433.00,2.07
5432.00,2.07
5431.00,2.07
5430.00,2.07
5429.00,2.07
5428.00,2.07
5427.00,2.07
5426.00,2.07
5425.00,2.07
5424.00,2.07
5423.00,2.07
5422.00,2.07
5421.00,2.07
5420.00,2.07
5419.00,2.07
5418.00,2.07
5417.00,2.07
5416.00,2.07
5415.00,2.07
5414.00,2.07
5413.00,2.07
5412.00,2.07
5411.00,2.07
5410.00,2.07
5409.00,2.07
5408.00,2.07
5407.00,2.07
5406.00,2.07
5405.00,2.07
5404.00,2.07
5403.00,2.07
5402.00,2.07
5401.00,2.07
5400.00,2.06
5399.00,2.06
5398.00,2.06
5397.00,2.06
5396.00,2.06
5395.00,2.06
5394.00,2.06
5393.00,2.06
5392.00,2.06
5391.00,2.05
5390.00,2.05
5389.00,2.05
5388.00,2.05
5387.00,2.04
5386.00,2.04
5385.00,2.04
5384.00,2.03
5383.00,2.03
5382.00,2.02
5381.00,2.02
5380.00,2.01
5379.00,2.01
5378.00,2.00
5377.00,2.00
5376.00,1.99
5375.00,1.99
5374.00,1.98
5373.00,1.97
5372.00,1.97
5371.00,1.96
5370.00,1.95
5369.00,1.94
5368.00,1.94
5367.00,1.93
5366.00,1.92
5365.00,1.91
5364.00,1.90
5363.00,1.89
5362.00,1.88
5361.00,1.87
5360.00,1.86
5359.00,1.85
5358.00,1.84
5357.00,1.83
5356.00,1.82
5355.00,1.81
5354.00,1.79
5353.00,1.78
5352.00,1.77
5351.00,1.76
5350.00,1.74
5349.00,1.73
5348.00,1.71
5347.00,1.70
5346.00,1.68
5345.00,1.67
5344.00,1.65
5343.00,1.63
5342.00,1.62
5341.00,1.60
5340.00,1.58
5339.00,1.57
5338.00,1.55
5337.00,1.53
5336.00,1.51
5335.00,1.50
5334.00,1.48
5333.00,1.46
5332.00,1.44
5331.00,1.42
5330.00,1.40
5329.00,1.39
5328.00,1.37
5327.00,1.35
5326.00,1.33
5325.00,1.31
5324.00,1.29
5323.00,1.28
5322.00,1.26
5321.00,1.24
5320.00,1.22
5319.00,1.21
5318.00,1.19
5317.00,1.17
5316.00,1.16
5315.00,1.14
5314.00,1.13
5313.00,1.11
5312.00,1.09
5311.00,1.08
5310.00,1.07
5309.00,1.05
5308.00,1.04
5307.00,1.02
5306.00,1.01
5305.00,1.00
5304.00,0.99
5303.00,0.98
5302.00,0.97
5301.00,0.96
5300.00,0.95
5299.00,0.94
5298.00,0.93
5297.00,0.92
5296.00,0.91
5295.00,0.91
5294.00,0.90
5293.00,0.89
5292.00,0.89
5291.00,0.88
5290.00,0.88
5289.00,0.87
5288.00,0.87
5287.00,0.86
5286.00,0.86
5285.00,0.85
5284.00,0.85
5283.00,0.85
5282.00,0.84
5281.00,0.84
5280.00,0.84
5279.00,0.83
5278.00,0.83
5277.00,0.83
5276.00,0.83
5275.00,0.82
5274.00,0.82
5273.00,0.82
5272.00,0.82
5271.00,0.82
5270.00,0.82
5269.00,0.82
5268.00,0.81
5267.00,0.81
5266.00,0.81
5265.00,0.81
5264.00,0.81
5263.00,0.81
5262.00,0.81
5261.00,0.81
5260.00,0.81
5259.00,0.81
5258.00,0.81
5257.00,0.81
5256.00,0.81
5255.00,0.81
5254.00,0.81
5253.00,0.81
5252.00,0.81
5251.00,0.81
5250.00,0.81
5249.00,0.81
5248.00,0.81
5247.00,0.81
5246.00,0.81
5245.00,0.81
5244.00,0.80
5243.00,0.80
5242.00,0.80
5241.00,0.80
5240.00,0.80
5239.00,0.80
5238.00,0.80
5237.00,0.81
5236.00,0.81
5235.00,0.81
5234.00,0.81
5233.00,0.81
5232.00,0.81
5231.00,0.81
5230.00,0.81
5229.00,0.81
5228.00,0.81
5227.00,0.81
5226.00,0.81
5225.00,0.81
5224.00,0.81
5223.00,0.81
5222.00,0.81
5221.00,0.81
5220.00,0.81
5219.00,0.81
5218.00,0.82
5217.00,0.82
5216.00,0.82
5215.00,0.82
5214.00,0.82
5213.00,0.82
5212.00,0.82
5211.00,0.82
5210.00,0.82
5209.00,0.82
5208.00,0.82
5207.00,0.82
5206.00,0.82
5205.00,0.82
5204.00,0.82
5203.00,0.82
5202.00,0.82
5201.00,0.82
5200.00,0.82
5199.00,0.82
5198.00,0.82
5197.00,0.82
5196.00,0.82
5195.00,0.82
5194.00,0.82
5193.00,0.82
5192.00,0.82
5191.00,0.82
5190.00,0.82
5189.00,0.82
5188.00,0.82
5187.00,0.82
5186.00,0.82
5185.00,0.83
5184.00,0.83
5183.00,0.83
5182.00,0.83
5181.00,0.83
5180.00,0.83
5179.00,0.83
5178.00,0.83
5177.00,0.83
5176.00,0.83
5175.00,0.83
5174.00,0.83
5173.00,0.83
5172.00,0.83
5171.00,0.84
5170.00,0.84
5169.00,0.84
5168.00,0.84
5167.00,0.84
5166.00,0.84
5165.00,0.84
5164.00,0.84
5163.00,0.84
5162.00,0.84
5161.00,0.84
5160.00,0.84
5159.00,0.84
5158.00,0.84
5157.00,0.84
5156.00,0.84
5155.00,0.84
5154.00,0.84
5153.00,0.84
5152.00,0.84
5151.00,0.84
5150.00,0.85
5149.00,0.85
5148.00,0.85
5147.00,0.85
5146.00,0.85
5145.00,0.85
5144.00,0.85
5143.00,0.85
5142.00,0.85
5141.00,0.85
5140.00,0.85
5139.00,0.85
5138.00,0.85
5137.00,0.86
5136.00,0.86
5135.00,0.86
5134.00,0.86
5133.00,0.86
5132.00,0.86
5131.00,0.86
5130.00,0.86
5129.00,0.86
5128.00,0.86
5127.00,0.86
5126.00,0.87
5125.00,0.87
5124.00,0.87
5123.00,0.87
5122.00,0.87
5121.00,0.87
5120.00,0.87
5119.00,0.87
5118.00,0.87
5117.00,0.87
5116.00,0.88
5115.00,0.88
5114.00,0.88
5113.00,0.88
5112.00,0.88
5111.00,0.88
5110.00,0.88
5109.00,0.88
5108.00,0.88
5107.00,0.88
5106.00,0.88
5105.00,0.88
5104.00,0.88
5103.00,0.88
5102.00,0.89
5101.00,0.89
5100.00,0.89
5099.00,0.89
5098.00,0.89
5097.00,0.89
5096.00,0.89
5095.00,0.89
5094.00,0.89
5093.00,0.89
5092.00,0.90
5091.00,0.90
5090.00,0.90
5089.00,0.90
5088.00,0.90
5087.00,0.90
5086.00,0.90
5085.00,0.90
5084.00,0.91
5083.00,0.91
5082.00,0.91
5081.00,0.91
5080.00,0.91
5079.00,0.91
5078.00,0.91
5077.00,0.91
5076.00,0.91
5075.00,0.91
5074.00,0.92
5073.00,0.92
5072.00,0.92
5071.00,0.92
5070.00,0.92
5069.00,0.92
5068.00,0.92
5067.00,0.92
5066.00,0.92
5065.00,0.92
5064.00,0.93
5063.00,0.93
5062.00,0.93
5061.00,0.93
5060.00,0.93
5059.00,0.93
5058.00,0.93
5057.00,0.93
5056.00,0.94
5055.00,0.94
5054.00,0.94
5053.00,0.94
5052.00,0.94
5051.00,0.94
5050.00,0.94
5049.00,0.95
5048.00,0.95
5047.00,0.95
5046.00,0.95
5045.00,0.95
5044.00,0.95
5043.00,0.95
5042.00,0.95
5041.00,0.96
5040.00,0.96
5039.00,0.96
5038.00,0.96
5037.00,0.96
5036.00,0.96
5035.00,0.97
5034.00,0.97
5033.00,0.97
5032.00,0.97
5031.00,0.97
5030.00,0.97
5029.00,0.98
5028.00,0.98
5027.00,0.98
5026.00,0.98
5025.00,0.98
5024.00,0.98
5023.00,0.99
5022.00,0.99
5021.00,0.99
5020.00,0.99
5019.00,0.99
5018.00,0.99
5017.00,1.00
5016.00,1.00
5015.00,1.00
5014.00,1.00
5013.00,1.00
5012.00,1.00
5011.00,1.00
5010.00,1.00
5009.00,1.01
5008.00,1.01
5007.00,1.01
5006.00,1.01
5005.00,1.01
5004.00,1.01
5003.00,1.01
5002.00,1.02
5001.00,1.02
5000.00,1.02
4999.00,1.02
4998.00,1.02
4997.00,1.02
4996.00,1.03
4995.00,1.03
4994.00,1.03
4993.00,1.03
4992.00,1.03
4991.00,1.03
4990.00,1.04
4989.00,1.04
4988.00,1.04
4987.00,1.04
4986.00,1.04
4985.00,1.04
4984.00,1.05
4983.00,1.05
4982.00,1.05
4981.00,1.05
4980.00,1.05
4979.00,1.06
4978.00,1.06
4977.00,1.06
4976.00,1.06
4975.00,1.07
4974.00,1.07
4973.00,1.07
4972.00,1.07
4971.00,1.07
4970.00,1.08
4969.00,1.08
4968.00,1.08
4967.00,1.08
4966.00,1.08
4965.00,1.09
4964.00,1.09
4963.00,1.09
4962.00,1.09
4961.00,1.09
4960.00,1.10
4959.00,1.10
4958.00,1.10
4957.00,1.10
4956.00,1.10
4955.00,1.11
4954.00,1.11
4953.00,1.11
4952.00,1.11
4951.00,1.11
4950.00,1.11
4949.00,1.12
4948.00,1.12
4947.00,1.12
4946.00,1.12
4945.00,1.12
4944.00,1.12
4943.00,1.12
4942.00,1.12
4941.00,1.12
4940.00,1.13
4939.00,1.13
4938.00,1.13
4937.00,1.13
4936.00,1.13
4935.00,1.13
4934.00,1.13
4933.00,1.14
4932.00,1.14
4931.00,1.14
4930.00,1.14
4929.00,1.14
4928.00,1.14
4927.00,1.15
4926.00,1.15
4925.00,1.15
4924.00,1.15
4923.00,1.15
4922.00,1.15
4921.00,1.15
4920.00,1.15
4919.00,1.15
4918.00,1.16
4917.00,1.16
4916.00,1.16
4915.00,1.16
4914.00,1.16
4913.00,1.16
4912.00,1.16
4911.00,1.16
4910.00,1.16
4909.00,1.16
4908.00,1.16
4907.00,1.16
4906.00,1.16
4905.00,1.16
4904.00,1.17
4903.00,1.17
4902.00,1.17
4901.00,1.17
4900.00,1.17
4899.00,1.17
4898.00,1.17
4897.00,1.18
4896.00,1.18
4895.00,1.18
4894.00,1.18
4893.00,1.18
4892.00,1.18
4891.00,1.18
4890.00,1.18
4889.00,1.19
4888.00,1.19
4887.00,1.19
4886.00,1.19
4885.00,1.19
4884.00,1.19
4883.00,1.19
4882.00,1.19
4881.00,1.19
4880.00,1.19
4879.00,1.20
4878.00,1.20
4877.00,1.20
4876.00,1.20
4875.00,1.20
4874.00,1.20
4873.00,1.20
4872.00,1.20
4871.00,1.20
4870.00,1.20
4869.00,1.21
4868.00,1.21
4867.00,1.21
4866.00,1.21
4865.00,1.21
4864.00,1.21
4863.00,1.21
4862.00,1.21
4861.00,1.22
4860.00,1.22
4859.00,1.22
4858.00,1.22
4857.00,1.22
4856.00,1.22
4855.00,1.22
4854.00,1.22
4853.00,1.23
4852.00,1.23
4851.00,1.23
4850.00,1.23
4849.00,1.23
4848.00,1.23
4847.00,1.23
4846.00,1.23
4845.00,1.23
4844.00,1.23
4843.00,1.23
4842.00,1.24
4841.00,1.24
4840.00,1.24
4839.00,1.24
4838.00,1.24
4837.00,1.24
4836.00,1.24
4835.00,1.24
4834.00,1.24
4833.00,1.24
4832.00,1.25
4831.00,1.25
4830.00,1.25
4829.00,1.25
4828.00,1.25
4827.00,1.25
4826.00,1.25
4825.00,1.26
4824.00,1.26
4823.00,1.26
4822.00,1.26
4821.00,1.26
4820.00,1.26
4819.00,1.26
4818.00,1.27
4817.00,1.27
4816.00,1.27
4815.00,1.27
4814.00,1.27
4813.00,1.27
4812.00,1.28
4811.00,1.28
4810.00,1.28
4809.00,1.28
4808.00,1.28
4807.00,1.29
4806.00,1.29
4805.00,1.29
4804.00,1.29
4803.00,1.29
4802.00,1.30
4801.00,1.30
4800.00,1.30
4799.00,1.30
4798.00,1.30
4797.00,1.31
4796.00,1.31
4795.00,1.31
4794.00,1.31
4793.00,1.31
4792.00,1.32
4791.00,1.32
4790.00,1.32
4789.00,1.32
4788.00,1.32
4787.00,1.33
4786.00,1.33
4785.00,1.33
4784.00,1.34
4783.00,1.34
4782.00,1.34
4781.00,1.35
4780.00,1.35
4779.00,1.35
4778.00,1.36
4777.00,1.36
4776.00,1.36
4775.00,1.37
4774.00,1.37
4773.00,1.37
4772.00,1.38
4771.00,1.38
4770.00,1.38
4769.00,1.39
4768.00,1.39
4767.00,1.39
4766.00,1.40
4765.00,1.40
4764.00,1.41
4763.00,1.41
4762.00,1.41
4761.00,1.41
4760.00,1.42
4759.00,1.42
4758.00,1.42
4757.00,1.43
4756.00,1.43
4755.00,1.43
4754.00,1.44
4753.00,1.44
4752.00,1.44
4751.00,1.44
4750.00,1.45
4749.00,1.45
4748.00,1.45
4747.00,1.46
4746.00,1.46
4745.00,1.46
4744.00,1.47
4743.00,1.47
4742.00,1.47
4741.00,1.48
4740.00,1.48
4739.00,1.49
4738.00,1.49
4737.00,1.49
4736.00,1.50
4735.00,1.50
4734.00,1.50
4733.00,1.51
4732.00,1.51
4731.00,1.51
4730.00,1.52
4729.00,1.52
4728.00,1.53
4727.00,1.53
4726.00,1.53
4725.00,1.54
4724.00,1.54
4723.00,1.54
4722.00,1.55
4721.00,1.55
4720.00,1.56
4719.00,1.56
4718.00,1.56
4717.00,1.57
4716.00,1.57
4715.00,1.57
4714.00,1.58
4713.00,1.58
4712.00,1.58
4711.00,1.59
4710.00,1.59
4709.00,1.59
4708.00,1.59
4707.00,1.60
4706.00,1.60
4705.00,1.61
4704.00,1.61
4703.00,1.61
4702.00,1.62
4701.00,1.62
4700.00,1.62
4699.00,1.63
4698.00,1.63
4697.00,1.63
4696.00,1.64
4695.00,1.64
4694.00,1.64
4693.00,1.65
4692.00,1.65
4691.00,1.65
4690.00,1.66
4689.00,1.66
4688.00,1.66
4687.00,1.66
4686.00,1.67
4685.00,1.67
4684.00,1.67
4683.00,1.68
4682.00,1.68
4681.00,1.68
4680.00,1.69
4679.00,1.69
4678.00,1.70
4677.00,1.70
4676.00,1.70
4675.00,1.71
4674.00,1.71
4673.00,1.71
4672.00,1.72
4671.00,1.72
4670.00,1.72
4669.00,1.73
4668.00,1.73
4667.00,1.73
4666.00,1.73
4665.00,1.74
4664.00,1.74
4663.00,1.74
4662.00,1.74
4661.00,1.75
4660.00,1.75
4659.00,1.75
4658.00,1.75
4657.00,1.75
4656.00,1.76
4655.00,1.76
4654.00,1.76
4653.00,1.76
4652.00,1.77
4651.00,1.77
4650.00,1.77
4649.00,1.77
4648.00,1.78
4647.00,1.78
4646.00,1.78
4645.00,1.78
4644.00,1.79
4643.00,1.79
4642.00,1.79
4641.00,1.80
4640.00,1.80
4639.00,1.80
4638.00,1.80
4637.00,1.80
4636.00,1.81
4635.00,1.81
4634.00,1.81
4633.00,1.81
4632.00,1.82
4631.00,1.82
4630.00,1.82
4629.00,1.82
4628.00,1.82
4627.00,1.83
4626.00,1.83
4625.00,1.83
4624.00,1.83
4623.00,1.83
4622.00,1.84
4621.00,1.84
4620.00,1.84
4619.00,1.84
4618.00,1.84
4617.00,1.84
4616.00,1.84
4615.00,1.85
4614.00,1.85
4613.00,1.85
4612.00,1.85
4611.00,1.85
4610.00,1.85
4609.00,1.85
4608.00,1.86
4607.00,1.86
4606.00,1.86
4605.00,1.86
4604.00,1.87
4603.00,1.87
4602.00,1.87
4601.00,1.87
4600.00,1.88
4599.00,1.88
4598.00,1.88
4597.00,1.88
4596.00,1.89
4595.00,1.89
4594.00,1.89
4593.00,1.89
4592.00,1.90
4591.00,1.90
4590.00,1.90
4589.00,1.90
4588.00,1.91
4587.00,1.91
4586.00,1.91
4585.00,1.91
4584.00,1.92
4583.00,1.92
4582.00,1.92
4581.00,1.92
4580.00,1.92
4579.00,1.92
4578.00,1.93
4577.00,1.93
4576.00,1.93
4575.00,1.93
4574.00,1.93
4573.00,1.93
4572.00,1.94
4571.00,1.94
4570.00,1.94
4569.00,1.94
4568.00,1.94
4567.00,1.94
4566.00,1.95
4565.00,1.95
4564.00,1.95
4563.00,1.95
4562.00,1.95
4561.00,1.95
4560.00,1.96
4559.00,1.96
4558.00,1.96
4557.00,1.96
4556.00,1.96
4555.00,1.96
4554.00,1.97
4553.00,1.97
4552.00,1.97
4551.00,1.97
4550.00,1.98
4549.00,1.98
4548.00,1.98
4547.00,1.98
4546.00,1.98
4545.00,1.99
4544.00,1.99
4543.00,1.99
4542.00,1.99
4541.00,1.99
4540.00,2.00
4539.00,2.00
4538.00,2.00
4537.00,2.00
4536.00,2.00
4535.00,2.01
4534.00,2.01
4533.00,2.01
4532.00,2.01
4531.00,2.01
4530.00,2.01
4529.00,2.01
4528.00,2.02
4527.00,2.02
4526.00,2.02
4525.00,2.02
4524.00,2.02
4523.00,2.02
4522.00,2.02
4521.00,2.02
4520.00,2.02
4519.00,2.02
4518.00,2.02
4517.00,2.02
4516.00,2.02
4515.00,2.02
4514.00,2.02
4513.00,2.02
4512.00,2.02
4511.00,2.02
4510.00,2.02
4509.00,2.01
4508.00,2.01
4507.00,2.01
4506.00,2.01
4505.00,2.01
4504.00,2.01
4503.00,2.01
4502.00,2.01
4501.00,2.01
4500.00,2.01
4499.00,2.01
4498.00,2.01
4497.00,2.01
4496.00,2.01
4495.00,2.00
4494.00,2.00
4493.00,2.00
4492.00,2.00
4491.00,2.00
4490.00,1.99
4489.00,1.99
4488.00,1.99
4487.00,1.98
4486.00,1.98
4485.00,1.98
4484.00,1.97
4483.00,1.97
4482.00,1.96
4481.00,1.96
4480.00,1.95
4479.00,1.95
4478.00,1.94
4477.00,1.94
4476.00,1.93
4475.00,1.93
4474.00,1.93
4473.00,1.92
4472.00,1.92
4471.00,1.91
4470.00,1.91
4469.00,1.90
4468.00,1.89
4467.00,1.89
4466.00,1.88
4465.00,1.88
4464.00,1.87
4463.00,1.87
4462.00,1.86
4461.00,1.85
4460.00,1.85
4459.00,1.84
4458.00,1.83
4457.00,1.83
4456.00,1.82
4455.00,1.81
4454.00,1.80
4453.00,1.79
4452.00,1.78
4451.00,1.77
4450.00,1.76
4449.00,1.75
4448.00,1.74
4447.00,1.73
4446.00,1.72
4445.00,1.71
4444.00,1.70
4443.00,1.69
4442.00,1.68
4441.00,1.67
4440.00,1.66
4439.00,1.65
4438.00,1.64
4437.00,1.63
4436.00,1.62
4435.00,1.61
4434.00,1.60
4433.00,1.59
4432.00,1.58
4431.00,1.58
4430.00,1.57
4429.00,1.56
4428.00,1.56
4427.00,1.55
4426.00,1.55
4425.00,1.54
4424.00,1.54
4423.00,1.53
4422.00,1.53
4421.00,1.53
4420.00,1.52
4419.00,1.52
4418.00,1.52
4417.00,1.52
4416.00,1.52
4415.00,1.52
4414.00,1.52
4413.00,1.51
4412.00,1.51
4411.00,1.51
4410.00,1.51
4409.00,1.51
4408.00,1.51
4407.00,1.51
4406.00,1.51
4405.00,1.51
4404.00,1.51
4403.00,1.51
4402.00,1.51
4401.00,1.52
4400.00,1.52
4399.00,1.52
4398.00,1.52
4397.00,1.53
4396.00,1.53
4395.00,1.53
4394.00,1.53
4393.00,1.54
4392.00,1.54
4391.00,1.55
4390.00,1.55
4389.00,1.55
4388.00,1.56
4387.00,1.56
4386.00,1.56
4385.00,1.56
4384.00,1.57
4383.00,1.57
4382.00,1.57
4381.00,1.57
4380.00,1.58
4379.00,1.58
4378.00,1.58
4377.00,1.58
4376.00,1.58
4375.00,1.59
4374.00,1.59
4373.00,1.59
4372.00,1.59
4371.00,1.59
4370.00,1.59
4369.00,1.59
4368.00,1.59
4367.00,1.59
4366.00,1.60
4365.00,1.60
4364.00,1.60
4363.00,1.59
4362.00,1.59
4361.00,1.59
4360.00,1.59
4359.00,1.59
4358.00,1.59
4357.00,1.59
4356.00,1.59
4355.00,1.59
4354.00,1.59
4353.00,1.59
4352.00,1.59
4351.00,1.59
4350.00,1.59
4349.00,1.59
4348.00,1.59
4347.00,1.59
4346.00,1.59
4345.00,1.59
4344.00,1.59
4343.00,1.59
4342.00,1.59
4341.00,1.59
4340.00,1.59
4339.00,1.59
4338.00,1.59
4337.00,1.59
4336.00,1.59
4335.00,1.59
4334.00,1.59
4333.00,1.60
4332.00,1.60
4331.00,1.60
4330.00,1.60
4329.00,1.61
4328.00,1.61
4327.00,1.61
4326.00,1.61
4325.00,1.62
4324.00,1.62
4323.00,1.63
4322.00,1.63
4321.00,1.63
4320.00,1.64
4319.00,1.64
4318.00,1.65
4317.00,1.65
4316.00,1.66
4315.00,1.66
4314.00,1.66
4313.00,1.67
4312.00,1.67
4311.00,1.67
4310.00,1.68
4309.00,1.68
4308.00,1.69
4307.00,1.69
4306.00,1.69
4305.00,1.70
4304.00,1.70
4303.00,1.71
4302.00,1.71
4301.00,1.71
4300.00,1.72
4299.00,1.72
4298.00,1.73
4297.00,1.73
4296.00,1.73
4295.00,1.74
4294.00,1.74
4293.00,1.74
4292.00,1.75
4291.00,1.75
4290.00,1.75
4289.00,1.75
4288.00,1.76
4287.00,1.76
4286.00,1.76
4285.00,1.76
4284.00,1.76
4283.00,1.77
4282.00,1.77
4281.00,1.77
4280.00,1.77
4279.00,1.77
4278.00,1.77
4277.00,1.77
4276.00,1.77
4275.00,1.77
4274.00,1.77
4273.00,1.77
4272.00,1.77
4271.00,1.77
4270.00,1.77
4269.00,1.77
4268.00,1.77
4267.00,1.77
4266.00,1.77
4265.00,1.77
4264.00,1.77
4263.00,1.76
4262.00,1.76
4261.00,1.76
4260.00,1.76
4259.00,1.76
4258.00,1.76
4257.00,1.75
4256.00,1.75
4255.00,1.75
4254.00,1.75
4253.00,1.75
4252.00,1.75
4251.00,1.75
4250.00,1.75
4249.00,1.75
4248.00,1.75
4247.00,1.76
4246.00,1.76
4245.00,1.76
4244.00,1.76
4243.00,1.76
4242.00,1.77
4241.00,1.77
4240.00,1.77
4239.00,1.77
4238.00,1.78
4237.00,1.78
4236.00,1.79
4235.00,1.79
4234.00,1.79
4233.00,1.80
4232.00,1.80
4231.00,1.81
4230.00,1.81
4229.00,1.81
4228.00,1.82
4227.00,1.82
4226.00,1.82
4225.00,1.83
4224.00,1.83
4223.00,1.83
4222.00,1.84
4221.00,1.84
4220.00,1.84
4219.00,1.84
4218.00,1.85
4217.00,1.85
4216.00,1.85
4215.00,1.85
4214.00,1.85
4213.00,1.85
4212.00,1.86
4211.00,1.86
4210.00,1.86
4209.00,1.86
4208.00,1.86
4207.00,1.86
4206.00,1.87
4205.00,1.87
4204.00,1.87
4203.00,1.87
4202.00,1.87
4201.00,1.87
4200.00,1.87
4199.00,1.87
4198.00,1.88
4197.00,1.88
4196.00,1.88
4195.00,1.88
4194.00,1.88
4193.00,1.88
4192.00,1.88
4191.00,1.88
4190.00,1.88
4189.00,1.88
4188.00,1.88
4187.00,1.88
4186.00,1.87
4185.00,1.87
4184.00,1.87
4183.00,1.87
4182.00,1.87
4181.00,1.87
4180.00,1.87
4179.00,1.87
4178.00,1.87
4177.00,1.87
4176.00,1.87
4175.00,1.87
4174.00,1.87
4173.00,1.87
4172.00,1.87
4171.00,1.87
4170.00,1.87
4169.00,1.87
4168.00,1.87
4167.00,1.87
4166.00,1.87
4165.00,1.87
4164.00,1.87
4163.00,1.87
4162.00,1.87
4161.00,1.87
4160.00,1.87
4159.00,1.87
4158.00,1.87
4157.00,1.87
4156.00,1.87
4155.00,1.87
4154.00,1.87
4153.00,1.87
4152.00,1.87
4151.00,1.87
4150.00,1.87
4149.00,1.87
4148.00,1.87
4147.00,1.88
4146.00,1.88
4145.00,1.88
4144.00,1.88
4143.00,1.88
4142.00,1.89
4141.00,1.89
4140.00,1.89
4139.00,1.89
4138.00,1.89
4137.00,1.89
4136.00,1.90
4135.00,1.90
4134.00,1.90
4133.00,1.90
4132.00,1.90
4131.00,1.91
4130.00,1.91
4129.00,1.91
4128.00,1.91
4127.00,1.91
4126.00,1.92
4125.00,1.92
4124.00,1.92
4123.00,1.92
4122.00,1.92
4121.00,1.92
4120.00,1.92
4119.00,1.93
4118.00,1.93
4117.00,1.93
4116.00,1.93
4115.00,1.93
4114.00,1.92
4113.00,1.92
4112.00,1.92
4111.00,1.92
4110.00,1.92
4109.00,1.92
4108.00,1.92
4107.00,1.91
4106.00,1.91
4105.00,1.91
4104.00,1.91
4103.00,1.91
4102.00,1.91
4101.00,1.91
4100.00,1.91
4099.00,1.91
4098.00,1.91
4097.00,1.91
4096.00,1.92
4095.00,1.92
4094.00,1.92
4093.00,1.92
4092.00,1.93
4091.00,1.93
4090.00,1.93
4089.00,1.93
4088.00,1.93
4087.00,1.94
4086.00,1.94
4085.00,1.94
4084.00,1.94
4083.00,1.94
4082.00,1.94
4081.00,1.94
4080.00,1.94
4079.00,1.94
4078.00,1.94
4077.00,1.94
4076.00,1.94
4075.00,1.94
4074.00,1.94
4073.00,1.94
4072.00,1.94
4071.00,1.94
4070.00,1.94
4069.00,1.94
4068.00,1.94
4067.00,1.94
4066.00,1.94
4065.00,1.95
4064.00,1.95
4063.00,1.95
4062.00,1.95
4061.00,1.95
4060.00,1.95
4059.00,1.96
4058.00,1.96
4057.00,1.96
4056.00,1.96
4055.00,1.96
4054.00,1.96
4053.00,1.97
4052.00,1.97
4051.00,1.97
4050.00,1.97
4049.00,1.97
4048.00,1.98
4047.00,1.98
4046.00,1.98
4045.00,1.98
4044.00,1.99
4043.00,1.99
4042.00,1.99
4041.00,1.99
4040.00,1.99
4039.00,1.99
4038.00,2.00
4037.00,2.00
4036.00,2.00
4035.00,2.00
4034.00,2.00
4033.00,2.00
4032.00,2.00
4031.00,2.01
4030.00,2.01
4029.00,2.01
4028.00,2.01
4027.00,2.01
4026.00,2.01
4025.00,2.02
4024.00,2.02
4023.00,2.02
4022.00,2.02
4021.00,2.02
4020.00,2.03
4019.00,2.03
4018.00,2.03
4017.00,2.03
4016.00,2.04
4015.00,2.04
4014.00,2.04
4013.00,2.04
4012.00,2.05
4011.00,2.05
4010.00,2.05
4009.00,2.05
4008.00,2.06
4007.00,2.06
4006.00,2.06
4005.00,2.06
4004.00,2.06
4003.00,2.06
4002.00,2.06
4001.00,2.06
4000.00,2.07
