创建为新数据集,样品 031 用户 Administrator 日期 星期三, 十一月 01 2017
cm-1,%T
10000.00,1.64
9999.00,1.64
9998.00,1.64
9997.00,1.63
9996.00,1.63
9995.00,1.63
9994.00,1.63
9993.00,1.63
9992.00,1.63
9991.00,1.63
9990.00,1.63
9989.00,1.63
9988.00,1.62
9987.00,1.62
9986.00,1.62
9985.00,1.62
9984.00,1.62
9983.00,1.62
9982.00,1.62
9981.00,1.62
9980.00,1.62
9979.00,1.62
9978.00,1.62
9977.00,1.62
9976.00,1.62
9975.00,1.62
9974.00,1.62
9973.00,1.62
9972.00,1.62
9971.00,1.62
9970.00,1.62
9969.00,1.62
9968.00,1.63
9967.00,1.63
9966.00,1.63
9965.00,1.63
9964.00,1.63
9963.00,1.64
9962.00,1.64
9961.00,1.64
9960.00,1.64
9959.00,1.64
9958.00,1.64
9957.00,1.64
9956.00,1.64
9955.00,1.63
9954.00,1.63
9953.00,1.63
9952.00,1.63
9951.00,1.62
9950.00,1.62
9949.00,1.61
9948.00,1.61
9947.00,1.61
9946.00,1.60
9945.00,1.60
9944.00,1.59
9943.00,1.59
9942.00,1.59
9941.00,1.59
9940.00,1.58
9939.00,1.58
9938.00,1.58
9937.00,1.58
9936.00,1.58
9935.00,1.58
9934.00,1.58
9933.00,1.58
9932.00,1.58
9931.00,1.58
9930.00,1.58
9929.00,1.59
9928.00,1.59
9927.00,1.59
9926.00,1.59
9925.00,1.59
9924.00,1.59
9923.00,1.59
9922.00,1.59
9921.00,1.59
9920.00,1.60
9919.00,1.60
9918.00,1.60
9917.00,1.60
9916.00,1.60
9915.00,1.60
9914.00,1.61
9913.00,1.61
9912.00,1.61
9911.00,1.61
9910.00,1.61
9909.00,1.61
9908.00,1.62
9907.00,1.62
9906.00,1.62
9905.00,1.62
9904.00,1.62
9903.00,1.62
9902.00,1.62
9901.00,1.62
9900.00,1.62
9899.00,1.62
9898.00,1.62
9897.00,1.61
9896.00,1.61
9895.00,1.61
9894.00,1.61
9893.00,1.61
9892.00,1.61
9891.00,1.61
9890.00,1.61
9889.00,1.61
9888.00,1.60
9887.00,1.60
9886.00,1.60
9885.00,1.60
9884.00,1.60
9883.00,1.60
9882.00,1.60
9881.00,1.60
9880.00,1.59
9879.00,1.59
9878.00,1.59
9877.00,1.59
9876.00,1.59
9875.00,1.59
9874.00,1.59
9873.00,1.58
9872.00,1.58
9871.00,1.58
9870.00,1.58
9869.00,1.58
9868.00,1.58
9867.00,1.58
9866.00,1.58
9865.00,1.58
9864.00,1.58
9863.00,1.58
9862.00,1.58
9861.00,1.58
9860.00,1.58
9859.00,1.59
9858.00,1.59
9857.00,1.59
9856.00,1.59
9855.00,1.59
9854.00,1.59
9853.00,1.59
9852.00,1.59
9851.00,1.59
9850.00,1.59
9849.00,1.59
9848.00,1.59
9847.00,1.59
9846.00,1.59
9845.00,1.59
9844.00,1.59
9843.00,1.59
9842.00,1.60
9841.00,1.60
9840.00,1.60
9839.00,1.60
9838.00,1.60
9837.00,1.61
9836.00,1.61
9835.00,1.61
9834.00,1.61
9833.00,1.61
9832.00,1.61
9831.00,1.61
9830.00,1.61
9829.00,1.61
9828.00,1.61
9827.00,1.61
9826.00,1.61
9825.00,1.61
9824.00,1.61
9823.00,1.61
9822.00,1.61
9821.00,1.61
9820.00,1.61
9819.00,1.60
9818.00,1.60
9817.00,1.60
9816.00,1.60
9815.00,1.60
9814.00,1.61
9813.00,1.61
9812.00,1.61
9811.00,1.61
9810.00,1.61
9809.00,1.61
9808.00,1.61
9807.00,1.61
9806.00,1.61
9805.00,1.61
9804.00,1.61
9803.00,1.61
9802.00,1.61
9801.00,1.61
9800.00,1.61
9799.00,1.61
9798.00,1.61
9797.00,1.61
9796.00,1.60
9795.00,1.60
9794.00,1.60
9793.00,1.60
9792.00,1.59
9791.00,1.59
9790.00,1.59
9789.00,1.59
9788.00,1.58
9787.00,1.58
9786.00,1.58
9785.00,1.58
9784.00,1.58
9783.00,1.58
9782.00,1.58
9781.00,1.58
9780.00,1.58
9779.00,1.58
9778.00,1.59
9777.00,1.59
9776.00,1.59
9775.00,1.59
9774.00,1.60
9773.00,1.60
9772.00,1.60
9771.00,1.60
9770.00,1.60
9769.00,1.60
9768.00,1.61
9767.00,1.61
9766.00,1.61
9765.00,1.61
9764.00,1.61
9763.00,1.61
9762.00,1.61
9761.00,1.61
9760.00,1.61
9759.00,1.61
9758.00,1.61
9757.00,1.61
9756.00,1.61
9755.00,1.61
9754.00,1.61
9753.00,1.61
9752.00,1.61
9751.00,1.61
9750.00,1.61
9749.00,1.61
9748.00,1.61
9747.00,1.62
9746.00,1.62
9745.00,1.62
9744.00,1.62
9743.00,1.63
9742.00,1.63
9741.00,1.63
9740.00,1.63
9739.00,1.63
9738.00,1.63
9737.00,1.64
9736.00,1.64
9735.00,1.64
9734.00,1.64
9733.00,1.63
9732.00,1.63
9731.00,1.63
9730.00,1.63
9729.00,1.63
9728.00,1.62
9727.00,1.62
9726.00,1.62
9725.00,1.62
9724.00,1.61
9723.00,1.61
9722.00,1.61
9721.00,1.61
9720.00,1.60
9719.00,1.60
9718.00,1.60
9717.00,1.60
9716.00,1.60
9715.00,1.60
9714.00,1.60
9713.00,1.60
9712.00,1.59
9711.00,1.59
9710.00,1.59
9709.00,1.59
9708.00,1.59
9707.00,1.59
9706.00,1.59
9705.00,1.59
9704.00,1.59
9703.00,1.59
9702.00,1.59
9701.00,1.59
9700.00,1.59
9699.00,1.60
9698.00,1.60
9697.00,1.60
9696.00,1.60
9695.00,1.60
9694.00,1.61
9693.00,1.61
9692.00,1.61
9691.00,1.62
9690.00,1.62
9689.00,1.62
9688.00,1.62
9687.00,1.63
9686.00,1.63
9685.00,1.63
9684.00,1.63
9683.00,1.63
9682.00,1.63
9681.00,1.63
9680.00,1.63
9679.00,1.63
9678.00,1.63
9677.00,1.63
9676.00,1.63
9675.00,1.63
9674.00,1.63
9673.00,1.63
9672.00,1.63
9671.00,1.63
9670.00,1.63
9669.00,1.63
9668.00,1.63
9667.00,1.63
9666.00,1.63
9665.00,1.63
9664.00,1.62
9663.00,1.62
9662.00,1.62
9661.00,1.62
9660.00,1.62
9659.00,1.62
9658.00,1.62
9657.00,1.62
9656.00,1.61
9655.00,1.61
9654.00,1.61
9653.00,1.61
9652.00,1.61
9651.00,1.61
9650.00,1.61
9649.00,1.61
9648.00,1.61
9647.00,1.60
9646.00,1.60
9645.00,1.60
9644.00,1.60
9643.00,1.60
9642.00,1.60
9641.00,1.60
9640.00,1.60
9639.00,1.60
9638.00,1.60
9637.00,1.60
9636.00,1.60
9635.00,1.60
9634.00,1.60
9633.00,1.60
9632.00,1.60
9631.00,1.60
9630.00,1.60
9629.00,1.60
9628.00,1.60
9627.00,1.60
9626.00,1.60
9625.00,1.60
9624.00,1.60
9623.00,1.60
9622.00,1.60
9621.00,1.60
9620.00,1.60
9619.00,1.60
9618.00,1.60
9617.00,1.60
9616.00,1.61
9615.00,1.61
9614.00,1.61
9613.00,1.61
9612.00,1.61
9611.00,1.61
9610.00,1.61
9609.00,1.61
9608.00,1.61
9607.00,1.61
9606.00,1.61
9605.00,1.61
9604.00,1.61
9603.00,1.61
9602.00,1.61
9601.00,1.61
9600.00,1.61
9599.00,1.61
9598.00,1.61
9597.00,1.61
9596.00,1.61
9595.00,1.60
9594.00,1.60
9593.00,1.60
9592.00,1.60
9591.00,1.60
9590.00,1.60
9589.00,1.60
9588.00,1.60
9587.00,1.60
9586.00,1.60
9585.00,1.60
9584.00,1.60
9583.00,1.60
9582.00,1.60
9581.00,1.60
9580.00,1.60
9579.00,1.61
9578.00,1.61
9577.00,1.61
9576.00,1.61
9575.00,1.61
9574.00,1.61
9573.00,1.61
9572.00,1.62
9571.00,1.62
9570.00,1.62
9569.00,1.62
9568.00,1.62
9567.00,1.62
9566.00,1.62
9565.00,1.63
9564.00,1.63
9563.00,1.63
9562.00,1.63
9561.00,1.63
9560.00,1.63
9559.00,1.63
9558.00,1.63
9557.00,1.63
9556.00,1.63
9555.00,1.63
9554.00,1.63
9553.00,1.63
9552.00,1.63
9551.00,1.63
9550.00,1.63
9549.00,1.62
9548.00,1.62
9547.00,1.62
9546.00,1.62
9545.00,1.62
9544.00,1.61
9543.00,1.61
9542.00,1.61
9541.00,1.61
9540.00,1.61
9539.00,1.61
9538.00,1.61
9537.00,1.61
9536.00,1.61
9535.00,1.61
9534.00,1.61
9533.00,1.61
9532.00,1.61
9531.00,1.62
9530.00,1.62
9529.00,1.62
9528.00,1.62
9527.00,1.63
9526.00,1.63
9525.00,1.63
9524.00,1.63
9523.00,1.63
9522.00,1.63
9521.00,1.64
9520.00,1.64
9519.00,1.64
9518.00,1.64
9517.00,1.64
9516.00,1.64
9515.00,1.63
9514.00,1.63
9513.00,1.63
9512.00,1.63
9511.00,1.63
9510.00,1.63
9509.00,1.63
9508.00,1.63
9507.00,1.63
9506.00,1.62
9505.00,1.62
9504.00,1.62
9503.00,1.62
9502.00,1.62
9501.00,1.62
9500.00,1.62
9499.00,1.62
9498.00,1.63
9497.00,1.63
9496.00,1.63
9495.00,1.63
9494.00,1.62
9493.00,1.62
9492.00,1.62
9491.00,1.62
9490.00,1.62
9489.00,1.62
9488.00,1.62
9487.00,1.62
9486.00,1.62
9485.00,1.62
9484.00,1.62
9483.00,1.62
9482.00,1.62
9481.00,1.62
9480.00,1.62
9479.00,1.62
9478.00,1.62
9477.00,1.62
9476.00,1.62
9475.00,1.62
9474.00,1.62
9473.00,1.62
9472.00,1.62
9471.00,1.62
9470.00,1.62
9469.00,1.62
9468.00,1.62
9467.00,1.62
9466.00,1.62
9465.00,1.62
9464.00,1.62
9463.00,1.61
9462.00,1.61
9461.00,1.61
9460.00,1.61
9459.00,1.61
9458.00,1.60
9457.00,1.60
9456.00,1.60
9455.00,1.60
9454.00,1.60
9453.00,1.60
9452.00,1.60
9451.00,1.60
9450.00,1.60
9449.00,1.60
9448.00,1.60
9447.00,1.60
9446.00,1.60
9445.00,1.60
9444.00,1.60
9443.00,1.60
9442.00,1.60
9441.00,1.61
9440.00,1.61
9439.00,1.61
9438.00,1.61
9437.00,1.61
9436.00,1.62
9435.00,1.62
9434.00,1.62
9433.00,1.62
9432.00,1.62
9431.00,1.62
9430.00,1.62
9429.00,1.62
9428.00,1.62
9427.00,1.62
9426.00,1.61
9425.00,1.61
9424.00,1.61
9423.00,1.61
9422.00,1.61
9421.00,1.61
9420.00,1.61
9419.00,1.61
9418.00,1.61
9417.00,1.61
9416.00,1.61
9415.00,1.61
9414.00,1.61
9413.00,1.61
9412.00,1.61
9411.00,1.61
9410.00,1.61
9409.00,1.61
9408.00,1.61
9407.00,1.61
9406.00,1.61
9405.00,1.61
9404.00,1.61
9403.00,1.61
9402.00,1.61
9401.00,1.61
9400.00,1.62
9399.00,1.62
9398.00,1.62
9397.00,1.62
9396.00,1.62
9395.00,1.62
9394.00,1.62
9393.00,1.62
9392.00,1.62
9391.00,1.62
9390.00,1.62
9389.00,1.62
9388.00,1.62
9387.00,1.62
9386.00,1.62
9385.00,1.62
9384.00,1.62
9383.00,1.62
9382.00,1.62
9381.00,1.62
9380.00,1.62
9379.00,1.62
9378.00,1.62
9377.00,1.62
9376.00,1.61
9375.00,1.61
9374.00,1.61
9373.00,1.61
9372.00,1.61
9371.00,1.61
9370.00,1.61
9369.00,1.61
9368.00,1.61
9367.00,1.61
9366.00,1.60
9365.00,1.61
9364.00,1.61
9363.00,1.61
9362.00,1.61
9361.00,1.61
9360.00,1.61
9359.00,1.61
9358.00,1.61
9357.00,1.61
9356.00,1.61
9355.00,1.61
9354.00,1.62
9353.00,1.62
9352.00,1.62
9351.00,1.62
9350.00,1.62
9349.00,1.62
9348.00,1.62
9347.00,1.62
9346.00,1.62
9345.00,1.61
9344.00,1.61
9343.00,1.61
9342.00,1.61
9341.00,1.61
9340.00,1.61
9339.00,1.61
9338.00,1.61
9337.00,1.61
9336.00,1.61
9335.00,1.61
9334.00,1.61
9333.00,1.61
9332.00,1.61
9331.00,1.61
9330.00,1.61
9329.00,1.61
9328.00,1.61
9327.00,1.61
9326.00,1.61
9325.00,1.61
9324.00,1.61
9323.00,1.62
9322.00,1.62
9321.00,1.62
9320.00,1.62
9319.00,1.62
9318.00,1.62
9317.00,1.62
9316.00,1.62
9315.00,1.62
9314.00,1.62
9313.00,1.62
9312.00,1.62
9311.00,1.62
9310.00,1.62
9309.00,1.62
9308.00,1.62
9307.00,1.62
9306.00,1.62
9305.00,1.62
9304.00,1.62
9303.00,1.62
9302.00,1.62
9301.00,1.62
9300.00,1.62
9299.00,1.62
9298.00,1.62
9297.00,1.62
9296.00,1.62
9295.00,1.62
9294.00,1.62
9293.00,1.62
9292.00,1.62
9291.00,1.62
9290.00,1.62
9289.00,1.61
9288.00,1.61
9287.00,1.61
9286.00,1.61
9285.00,1.61
9284.00,1.61
9283.00,1.61
9282.00,1.61
9281.00,1.61
9280.00,1.61
9279.00,1.60
9278.00,1.60
9277.00,1.60
9276.00,1.60
9275.00,1.60
9274.00,1.60
9273.00,1.60
9272.00,1.60
9271.00,1.60
9270.00,1.60
9269.00,1.60
9268.00,1.60
9267.00,1.60
9266.00,1.60
9265.00,1.60
9264.00,1.60
9263.00,1.60
9262.00,1.60
9261.00,1.60
9260.00,1.60
9259.00,1.60
9258.00,1.60
9257.00,1.60
9256.00,1.60
9255.00,1.60
9254.00,1.60
9253.00,1.60
9252.00,1.60
9251.00,1.60
9250.00,1.60
9249.00,1.60
9248.00,1.61
9247.00,1.61
9246.00,1.61
9245.00,1.61
9244.00,1.61
9243.00,1.61
9242.00,1.61
9241.00,1.61
9240.00,1.61
9239.00,1.61
9238.00,1.61
9237.00,1.61
9236.00,1.62
9235.00,1.62
9234.00,1.62
9233.00,1.62
9232.00,1.62
9231.00,1.62
9230.00,1.62
9229.00,1.62
9228.00,1.62
9227.00,1.63
9226.00,1.63
9225.00,1.63
9224.00,1.63
9223.00,1.63
9222.00,1.63
9221.00,1.63
9220.00,1.63
9219.00,1.63
9218.00,1.63
9217.00,1.63
9216.00,1.63
9215.00,1.63
9214.00,1.63
9213.00,1.63
9212.00,1.62
9211.00,1.62
9210.00,1.62
9209.00,1.62
9208.00,1.62
9207.00,1.62
9206.00,1.62
9205.00,1.62
9204.00,1.62
9203.00,1.62
9202.00,1.62
9201.00,1.62
9200.00,1.62
9199.00,1.62
9198.00,1.62
9197.00,1.62
9196.00,1.62
9195.00,1.62
9194.00,1.62
9193.00,1.62
9192.00,1.62
9191.00,1.62
9190.00,1.62
9189.00,1.62
9188.00,1.62
9187.00,1.62
9186.00,1.62
9185.00,1.62
9184.00,1.62
9183.00,1.62
9182.00,1.62
9181.00,1.62
9180.00,1.62
9179.00,1.62
9178.00,1.62
9177.00,1.61
9176.00,1.61
9175.00,1.61
9174.00,1.61
9173.00,1.61
9172.00,1.61
9171.00,1.61
9170.00,1.61
9169.00,1.61
9168.00,1.61
9167.00,1.61
9166.00,1.61
9165.00,1.61
9164.00,1.61
9163.00,1.61
9162.00,1.61
9161.00,1.61
9160.00,1.61
9159.00,1.61
9158.00,1.61
9157.00,1.61
9156.00,1.61
9155.00,1.61
9154.00,1.61
9153.00,1.61
9152.00,1.61
9151.00,1.61
9150.00,1.61
9149.00,1.61
9148.00,1.61
9147.00,1.61
9146.00,1.61
9145.00,1.61
9144.00,1.61
9143.00,1.61
9142.00,1.61
9141.00,1.61
9140.00,1.61
9139.00,1.61
9138.00,1.61
9137.00,1.61
9136.00,1.60
9135.00,1.60
9134.00,1.60
9133.00,1.60
9132.00,1.60
9131.00,1.60
9130.00,1.60
9129.00,1.60
9128.00,1.60
9127.00,1.60
9126.00,1.61
9125.00,1.61
9124.00,1.61
9123.00,1.61
9122.00,1.61
9121.00,1.61
9120.00,1.61
9119.00,1.61
9118.00,1.61
9117.00,1.61
9116.00,1.62
9115.00,1.62
9114.00,1.62
9113.00,1.62
9112.00,1.62
9111.00,1.62
9110.00,1.62
9109.00,1.62
9108.00,1.62
9107.00,1.62
9106.00,1.61
9105.00,1.61
9104.00,1.61
9103.00,1.61
9102.00,1.61
9101.00,1.61
9100.00,1.61
9099.00,1.61
9098.00,1.61
9097.00,1.60
9096.00,1.60
9095.00,1.60
9094.00,1.60
9093.00,1.60
9092.00,1.60
9091.00,1.60
9090.00,1.60
9089.00,1.60
9088.00,1.60
9087.00,1.60
9086.00,1.60
9085.00,1.60
9084.00,1.60
9083.00,1.61
9082.00,1.61
9081.00,1.61
9080.00,1.61
9079.00,1.61
9078.00,1.61
9077.00,1.61
9076.00,1.61
9075.00,1.61
9074.00,1.61
9073.00,1.61
9072.00,1.62
9071.00,1.62
9070.00,1.62
9069.00,1.62
9068.00,1.62
9067.00,1.62
9066.00,1.62
9065.00,1.62
9064.00,1.62
9063.00,1.62
9062.00,1.62
9061.00,1.62
9060.00,1.62
9059.00,1.62
9058.00,1.62
9057.00,1.62
9056.00,1.62
9055.00,1.61
9054.00,1.61
9053.00,1.61
9052.00,1.61
9051.00,1.61
9050.00,1.61
9049.00,1.60
9048.00,1.60
9047.00,1.60
9046.00,1.60
9045.00,1.60
9044.00,1.60
9043.00,1.60
9042.00,1.60
9041.00,1.60
9040.00,1.60
9039.00,1.60
9038.00,1.61
9037.00,1.61
9036.00,1.61
9035.00,1.61
9034.00,1.61
9033.00,1.61
9032.00,1.62
9031.00,1.62
9030.00,1.62
9029.00,1.62
9028.00,1.62
9027.00,1.62
9026.00,1.62
9025.00,1.62
9024.00,1.62
9023.00,1.62
9022.00,1.62
9021.00,1.62
9020.00,1.62
9019.00,1.62
9018.00,1.62
9017.00,1.62
9016.00,1.62
9015.00,1.62
9014.00,1.62
9013.00,1.61
9012.00,1.61
9011.00,1.61
9010.00,1.61
9009.00,1.61
9008.00,1.61
9007.00,1.61
9006.00,1.61
9005.00,1.61
9004.00,1.61
9003.00,1.61
9002.00,1.61
9001.00,1.61
9000.00,1.61
8999.00,1.61
8998.00,1.61
8997.00,1.61
8996.00,1.61
8995.00,1.62
8994.00,1.62
8993.00,1.62
8992.00,1.62
8991.00,1.62
8990.00,1.62
8989.00,1.62
8988.00,1.62
8987.00,1.62
8986.00,1.62
8985.00,1.62
8984.00,1.62
8983.00,1.63
8982.00,1.63
8981.00,1.63
8980.00,1.63
8979.00,1.63
8978.00,1.63
8977.00,1.63
8976.00,1.63
8975.00,1.63
8974.00,1.64
8973.00,1.64
8972.00,1.64
8971.00,1.64
8970.00,1.64
8969.00,1.64
8968.00,1.64
8967.00,1.64
8966.00,1.64
8965.00,1.63
8964.00,1.63
8963.00,1.63
8962.00,1.63
8961.00,1.63
8960.00,1.63
8959.00,1.62
8958.00,1.62
8957.00,1.62
8956.00,1.62
8955.00,1.62
8954.00,1.62
8953.00,1.62
8952.00,1.62
8951.00,1.62
8950.00,1.62
8949.00,1.62
8948.00,1.62
8947.00,1.62
8946.00,1.62
8945.00,1.62
8944.00,1.62
8943.00,1.62
8942.00,1.62
8941.00,1.62
8940.00,1.62
8939.00,1.62
8938.00,1.61
8937.00,1.61
8936.00,1.61
8935.00,1.61
8934.00,1.61
8933.00,1.61
8932.00,1.61
8931.00,1.61
8930.00,1.61
8929.00,1.61
8928.00,1.61
8927.00,1.60
8926.00,1.60
8925.00,1.60
8924.00,1.60
8923.00,1.60
8922.00,1.60
8921.00,1.60
8920.00,1.60
8919.00,1.60
8918.00,1.59
8917.00,1.59
8916.00,1.59
8915.00,1.59
8914.00,1.59
8913.00,1.59
8912.00,1.59
8911.00,1.59
8910.00,1.60
8909.00,1.60
8908.00,1.60
8907.00,1.60
8906.00,1.60
8905.00,1.60
8904.00,1.60
8903.00,1.61
8902.00,1.61
8901.00,1.61
8900.00,1.61
8899.00,1.61
8898.00,1.61
8897.00,1.61
8896.00,1.61
8895.00,1.61
8894.00,1.62
8893.00,1.62
8892.00,1.62
8891.00,1.62
8890.00,1.62
8889.00,1.62
8888.00,1.62
8887.00,1.62
8886.00,1.62
8885.00,1.62
8884.00,1.62
8883.00,1.62
8882.00,1.63
8881.00,1.63
8880.00,1.63
8879.00,1.63
8878.00,1.63
8877.00,1.63
8876.00,1.63
8875.00,1.63
8874.00,1.63
8873.00,1.63
8872.00,1.63
8871.00,1.62
8870.00,1.62
8869.00,1.62
8868.00,1.62
8867.00,1.62
8866.00,1.62
8865.00,1.61
8864.00,1.61
8863.00,1.61
8862.00,1.61
8861.00,1.61
8860.00,1.61
8859.00,1.61
8858.00,1.61
8857.00,1.61
8856.00,1.61
8855.00,1.61
8854.00,1.61
8853.00,1.61
8852.00,1.61
8851.00,1.61
8850.00,1.61
8849.00,1.61
8848.00,1.61
8847.00,1.61
8846.00,1.61
8845.00,1.61
8844.00,1.61
8843.00,1.61
8842.00,1.61
8841.00,1.61
8840.00,1.61
8839.00,1.61
8838.00,1.61
8837.00,1.61
8836.00,1.61
8835.00,1.61
8834.00,1.61
8833.00,1.61
8832.00,1.60
8831.00,1.60
8830.00,1.60
8829.00,1.60
8828.00,1.60
8827.00,1.60
8826.00,1.60
8825.00,1.60
8824.00,1.60
8823.00,1.60
8822.00,1.60
8821.00,1.60
8820.00,1.59
8819.00,1.59
8818.00,1.59
8817.00,1.59
8816.00,1.59
8815.00,1.59
8814.00,1.58
8813.00,1.58
8812.00,1.58
8811.00,1.58
8810.00,1.57
8809.00,1.57
8808.00,1.57
8807.00,1.57
8806.00,1.57
8805.00,1.56
8804.00,1.56
8803.00,1.56
8802.00,1.56
8801.00,1.56
8800.00,1.56
8799.00,1.56
8798.00,1.56
8797.00,1.56
8796.00,1.56
8795.00,1.56
8794.00,1.56
8793.00,1.56
8792.00,1.56
8791.00,1.56
8790.00,1.56
8789.00,1.56
8788.00,1.56
8787.00,1.56
8786.00,1.56
8785.00,1.56
8784.00,1.56
8783.00,1.56
8782.00,1.56
8781.00,1.56
8780.00,1.56
8779.00,1.56
8778.00,1.56
8777.00,1.56
8776.00,1.56
8775.00,1.56
8774.00,1.56
8773.00,1.56
8772.00,1.56
8771.00,1.56
8770.00,1.56
8769.00,1.56
8768.00,1.56
8767.00,1.56
8766.00,1.56
8765.00,1.56
8764.00,1.56
8763.00,1.56
8762.00,1.56
8761.00,1.56
8760.00,1.56
8759.00,1.56
8758.00,1.56
8757.00,1.56
8756.00,1.56
8755.00,1.56
8754.00,1.56
8753.00,1.56
8752.00,1.56
8751.00,1.56
8750.00,1.56
8749.00,1.56
8748.00,1.55
8747.00,1.55
8746.00,1.55
8745.00,1.55
8744.00,1.55
8743.00,1.55
8742.00,1.55
8741.00,1.55
8740.00,1.55
8739.00,1.54
8738.00,1.54
8737.00,1.54
8736.00,1.54
8735.00,1.54
8734.00,1.54
8733.00,1.53
8732.00,1.53
8731.00,1.53
8730.00,1.53
8729.00,1.53
8728.00,1.53
8727.00,1.53
8726.00,1.52
8725.00,1.52
8724.00,1.52
8723.00,1.52
8722.00,1.52
8721.00,1.52
8720.00,1.52
8719.00,1.52
8718.00,1.52
8717.00,1.52
8716.00,1.52
8715.00,1.52
8714.00,1.52
8713.00,1.52
8712.00,1.52
8711.00,1.52
8710.00,1.52
8709.00,1.52
8708.00,1.52
8707.00,1.52
8706.00,1.52
8705.00,1.52
8704.00,1.52
8703.00,1.52
8702.00,1.52
8701.00,1.52
8700.00,1.53
8699.00,1.53
8698.00,1.53
8697.00,1.53
8696.00,1.53
8695.00,1.53
8694.00,1.53
8693.00,1.53
8692.00,1.53
8691.00,1.53
8690.00,1.53
8689.00,1.53
8688.00,1.53
8687.00,1.53
8686.00,1.53
8685.00,1.53
8684.00,1.53
8683.00,1.53
8682.00,1.52
8681.00,1.52
8680.00,1.52
8679.00,1.52
8678.00,1.52
8677.00,1.52
8676.00,1.52
8675.00,1.52
8674.00,1.52
8673.00,1.51
8672.00,1.51
8671.00,1.51
8670.00,1.51
8669.00,1.51
8668.00,1.51
8667.00,1.51
8666.00,1.51
8665.00,1.51
8664.00,1.51
8663.00,1.51
8662.00,1.51
8661.00,1.51
8660.00,1.51
8659.00,1.51
8658.00,1.51
8657.00,1.51
8656.00,1.51
8655.00,1.51
8654.00,1.51
8653.00,1.51
8652.00,1.51
8651.00,1.51
8650.00,1.51
8649.00,1.51
8648.00,1.51
8647.00,1.51
8646.00,1.51
8645.00,1.51
8644.00,1.51
8643.00,1.51
8642.00,1.50
8641.00,1.50
8640.00,1.50
8639.00,1.50
8638.00,1.50
8637.00,1.50
8636.00,1.50
8635.00,1.50
8634.00,1.50
8633.00,1.50
8632.00,1.50
8631.00,1.50
8630.00,1.50
8629.00,1.50
8628.00,1.50
8627.00,1.50
8626.00,1.51
8625.00,1.51
8624.00,1.51
8623.00,1.51
8622.00,1.51
8621.00,1.51
8620.00,1.51
8619.00,1.51
8618.00,1.51
8617.00,1.52
8616.00,1.52
8615.00,1.52
8614.00,1.51
8613.00,1.51
8612.00,1.51
8611.00,1.51
8610.00,1.51
8609.00,1.51
8608.00,1.51
8607.00,1.51
8606.00,1.51
8605.00,1.50
8604.00,1.50
8603.00,1.50
8602.00,1.50
8601.00,1.50
8600.00,1.49
8599.00,1.49
8598.00,1.49
8597.00,1.49
8596.00,1.49
8595.00,1.49
8594.00,1.48
8593.00,1.48
8592.00,1.48
8591.00,1.48
8590.00,1.48
8589.00,1.48
8588.00,1.48
8587.00,1.48
8586.00,1.48
8585.00,1.48
8584.00,1.48
8583.00,1.48
8582.00,1.48
8581.00,1.48
8580.00,1.48
8579.00,1.48
8578.00,1.48
8577.00,1.48
8576.00,1.48
8575.00,1.48
8574.00,1.47
8573.00,1.47
8572.00,1.47
8571.00,1.47
8570.00,1.47
8569.00,1.47
8568.00,1.47
8567.00,1.47
8566.00,1.46
8565.00,1.46
8564.00,1.46
8563.00,1.46
8562.00,1.46
8561.00,1.46
8560.00,1.46
8559.00,1.46
8558.00,1.46
8557.00,1.46
8556.00,1.46
8555.00,1.46
8554.00,1.46
8553.00,1.46
8552.00,1.46
8551.00,1.46
8550.00,1.46
8549.00,1.46
8548.00,1.45
8547.00,1.45
8546.00,1.45
8545.00,1.45
8544.00,1.45
8543.00,1.45
8542.00,1.45
8541.00,1.45
8540.00,1.45
8539.00,1.45
8538.00,1.44
8537.00,1.44
8536.00,1.44
8535.00,1.44
8534.00,1.44
8533.00,1.44
8532.00,1.44
8531.00,1.44
8530.00,1.44
8529.00,1.44
8528.00,1.44
8527.00,1.44
8526.00,1.44
8525.00,1.44
8524.00,1.44
8523.00,1.44
8522.00,1.44
8521.00,1.44
8520.00,1.44
8519.00,1.44
8518.00,1.44
8517.00,1.44
8516.00,1.44
8515.00,1.44
8514.00,1.44
8513.00,1.44
8512.00,1.44
8511.00,1.44
8510.00,1.44
8509.00,1.44
8508.00,1.44
8507.00,1.44
8506.00,1.44
8505.00,1.44
8504.00,1.44
8503.00,1.44
8502.00,1.44
8501.00,1.44
8500.00,1.44
8499.00,1.44
8498.00,1.44
8497.00,1.44
8496.00,1.44
8495.00,1.44
8494.00,1.44
8493.00,1.44
8492.00,1.43
8491.00,1.43
8490.00,1.43
8489.00,1.43
8488.00,1.43
8487.00,1.43
8486.00,1.43
8485.00,1.43
8484.00,1.42
8483.00,1.42
8482.00,1.42
8481.00,1.42
8480.00,1.42
8479.00,1.42
8478.00,1.42
8477.00,1.42
8476.00,1.41
8475.00,1.41
8474.00,1.41
8473.00,1.41
8472.00,1.41
8471.00,1.41
8470.00,1.41
8469.00,1.40
8468.00,1.40
8467.00,1.40
8466.00,1.40
8465.00,1.40
8464.00,1.40
8463.00,1.40
8462.00,1.39
8461.00,1.39
8460.00,1.39
8459.00,1.39
8458.00,1.39
8457.00,1.39
8456.00,1.39
8455.00,1.38
8454.00,1.38
8453.00,1.38
8452.00,1.38
8451.00,1.38
8450.00,1.38
8449.00,1.38
8448.00,1.38
8447.00,1.38
8446.00,1.37
8445.00,1.37
8444.00,1.37
8443.00,1.37
8442.00,1.37
8441.00,1.37
8440.00,1.37
8439.00,1.37
8438.00,1.37
8437.00,1.37
8436.00,1.37
8435.00,1.37
8434.00,1.37
8433.00,1.37
8432.00,1.37
8431.00,1.38
8430.00,1.38
8429.00,1.38
8428.00,1.38
8427.00,1.38
8426.00,1.38
8425.00,1.38
8424.00,1.38
8423.00,1.38
8422.00,1.38
8421.00,1.38
8420.00,1.38
8419.00,1.39
8418.00,1.39
8417.00,1.39
8416.00,1.39
8415.00,1.39
8414.00,1.39
8413.00,1.39
8412.00,1.39
8411.00,1.40
8410.00,1.40
8409.00,1.40
8408.00,1.40
8407.00,1.40
8406.00,1.40
8405.00,1.40
8404.00,1.41
8403.00,1.41
8402.00,1.41
8401.00,1.41
8400.00,1.41
8399.00,1.41
8398.00,1.41
8397.00,1.41
8396.00,1.41
8395.00,1.42
8394.00,1.42
8393.00,1.42
8392.00,1.42
8391.00,1.42
8390.00,1.42
8389.00,1.42
8388.00,1.42
8387.00,1.42
8386.00,1.43
8385.00,1.43
8384.00,1.43
8383.00,1.43
8382.00,1.43
8381.00,1.43
8380.00,1.43
8379.00,1.43
8378.00,1.43
8377.00,1.44
8376.00,1.44
8375.00,1.44
8374.00,1.44
8373.00,1.44
8372.00,1.44
8371.00,1.44
8370.00,1.44
8369.00,1.45
8368.00,1.45
8367.00,1.45
8366.00,1.45
8365.00,1.45
8364.00,1.45
8363.00,1.45
8362.00,1.46
8361.00,1.46
8360.00,1.46
8359.00,1.46
8358.00,1.46
8357.00,1.46
8356.00,1.46
8355.00,1.46
8354.00,1.46
8353.00,1.46
8352.00,1.46
8351.00,1.45
8350.00,1.45
8349.00,1.45
8348.00,1.45
8347.00,1.45
8346.00,1.45
8345.00,1.45
8344.00,1.45
8343.00,1.45
8342.00,1.45
8341.00,1.45
8340.00,1.45
8339.00,1.45
8338.00,1.45
8337.00,1.45
8336.00,1.45
8335.00,1.45
8334.00,1.45
8333.00,1.45
8332.00,1.45
8331.00,1.45
8330.00,1.45
8329.00,1.45
8328.00,1.45
8327.00,1.45
8326.00,1.45
8325.00,1.45
8324.00,1.45
8323.00,1.45
8322.00,1.45
8321.00,1.44
8320.00,1.44
8319.00,1.44
8318.00,1.44
8317.00,1.44
8316.00,1.44
8315.00,1.44
8314.00,1.44
8313.00,1.44
8312.00,1.44
8311.00,1.44
8310.00,1.44
8309.00,1.44
8308.00,1.44
8307.00,1.44
8306.00,1.44
8305.00,1.44
8304.00,1.44
8303.00,1.44
8302.00,1.45
8301.00,1.45
8300.00,1.45
8299.00,1.45
8298.00,1.45
8297.00,1.45
8296.00,1.45
8295.00,1.46
8294.00,1.46
8293.00,1.46
8292.00,1.46
8291.00,1.46
8290.00,1.46
8289.00,1.46
8288.00,1.46
8287.00,1.46
8286.00,1.46
8285.00,1.46
8284.00,1.46
8283.00,1.46
8282.00,1.46
8281.00,1.46
8280.00,1.46
8279.00,1.46
8278.00,1.46
8277.00,1.46
8276.00,1.46
8275.00,1.46
8274.00,1.46
8273.00,1.46
8272.00,1.46
8271.00,1.46
8270.00,1.46
8269.00,1.46
8268.00,1.47
8267.00,1.47
8266.00,1.47
8265.00,1.47
8264.00,1.47
8263.00,1.47
8262.00,1.47
8261.00,1.47
8260.00,1.47
8259.00,1.47
8258.00,1.47
8257.00,1.47
8256.00,1.47
8255.00,1.48
8254.00,1.48
8253.00,1.48
8252.00,1.48
8251.00,1.48
8250.00,1.48
8249.00,1.48
8248.00,1.48
8247.00,1.48
8246.00,1.48
8245.00,1.48
8244.00,1.48
8243.00,1.48
8242.00,1.48
8241.00,1.48
8240.00,1.48
8239.00,1.48
8238.00,1.48
8237.00,1.48
8236.00,1.48
8235.00,1.48
8234.00,1.48
8233.00,1.48
8232.00,1.49
8231.00,1.49
8230.00,1.49
8229.00,1.49
8228.00,1.49
8227.00,1.49
8226.00,1.49
8225.00,1.49
8224.00,1.49
8223.00,1.49
8222.00,1.49
8221.00,1.49
8220.00,1.49
8219.00,1.49
8218.00,1.49
8217.00,1.49
8216.00,1.49
8215.00,1.48
8214.00,1.48
8213.00,1.48
8212.00,1.48
8211.00,1.48
8210.00,1.48
8209.00,1.48
8208.00,1.48
8207.00,1.48
8206.00,1.48
8205.00,1.48
8204.00,1.48
8203.00,1.48
8202.00,1.48
8201.00,1.48
8200.00,1.48
8199.00,1.48
8198.00,1.48
8197.00,1.48
8196.00,1.48
8195.00,1.48
8194.00,1.48
8193.00,1.48
8192.00,1.48
8191.00,1.48
8190.00,1.48
8189.00,1.48
8188.00,1.48
8187.00,1.49
8186.00,1.49
8185.00,1.49
8184.00,1.49
8183.00,1.49
8182.00,1.49
8181.00,1.49
8180.00,1.49
8179.00,1.49
8178.00,1.49
8177.00,1.49
8176.00,1.49
8175.00,1.49
8174.00,1.49
8173.00,1.49
8172.00,1.50
8171.00,1.50
8170.00,1.50
8169.00,1.50
8168.00,1.50
8167.00,1.50
8166.00,1.50
8165.00,1.50
8164.00,1.50
8163.00,1.50
8162.00,1.50
8161.00,1.51
8160.00,1.51
8159.00,1.51
8158.00,1.51
8157.00,1.51
8156.00,1.51
8155.00,1.51
8154.00,1.51
8153.00,1.51
8152.00,1.51
8151.00,1.51
8150.00,1.51
8149.00,1.51
8148.00,1.51
8147.00,1.52
8146.00,1.52
8145.00,1.52
8144.00,1.52
8143.00,1.52
8142.00,1.52
8141.00,1.52
8140.00,1.52
8139.00,1.52
8138.00,1.52
8137.00,1.52
8136.00,1.52
8135.00,1.52
8134.00,1.52
8133.00,1.52
8132.00,1.52
8131.00,1.52
8130.00,1.52
8129.00,1.52
8128.00,1.52
8127.00,1.52
8126.00,1.52
8125.00,1.52
8124.00,1.52
8123.00,1.52
8122.00,1.52
8121.00,1.52
8120.00,1.52
8119.00,1.52
8118.00,1.52
8117.00,1.52
8116.00,1.52
8115.00,1.52
8114.00,1.52
8113.00,1.52
8112.00,1.52
8111.00,1.52
8110.00,1.52
8109.00,1.52
8108.00,1.52
8107.00,1.52
8106.00,1.52
8105.00,1.52
8104.00,1.52
8103.00,1.52
8102.00,1.52
8101.00,1.52
8100.00,1.52
8099.00,1.52
8098.00,1.52
8097.00,1.52
8096.00,1.52
8095.00,1.52
8094.00,1.52
8093.00,1.52
8092.00,1.52
8091.00,1.52
8090.00,1.52
8089.00,1.52
8088.00,1.52
8087.00,1.52
8086.00,1.53
8085.00,1.53
8084.00,1.53
8083.00,1.53
8082.00,1.53
8081.00,1.53
8080.00,1.53
8079.00,1.54
8078.00,1.54
8077.00,1.54
8076.00,1.54
8075.00,1.54
8074.00,1.54
8073.00,1.54
8072.00,1.54
8071.00,1.54
8070.00,1.54
8069.00,1.54
8068.00,1.54
8067.00,1.54
8066.00,1.54
8065.00,1.54
8064.00,1.54
8063.00,1.54
8062.00,1.54
8061.00,1.54
8060.00,1.54
8059.00,1.54
8058.00,1.54
8057.00,1.54
8056.00,1.54
8055.00,1.54
8054.00,1.54
8053.00,1.54
8052.00,1.54
8051.00,1.54
8050.00,1.54
8049.00,1.54
8048.00,1.54
8047.00,1.54
8046.00,1.54
8045.00,1.54
8044.00,1.54
8043.00,1.54
8042.00,1.54
8041.00,1.54
8040.00,1.54
8039.00,1.54
8038.00,1.55
8037.00,1.55
8036.00,1.55
8035.00,1.55
8034.00,1.55
8033.00,1.55
8032.00,1.55
8031.00,1.55
8030.00,1.55
8029.00,1.55
8028.00,1.56
8027.00,1.56
8026.00,1.56
8025.00,1.56
8024.00,1.56
8023.00,1.56
8022.00,1.56
8021.00,1.56
8020.00,1.56
8019.00,1.56
8018.00,1.56
8017.00,1.56
8016.00,1.56
8015.00,1.56
8014.00,1.56
8013.00,1.56
8012.00,1.57
8011.00,1.57
8010.00,1.57
8009.00,1.57
8008.00,1.57
8007.00,1.57
8006.00,1.57
8005.00,1.57
8004.00,1.57
8003.00,1.57
8002.00,1.57
8001.00,1.58
8000.00,1.58
7999.00,1.58
7998.00,1.58
7997.00,1.58
7996.00,1.58
7995.00,1.58
7994.00,1.58
7993.00,1.58
7992.00,1.58
7991.00,1.58
7990.00,1.58
7989.00,1.58
7988.00,1.58
7987.00,1.58
7986.00,1.58
7985.00,1.58
7984.00,1.58
7983.00,1.58
7982.00,1.58
7981.00,1.58
7980.00,1.58
7979.00,1.58
7978.00,1.58
7977.00,1.58
7976.00,1.58
7975.00,1.58
7974.00,1.58
7973.00,1.58
7972.00,1.58
7971.00,1.57
7970.00,1.57
7969.00,1.57
7968.00,1.57
7967.00,1.57
7966.00,1.57
7965.00,1.57
7964.00,1.57
7963.00,1.57
7962.00,1.57
7961.00,1.57
7960.00,1.57
7959.00,1.57
7958.00,1.57
7957.00,1.57
7956.00,1.57
7955.00,1.57
7954.00,1.57
7953.00,1.57
7952.00,1.57
7951.00,1.57
7950.00,1.57
7949.00,1.57
7948.00,1.57
7947.00,1.57
7946.00,1.58
7945.00,1.58
7944.00,1.58
7943.00,1.58
7942.00,1.58
7941.00,1.58
7940.00,1.58
7939.00,1.58
7938.00,1.58
7937.00,1.58
7936.00,1.58
7935.00,1.58
7934.00,1.58
7933.00,1.58
7932.00,1.58
7931.00,1.58
7930.00,1.58
7929.00,1.58
7928.00,1.58
7927.00,1.58
7926.00,1.58
7925.00,1.58
7924.00,1.58
7923.00,1.58
7922.00,1.58
7921.00,1.58
7920.00,1.58
7919.00,1.58
7918.00,1.58
7917.00,1.58
7916.00,1.58
7915.00,1.58
7914.00,1.58
7913.00,1.58
7912.00,1.58
7911.00,1.58
7910.00,1.59
7909.00,1.59
7908.00,1.59
7907.00,1.59
7906.00,1.59
7905.00,1.59
7904.00,1.59
7903.00,1.59
7902.00,1.59
7901.00,1.59
7900.00,1.59
7899.00,1.59
7898.00,1.59
7897.00,1.59
7896.00,1.59
7895.00,1.59
7894.00,1.60
7893.00,1.60
7892.00,1.60
7891.00,1.60
7890.00,1.60
7889.00,1.60
7888.00,1.60
7887.00,1.60
7886.00,1.60
7885.00,1.60
7884.00,1.60
7883.00,1.60
7882.00,1.60
7881.00,1.60
7880.00,1.60
7879.00,1.60
7878.00,1.60
7877.00,1.60
7876.00,1.60
7875.00,1.60
7874.00,1.60
7873.00,1.60
7872.00,1.60
7871.00,1.60
7870.00,1.60
7869.00,1.60
7868.00,1.60
7867.00,1.60
7866.00,1.60
7865.00,1.60
7864.00,1.60
7863.00,1.60
7862.00,1.60
7861.00,1.60
7860.00,1.60
7859.00,1.60
7858.00,1.60
7857.00,1.61
7856.00,1.61
7855.00,1.61
7854.00,1.61
7853.00,1.61
7852.00,1.61
7851.00,1.61
7850.00,1.61
7849.00,1.61
7848.00,1.61
7847.00,1.62
7846.00,1.62
7845.00,1.62
7844.00,1.62
7843.00,1.62
7842.00,1.62
7841.00,1.62
7840.00,1.62
7839.00,1.62
7838.00,1.62
7837.00,1.62
7836.00,1.62
7835.00,1.62
7834.00,1.62
7833.00,1.62
7832.00,1.61
7831.00,1.61
7830.00,1.61
7829.00,1.61
7828.00,1.61
7827.00,1.61
7826.00,1.61
7825.00,1.61
7824.00,1.61
7823.00,1.61
7822.00,1.61
7821.00,1.61
7820.00,1.61
7819.00,1.62
7818.00,1.62
7817.00,1.62
7816.00,1.62
7815.00,1.62
7814.00,1.62
7813.00,1.62
7812.00,1.62
7811.00,1.62
7810.00,1.62
7809.00,1.62
7808.00,1.62
7807.00,1.62
7806.00,1.63
7805.00,1.63
7804.00,1.63
7803.00,1.63
7802.00,1.63
7801.00,1.63
7800.00,1.63
7799.00,1.63
7798.00,1.63
7797.00,1.63
7796.00,1.63
7795.00,1.63
7794.00,1.63
7793.00,1.63
7792.00,1.63
7791.00,1.63
7790.00,1.63
7789.00,1.63
7788.00,1.63
7787.00,1.63
7786.00,1.63
7785.00,1.63
7784.00,1.63
7783.00,1.63
7782.00,1.63
7781.00,1.63
7780.00,1.63
7779.00,1.63
7778.00,1.63
7777.00,1.63
7776.00,1.63
7775.00,1.63
7774.00,1.63
7773.00,1.63
7772.00,1.63
7771.00,1.63
7770.00,1.63
7769.00,1.63
7768.00,1.63
7767.00,1.63
7766.00,1.63
7765.00,1.63
7764.00,1.63
7763.00,1.63
7762.00,1.63
7761.00,1.63
7760.00,1.63
7759.00,1.63
7758.00,1.63
7757.00,1.63
7756.00,1.63
7755.00,1.63
7754.00,1.63
7753.00,1.63
7752.00,1.63
7751.00,1.63
7750.00,1.63
7749.00,1.63
7748.00,1.63
7747.00,1.63
7746.00,1.63
7745.00,1.63
7744.00,1.63
7743.00,1.63
7742.00,1.63
7741.00,1.63
7740.00,1.63
7739.00,1.63
7738.00,1.63
7737.00,1.63
7736.00,1.63
7735.00,1.64
7734.00,1.64
7733.00,1.64
7732.00,1.64
7731.00,1.64
7730.00,1.64
7729.00,1.64
7728.00,1.64
7727.00,1.64
7726.00,1.64
7725.00,1.64
7724.00,1.64
7723.00,1.64
7722.00,1.64
7721.00,1.64
7720.00,1.64
7719.00,1.64
7718.00,1.63
7717.00,1.63
7716.00,1.63
7715.00,1.63
7714.00,1.63
7713.00,1.63
7712.00,1.63
7711.00,1.63
7710.00,1.63
7709.00,1.63
7708.00,1.63
7707.00,1.62
7706.00,1.62
7705.00,1.62
7704.00,1.62
7703.00,1.62
7702.00,1.62
7701.00,1.62
7700.00,1.62
7699.00,1.62
7698.00,1.62
7697.00,1.62
7696.00,1.62
7695.00,1.62
7694.00,1.63
7693.00,1.63
7692.00,1.63
7691.00,1.63
7690.00,1.63
7689.00,1.63
7688.00,1.63
7687.00,1.63
7686.00,1.63
7685.00,1.63
7684.00,1.64
7683.00,1.64
7682.00,1.64
7681.00,1.64
7680.00,1.64
7679.00,1.64
7678.00,1.64
7677.00,1.64
7676.00,1.64
7675.00,1.64
7674.00,1.64
7673.00,1.64
7672.00,1.64
7671.00,1.64
7670.00,1.64
7669.00,1.64
7668.00,1.64
7667.00,1.63
7666.00,1.63
7665.00,1.63
7664.00,1.63
7663.00,1.63
7662.00,1.63
7661.00,1.63
7660.00,1.63
7659.00,1.63
7658.00,1.63
7657.00,1.63
7656.00,1.63
7655.00,1.63
7654.00,1.63
7653.00,1.63
7652.00,1.63
7651.00,1.63
7650.00,1.63
7649.00,1.63
7648.00,1.63
7647.00,1.64
7646.00,1.64
7645.00,1.64
7644.00,1.64
7643.00,1.64
7642.00,1.64
7641.00,1.64
7640.00,1.64
7639.00,1.64
7638.00,1.64
7637.00,1.64
7636.00,1.64
7635.00,1.64
7634.00,1.63
7633.00,1.63
7632.00,1.63
7631.00,1.63
7630.00,1.63
7629.00,1.63
7628.00,1.63
7627.00,1.63
7626.00,1.63
7625.00,1.63
7624.00,1.63
7623.00,1.63
7622.00,1.63
7621.00,1.63
7620.00,1.63
7619.00,1.63
7618.00,1.63
7617.00,1.63
7616.00,1.63
7615.00,1.63
7614.00,1.63
7613.00,1.63
7612.00,1.63
7611.00,1.63
7610.00,1.63
7609.00,1.63
7608.00,1.63
7607.00,1.63
7606.00,1.63
7605.00,1.63
7604.00,1.63
7603.00,1.63
7602.00,1.63
7601.00,1.63
7600.00,1.63
7599.00,1.63
7598.00,1.63
7597.00,1.63
7596.00,1.63
7595.00,1.63
7594.00,1.63
7593.00,1.63
7592.00,1.63
7591.00,1.63
7590.00,1.63
7589.00,1.63
7588.00,1.63
7587.00,1.63
7586.00,1.63
7585.00,1.63
7584.00,1.63
7583.00,1.63
7582.00,1.63
7581.00,1.63
7580.00,1.63
7579.00,1.63
7578.00,1.63
7577.00,1.63
7576.00,1.63
7575.00,1.63
7574.00,1.63
7573.00,1.63
7572.00,1.63
7571.00,1.63
7570.00,1.63
7569.00,1.63
7568.00,1.63
7567.00,1.63
7566.00,1.63
7565.00,1.63
7564.00,1.63
7563.00,1.63
7562.00,1.63
7561.00,1.63
7560.00,1.63
7559.00,1.63
7558.00,1.63
7557.00,1.63
7556.00,1.62
7555.00,1.62
7554.00,1.62
7553.00,1.62
7552.00,1.62
7551.00,1.62
7550.00,1.62
7549.00,1.62
7548.00,1.62
7547.00,1.62
7546.00,1.62
7545.00,1.62
7544.00,1.62
7543.00,1.62
7542.00,1.62
7541.00,1.61
7540.00,1.61
7539.00,1.61
7538.00,1.61
7537.00,1.61
7536.00,1.61
7535.00,1.61
7534.00,1.61
7533.00,1.61
7532.00,1.61
7531.00,1.61
7530.00,1.61
7529.00,1.61
7528.00,1.61
7527.00,1.61
7526.00,1.61
7525.00,1.61
7524.00,1.61
7523.00,1.61
7522.00,1.61
7521.00,1.61
7520.00,1.61
7519.00,1.61
7518.00,1.61
7517.00,1.61
7516.00,1.61
7515.00,1.61
7514.00,1.61
7513.00,1.61
7512.00,1.60
7511.00,1.60
7510.00,1.60
7509.00,1.60
7508.00,1.60
7507.00,1.60
7506.00,1.60
7505.00,1.60
7504.00,1.60
7503.00,1.60
7502.00,1.60
7501.00,1.60
7500.00,1.60
7499.00,1.60
7498.00,1.60
7497.00,1.60
7496.00,1.60
7495.00,1.59
7494.00,1.59
7493.00,1.59
7492.00,1.59
7491.00,1.59
7490.00,1.59
7489.00,1.59
7488.00,1.59
7487.00,1.59
7486.00,1.59
7485.00,1.59
7484.00,1.59
7483.00,1.59
7482.00,1.59
7481.00,1.59
7480.00,1.59
7479.00,1.59
7478.00,1.59
7477.00,1.59
7476.00,1.59
7475.00,1.59
7474.00,1.59
7473.00,1.58
7472.00,1.58
7471.00,1.58
7470.00,1.58
7469.00,1.58
7468.00,1.58
7467.00,1.58
7466.00,1.58
7465.00,1.58
7464.00,1.58
7463.00,1.58
7462.00,1.58
7461.00,1.58
7460.00,1.57
7459.00,1.57
7458.00,1.57
7457.00,1.57
7456.00,1.57
7455.00,1.57
7454.00,1.57
7453.00,1.57
7452.00,1.57
7451.00,1.57
7450.00,1.57
7449.00,1.57
7448.00,1.57
7447.00,1.57
7446.00,1.57
7445.00,1.56
7444.00,1.56
7443.00,1.56
7442.00,1.56
7441.00,1.56
7440.00,1.56
7439.00,1.56
7438.00,1.56
7437.00,1.56
7436.00,1.56
7435.00,1.56
7434.00,1.56
7433.00,1.55
7432.00,1.55
7431.00,1.55
7430.00,1.55
7429.00,1.55
7428.00,1.55
7427.00,1.55
7426.00,1.55
7425.00,1.55
7424.00,1.55
7423.00,1.54
7422.00,1.54
7421.00,1.54
7420.00,1.54
7419.00,1.54
7418.00,1.54
7417.00,1.54
7416.00,1.54
7415.00,1.54
7414.00,1.54
7413.00,1.54
7412.00,1.53
7411.00,1.53
7410.00,1.53
7409.00,1.53
7408.00,1.53
7407.00,1.53
7406.00,1.53
7405.00,1.53
7404.00,1.53
7403.00,1.53
7402.00,1.53
7401.00,1.52
7400.00,1.52
7399.00,1.52
7398.00,1.52
7397.00,1.52
7396.00,1.52
7395.00,1.51
7394.00,1.51
7393.00,1.51
7392.00,1.51
7391.00,1.51
7390.00,1.51
7389.00,1.51
7388.00,1.50
7387.00,1.50
7386.00,1.50
7385.00,1.50
7384.00,1.50
7383.00,1.50
7382.00,1.50
7381.00,1.50
7380.00,1.50
7379.00,1.50
7378.00,1.49
7377.00,1.49
7376.00,1.49
7375.00,1.49
7374.00,1.49
7373.00,1.49
7372.00,1.49
7371.00,1.49
7370.00,1.49
7369.00,1.49
7368.00,1.49
7367.00,1.49
7366.00,1.49
7365.00,1.49
7364.00,1.49
7363.00,1.49
7362.00,1.49
7361.00,1.49
7360.00,1.49
7359.00,1.49
7358.00,1.49
7357.00,1.49
7356.00,1.49
7355.00,1.49
7354.00,1.49
7353.00,1.49
7352.00,1.49
7351.00,1.49
7350.00,1.49
7349.00,1.49
7348.00,1.49
7347.00,1.49
7346.00,1.49
7345.00,1.49
7344.00,1.48
7343.00,1.48
7342.00,1.48
7341.00,1.48
7340.00,1.48
7339.00,1.48
7338.00,1.48
7337.00,1.48
7336.00,1.48
7335.00,1.48
7334.00,1.48
7333.00,1.47
7332.00,1.47
7331.00,1.47
7330.00,1.47
7329.00,1.47
7328.00,1.47
7327.00,1.47
7326.00,1.47
7325.00,1.47
7324.00,1.47
7323.00,1.47
7322.00,1.47
7321.00,1.47
7320.00,1.47
7319.00,1.47
7318.00,1.47
7317.00,1.47
7316.00,1.47
7315.00,1.47
7314.00,1.47
7313.00,1.46
7312.00,1.46
7311.00,1.46
7310.00,1.46
7309.00,1.46
7308.00,1.46
7307.00,1.46
7306.00,1.46
7305.00,1.46
7304.00,1.45
7303.00,1.45
7302.00,1.45
7301.00,1.45
7300.00,1.45
7299.00,1.45
7298.00,1.45
7297.00,1.44
7296.00,1.44
7295.00,1.44
7294.00,1.44
7293.00,1.44
7292.00,1.44
7291.00,1.44
7290.00,1.44
7289.00,1.44
7288.00,1.43
7287.00,1.43
7286.00,1.43
7285.00,1.43
7284.00,1.43
7283.00,1.43
7282.00,1.43
7281.00,1.43
7280.00,1.42
7279.00,1.42
7278.00,1.42
7277.00,1.42
7276.00,1.42
7275.00,1.41
7274.00,1.41
7273.00,1.41
7272.00,1.41
7271.00,1.40
7270.00,1.40
7269.00,1.40
7268.00,1.40
7267.00,1.40
7266.00,1.39
7265.00,1.39
7264.00,1.39
7263.00,1.39
7262.00,1.39
7261.00,1.39
7260.00,1.38
7259.00,1.38
7258.00,1.38
7257.00,1.38
7256.00,1.38
7255.00,1.38
7254.00,1.38
7253.00,1.37
7252.00,1.37
7251.00,1.37
7250.00,1.37
7249.00,1.37
7248.00,1.36
7247.00,1.36
7246.00,1.36
7245.00,1.35
7244.00,1.35
7243.00,1.35
7242.00,1.34
7241.00,1.34
7240.00,1.34
7239.00,1.33
7238.00,1.33
7237.00,1.32
7236.00,1.32
7235.00,1.31
7234.00,1.31
7233.00,1.30
7232.00,1.30
7231.00,1.30
7230.00,1.29
7229.00,1.29
7228.00,1.28
7227.00,1.28
7226.00,1.28
7225.00,1.27
7224.00,1.27
7223.00,1.26
7222.00,1.26
7221.00,1.26
7220.00,1.25
7219.00,1.25
7218.00,1.24
7217.00,1.24
7216.00,1.23
7215.00,1.23
7214.00,1.22
7213.00,1.22
7212.00,1.22
7211.00,1.21
7210.00,1.21
7209.00,1.20
7208.00,1.20
7207.00,1.19
7206.00,1.19
7205.00,1.18
7204.00,1.18
7203.00,1.17
7202.00,1.17
7201.00,1.17
7200.00,1.16
7199.00,1.16
7198.00,1.15
7197.00,1.15
7196.00,1.14
7195.00,1.14
7194.00,1.13
7193.00,1.13
7192.00,1.13
7191.00,1.12
7190.00,1.12
7189.00,1.11
7188.00,1.11
7187.00,1.11
7186.00,1.10
7185.00,1.10
7184.00,1.10
7183.00,1.09
7182.00,1.09
7181.00,1.09
7180.00,1.08
7179.00,1.08
7178.00,1.08
7177.00,1.08
7176.00,1.07
7175.00,1.07
7174.00,1.07
7173.00,1.06
7172.00,1.06
7171.00,1.06
7170.00,1.05
7169.00,1.05
7168.00,1.05
7167.00,1.04
7166.00,1.04
7165.00,1.04
7164.00,1.03
7163.00,1.03
7162.00,1.02
7161.00,1.02
7160.00,1.02
7159.00,1.01
7158.00,1.01
7157.00,1.00
7156.00,1.00
7155.00,1.00
7154.00,0.99
7153.00,0.99
7152.00,0.99
7151.00,0.98
7150.00,0.98
7149.00,0.98
7148.00,0.97
7147.00,0.97
7146.00,0.97
7145.00,0.96
7144.00,0.96
7143.00,0.96
7142.00,0.95
7141.00,0.95
7140.00,0.94
7139.00,0.94
7138.00,0.94
7137.00,0.93
7136.00,0.93
7135.00,0.93
7134.00,0.92
7133.00,0.92
7132.00,0.92
7131.00,0.91
7130.00,0.91
7129.00,0.91
7128.00,0.90
7127.00,0.90
7126.00,0.90
7125.00,0.89
7124.00,0.89
7123.00,0.89
7122.00,0.88
7121.00,0.88
7120.00,0.88
7119.00,0.87
7118.00,0.87
7117.00,0.87
7116.00,0.86
7115.00,0.86
7114.00,0.86
7113.00,0.85
7112.00,0.85
7111.00,0.84
7110.00,0.84
7109.00,0.84
7108.00,0.83
7107.00,0.83
7106.00,0.83
7105.00,0.83
7104.00,0.82
7103.00,0.82
7102.00,0.82
7101.00,0.81
7100.00,0.81
7099.00,0.81
7098.00,0.81
7097.00,0.80
7096.00,0.80
7095.00,0.80
7094.00,0.80
7093.00,0.79
7092.00,0.79
7091.00,0.79
7090.00,0.79
7089.00,0.79
7088.00,0.78
7087.00,0.78
7086.00,0.78
7085.00,0.78
7084.00,0.78
7083.00,0.77
7082.00,0.77
7081.00,0.77
7080.00,0.77
7079.00,0.77
7078.00,0.77
7077.00,0.76
7076.00,0.76
7075.00,0.76
7074.00,0.76
7073.00,0.76
7072.00,0.76
7071.00,0.75
7070.00,0.75
7069.00,0.75
7068.00,0.75
7067.00,0.75
7066.00,0.75
7065.00,0.74
7064.00,0.74
7063.00,0.74
7062.00,0.74
7061.00,0.74
7060.00,0.74
7059.00,0.74
7058.00,0.74
7057.00,0.73
7056.00,0.73
7055.00,0.73
7054.00,0.73
7053.00,0.73
7052.00,0.72
7051.00,0.72
7050.00,0.72
7049.00,0.72
7048.00,0.72
7047.00,0.71
7046.00,0.71
7045.00,0.71
7044.00,0.71
7043.00,0.71
7042.00,0.71
7041.00,0.70
7040.00,0.70
7039.00,0.70
7038.00,0.70
7037.00,0.70
7036.00,0.70
7035.00,0.70
7034.00,0.70
7033.00,0.70
7032.00,0.69
7031.00,0.69
7030.00,0.69
7029.00,0.69
7028.00,0.69
7027.00,0.69
7026.00,0.69
7025.00,0.69
7024.00,0.69
7023.00,0.68
7022.00,0.68
7021.00,0.68
7020.00,0.68
7019.00,0.68
7018.00,0.68
7017.00,0.68
7016.00,0.68
7015.00,0.68
7014.00,0.68
7013.00,0.68
7012.00,0.68
7011.00,0.67
7010.00,0.67
7009.00,0.67
7008.00,0.67
7007.00,0.67
7006.00,0.67
7005.00,0.67
7004.00,0.67
7003.00,0.67
7002.00,0.66
7001.00,0.66
7000.00,0.66
6999.00,0.66
6998.00,0.66
6997.00,0.66
6996.00,0.66
6995.00,0.66
6994.00,0.66
6993.00,0.66
6992.00,0.66
6991.00,0.66
6990.00,0.66
6989.00,0.65
6988.00,0.65
6987.00,0.65
6986.00,0.65
6985.00,0.65
6984.00,0.65
6983.00,0.65
6982.00,0.65
6981.00,0.65
6980.00,0.65
6979.00,0.64
6978.00,0.64
6977.00,0.64
6976.00,0.64
6975.00,0.64
6974.00,0.64
6973.00,0.64
6972.00,0.64
6971.00,0.64
6970.00,0.64
6969.00,0.64
6968.00,0.64
6967.00,0.64
6966.00,0.64
6965.00,0.64
6964.00,0.64
6963.00,0.64
6962.00,0.64
6961.00,0.64
6960.00,0.64
6959.00,0.64
6958.00,0.64
6957.00,0.64
6956.00,0.64
6955.00,0.63
6954.00,0.63
6953.00,0.63
6952.00,0.63
6951.00,0.63
6950.00,0.63
6949.00,0.63
6948.00,0.63
6947.00,0.63
6946.00,0.63
6945.00,0.63
6944.00,0.63
6943.00,0.63
6942.00,0.63
6941.00,0.63
6940.00,0.62
6939.00,0.62
6938.00,0.62
6937.00,0.62
6936.00,0.62
6935.00,0.62
6934.00,0.62
6933.00,0.62
6932.00,0.62
6931.00,0.62
6930.00,0.62
6929.00,0.62
6928.00,0.62
6927.00,0.62
6926.00,0.62
6925.00,0.62
6924.00,0.62
6923.00,0.62
6922.00,0.62
6921.00,0.62
6920.00,0.62
6919.00,0.62
6918.00,0.62
6917.00,0.62
6916.00,0.62
6915.00,0.61
6914.00,0.61
6913.00,0.61
6912.00,0.61
6911.00,0.61
6910.00,0.61
6909.00,0.61
6908.00,0.61
6907.00,0.61
6906.00,0.61
6905.00,0.61
6904.00,0.61
6903.00,0.62
6902.00,0.62
6901.00,0.62
6900.00,0.62
6899.00,0.62
6898.00,0.62
6897.00,0.62
6896.00,0.62
6895.00,0.61
6894.00,0.61
6893.00,0.61
6892.00,0.61
6891.00,0.61
6890.00,0.61
6889.00,0.61
6888.00,0.61
6887.00,0.61
6886.00,0.61
6885.00,0.61
6884.00,0.61
6883.00,0.61
6882.00,0.62
6881.00,0.62
6880.00,0.62
6879.00,0.62
6878.00,0.62
6877.00,0.62
6876.00,0.62
6875.00,0.62
6874.00,0.62
6873.00,0.62
6872.00,0.62
6871.00,0.62
6870.00,0.62
6869.00,0.62
6868.00,0.62
6867.00,0.62
6866.00,0.62
6865.00,0.62
6864.00,0.61
6863.00,0.61
6862.00,0.61
6861.00,0.61
6860.00,0.61
6859.00,0.61
6858.00,0.61
6857.00,0.61
6856.00,0.61
6855.00,0.61
6854.00,0.61
6853.00,0.61
6852.00,0.61
6851.00,0.61
6850.00,0.61
6849.00,0.61
6848.00,0.61
6847.00,0.61
6846.00,0.61
6845.00,0.61
6844.00,0.61
6843.00,0.61
6842.00,0.61
6841.00,0.61
6840.00,0.61
6839.00,0.61
6838.00,0.61
6837.00,0.61
6836.00,0.61
6835.00,0.61
6834.00,0.61
6833.00,0.61
6832.00,0.62
6831.00,0.62
6830.00,0.62
6829.00,0.62
6828.00,0.62
6827.00,0.62
6826.00,0.62
6825.00,0.62
6824.00,0.62
6823.00,0.62
6822.00,0.62
6821.00,0.62
6820.00,0.62
6819.00,0.62
6818.00,0.62
6817.00,0.62
6816.00,0.62
6815.00,0.62
6814.00,0.62
6813.00,0.62
6812.00,0.62
6811.00,0.62
6810.00,0.62
6809.00,0.62
6808.00,0.62
6807.00,0.62
6806.00,0.62
6805.00,0.62
6804.00,0.62
6803.00,0.62
6802.00,0.62
6801.00,0.62
6800.00,0.63
6799.00,0.63
6798.00,0.63
6797.00,0.63
6796.00,0.63
6795.00,0.63
6794.00,0.63
6793.00,0.63
6792.00,0.63
6791.00,0.63
6790.00,0.63
6789.00,0.63
6788.00,0.63
6787.00,0.63
6786.00,0.63
6785.00,0.63
6784.00,0.64
6783.00,0.64
6782.00,0.64
6781.00,0.64
6780.00,0.64
6779.00,0.64
6778.00,0.64
6777.00,0.64
6776.00,0.64
6775.00,0.64
6774.00,0.64
6773.00,0.64
6772.00,0.64
6771.00,0.64
6770.00,0.64
6769.00,0.64
6768.00,0.64
6767.00,0.64
6766.00,0.64
6765.00,0.64
6764.00,0.65
6763.00,0.65
6762.00,0.65
6761.00,0.65
6760.00,0.65
6759.00,0.65
6758.00,0.65
6757.00,0.65
6756.00,0.66
6755.00,0.66
6754.00,0.66
6753.00,0.66
6752.00,0.66
6751.00,0.66
6750.00,0.66
6749.00,0.66
6748.00,0.66
6747.00,0.67
6746.00,0.67
6745.00,0.67
6744.00,0.67
6743.00,0.67
6742.00,0.67
6741.00,0.67
6740.00,0.67
6739.00,0.67
6738.00,0.67
6737.00,0.67
6736.00,0.67
6735.00,0.67
6734.00,0.67
6733.00,0.67
6732.00,0.67
6731.00,0.67
6730.00,0.67
6729.00,0.67
6728.00,0.68
6727.00,0.68
6726.00,0.68
6725.00,0.68
6724.00,0.68
6723.00,0.68
6722.00,0.68
6721.00,0.68
6720.00,0.68
6719.00,0.68
6718.00,0.68
6717.00,0.68
6716.00,0.68
6715.00,0.68
6714.00,0.69
6713.00,0.69
6712.00,0.69
6711.00,0.69
6710.00,0.69
6709.00,0.69
6708.00,0.69
6707.00,0.69
6706.00,0.69
6705.00,0.70
6704.00,0.70
6703.00,0.70
6702.00,0.70
6701.00,0.70
6700.00,0.70
6699.00,0.70
6698.00,0.70
6697.00,0.70
6696.00,0.70
6695.00,0.71
6694.00,0.71
6693.00,0.71
6692.00,0.71
6691.00,0.71
6690.00,0.71
6689.00,0.71
6688.00,0.71
6687.00,0.71
6686.00,0.71
6685.00,0.71
6684.00,0.71
6683.00,0.71
6682.00,0.72
6681.00,0.72
6680.00,0.72
6679.00,0.72
6678.00,0.72
6677.00,0.72
6676.00,0.72
6675.00,0.72
6674.00,0.72
6673.00,0.73
6672.00,0.73
6671.00,0.73
6670.00,0.73
6669.00,0.73
6668.00,0.73
6667.00,0.73
6666.00,0.73
6665.00,0.74
6664.00,0.74
6663.00,0.74
6662.00,0.74
6661.00,0.74
6660.00,0.74
6659.00,0.74
6658.00,0.75
6657.00,0.75
6656.00,0.75
6655.00,0.75
6654.00,0.75
6653.00,0.75
6652.00,0.75
6651.00,0.75
6650.00,0.75
6649.00,0.75
6648.00,0.75
6647.00,0.76
6646.00,0.76
6645.00,0.76
6644.00,0.76
6643.00,0.76
6642.00,0.76
6641.00,0.76
6640.00,0.76
6639.00,0.76
6638.00,0.77
6637.00,0.77
6636.00,0.77
6635.00,0.77
6634.00,0.77
6633.00,0.77
6632.00,0.77
6631.00,0.78
6630.00,0.78
6629.00,0.78
6628.00,0.78
6627.00,0.78
6626.00,0.78
6625.00,0.79
6624.00,0.79
6623.00,0.79
6622.00,0.79
6621.00,0.79
6620.00,0.79
6619.00,0.79
6618.00,0.79
6617.00,0.80
6616.00,0.80
6615.00,0.80
6614.00,0.80
6613.00,0.80
6612.00,0.80
6611.00,0.80
6610.00,0.80
6609.00,0.80
6608.00,0.80
6607.00,0.80
6606.00,0.80
6605.00,0.80
6604.00,0.80
6603.00,0.80
6602.00,0.80
6601.00,0.80
6600.00,0.81
6599.00,0.81
6598.00,0.81
6597.00,0.81
6596.00,0.81
6595.00,0.81
6594.00,0.81
6593.00,0.81
6592.00,0.81
6591.00,0.81
6590.00,0.82
6589.00,0.82
6588.00,0.82
6587.00,0.82
6586.00,0.82
6585.00,0.82
6584.00,0.82
6583.00,0.83
6582.00,0.83
6581.00,0.83
6580.00,0.83
6579.00,0.83
6578.00,0.83
6577.00,0.83
6576.00,0.83
6575.00,0.83
6574.00,0.84
6573.00,0.84
6572.00,0.84
6571.00,0.84
6570.00,0.84
6569.00,0.84
6568.00,0.84
6567.00,0.84
6566.00,0.84
6565.00,0.85
6564.00,0.85
6563.00,0.85
6562.00,0.85
6561.00,0.85
6560.00,0.85
6559.00,0.85
6558.00,0.85
6557.00,0.85
6556.00,0.85
6555.00,0.86
6554.00,0.86
6553.00,0.86
6552.00,0.86
6551.00,0.86
6550.00,0.86
6549.00,0.86
6548.00,0.86
6547.00,0.86
6546.00,0.87
6545.00,0.87
6544.00,0.87
6543.00,0.87
6542.00,0.87
6541.00,0.87
6540.00,0.87
6539.00,0.87
6538.00,0.88
6537.00,0.88
6536.00,0.88
6535.00,0.88
6534.00,0.88
6533.00,0.88
6532.00,0.88
6531.00,0.88
6530.00,0.89
6529.00,0.89
6528.00,0.89
6527.00,0.89
6526.00,0.89
6525.00,0.89
6524.00,0.89
6523.00,0.89
6522.00,0.89
6521.00,0.89
6520.00,0.90
6519.00,0.90
6518.00,0.90
6517.00,0.90
6516.00,0.90
6515.00,0.90
6514.00,0.90
6513.00,0.90
6512.00,0.90
6511.00,0.90
6510.00,0.90
6509.00,0.90
6508.00,0.90
6507.00,0.90
6506.00,0.90
6505.00,0.90
6504.00,0.90
6503.00,0.90
6502.00,0.90
6501.00,0.90
6500.00,0.90
6499.00,0.90
6498.00,0.91
6497.00,0.91
6496.00,0.91
6495.00,0.91
6494.00,0.91
6493.00,0.91
6492.00,0.91
6491.00,0.91
6490.00,0.91
6489.00,0.91
6488.00,0.92
6487.00,0.92
6486.00,0.92
6485.00,0.92
6484.00,0.92
6483.00,0.92
6482.00,0.92
6481.00,0.92
6480.00,0.92
6479.00,0.92
6478.00,0.92
6477.00,0.92
6476.00,0.92
6475.00,0.92
6474.00,0.93
6473.00,0.93
6472.00,0.93
6471.00,0.93
6470.00,0.93
6469.00,0.93
6468.00,0.93
6467.00,0.93
6466.00,0.93
6465.00,0.93
6464.00,0.93
6463.00,0.94
6462.00,0.94
6461.00,0.94
6460.00,0.94
6459.00,0.94
6458.00,0.94
6457.00,0.94
6456.00,0.94
6455.00,0.94
6454.00,0.94
6453.00,0.94
6452.00,0.94
6451.00,0.94
6450.00,0.94
6449.00,0.95
6448.00,0.95
6447.00,0.95
6446.00,0.95
6445.00,0.95
6444.00,0.95
6443.00,0.95
6442.00,0.95
6441.00,0.95
6440.00,0.95
6439.00,0.95
6438.00,0.95
6437.00,0.95
6436.00,0.95
6435.00,0.95
6434.00,0.95
6433.00,0.95
6432.00,0.95
6431.00,0.95
6430.00,0.95
6429.00,0.95
6428.00,0.95
6427.00,0.95
6426.00,0.95
6425.00,0.96
6424.00,0.96
6423.00,0.96
6422.00,0.96
6421.00,0.96
6420.00,0.96
6419.00,0.96
6418.00,0.96
6417.00,0.96
6416.00,0.97
6415.00,0.97
6414.00,0.97
6413.00,0.97
6412.00,0.97
6411.00,0.97
6410.00,0.97
6409.00,0.97
6408.00,0.97
6407.00,0.97
6406.00,0.97
6405.00,0.97
6404.00,0.98
6403.00,0.98
6402.00,0.98
6401.00,0.98
6400.00,0.98
6399.00,0.98
6398.00,0.98
6397.00,0.98
6396.00,0.98
6395.00,0.98
6394.00,0.98
6393.00,0.98
6392.00,0.98
6391.00,0.98
6390.00,0.98
6389.00,0.98
6388.00,0.98
6387.00,0.98
6386.00,0.98
6385.00,0.98
6384.00,0.99
6383.00,0.99
6382.00,0.99
6381.00,0.99
6380.00,0.99
6379.00,0.99
6378.00,0.99
6377.00,0.99
6376.00,0.99
6375.00,0.99
6374.00,1.00
6373.00,1.00
6372.00,1.00
6371.00,1.00
6370.00,1.00
6369.00,1.00
6368.00,1.00
6367.00,1.00
6366.00,1.00
6365.00,1.01
6364.00,1.01
6363.00,1.01
6362.00,1.01
6361.00,1.01
6360.00,1.01
6359.00,1.01
6358.00,1.01
6357.00,1.01
6356.00,1.01
6355.00,1.02
6354.00,1.02
6353.00,1.02
6352.00,1.02
6351.00,1.02
6350.00,1.02
6349.00,1.02
6348.00,1.02
6347.00,1.02
6346.00,1.02
6345.00,1.02
6344.00,1.02
6343.00,1.02
6342.00,1.02
6341.00,1.02
6340.00,1.03
6339.00,1.03
6338.00,1.03
6337.00,1.03
6336.00,1.03
6335.00,1.03
6334.00,1.03
6333.00,1.03
6332.00,1.03
6331.00,1.03
6330.00,1.03
6329.00,1.03
6328.00,1.04
6327.00,1.04
6326.00,1.04
6325.00,1.04
6324.00,1.04
6323.00,1.04
6322.00,1.04
6321.00,1.04
6320.00,1.04
6319.00,1.04
6318.00,1.05
6317.00,1.05
6316.00,1.05
6315.00,1.05
6314.00,1.05
6313.00,1.05
6312.00,1.05
6311.00,1.05
6310.00,1.06
6309.00,1.06
6308.00,1.06
6307.00,1.06
6306.00,1.06
6305.00,1.07
6304.00,1.07
6303.00,1.07
6302.00,1.07
6301.00,1.07
6300.00,1.07
6299.00,1.08
6298.00,1.08
6297.00,1.08
6296.00,1.08
6295.00,1.08
6294.00,1.08
6293.00,1.08
6292.00,1.09
6291.00,1.09
6290.00,1.09
6289.00,1.09
6288.00,1.09
6287.00,1.09
6286.00,1.09
6285.00,1.10
6284.00,1.10
6283.00,1.10
6282.00,1.10
6281.00,1.10
6280.00,1.10
6279.00,1.11
6278.00,1.11
6277.00,1.11
6276.00,1.11
6275.00,1.11
6274.00,1.11
6273.00,1.11
6272.00,1.12
6271.00,1.12
6270.00,1.12
6269.00,1.12
6268.00,1.12
6267.00,1.12
6266.00,1.12
6265.00,1.13
6264.00,1.13
6263.00,1.13
6262.00,1.13
6261.00,1.13
6260.00,1.13
6259.00,1.13
6258.00,1.14
6257.00,1.14
6256.00,1.14
6255.00,1.14
6254.00,1.14
6253.00,1.14
6252.00,1.15
6251.00,1.15
6250.00,1.15
6249.00,1.15
6248.00,1.15
6247.00,1.15
6246.00,1.16
6245.00,1.16
6244.00,1.16
6243.00,1.16
6242.00,1.16
6241.00,1.17
6240.00,1.17
6239.00,1.17
6238.00,1.17
6237.00,1.17
6236.00,1.17
6235.00,1.18
6234.00,1.18
6233.00,1.18
6232.00,1.18
6231.00,1.18
6230.00,1.18
6229.00,1.19
6228.00,1.19
6227.00,1.19
6226.00,1.19
6225.00,1.19
6224.00,1.19
6223.00,1.19
6222.00,1.19
6221.00,1.19
6220.00,1.19
6219.00,1.20
6218.00,1.20
6217.00,1.20
6216.00,1.20
6215.00,1.20
6214.00,1.20
6213.00,1.20
6212.00,1.21
6211.00,1.21
6210.00,1.21
6209.00,1.21
6208.00,1.21
6207.00,1.22
6206.00,1.22
6205.00,1.22
6204.00,1.22
6203.00,1.23
6202.00,1.23
6201.00,1.23
6200.00,1.23
6199.00,1.23
6198.00,1.24
6197.00,1.24
6196.00,1.24
6195.00,1.24
6194.00,1.24
6193.00,1.24
6192.00,1.24
6191.00,1.25
6190.00,1.25
6189.00,1.25
6188.00,1.25
6187.00,1.25
6186.00,1.25
6185.00,1.25
6184.00,1.26
6183.00,1.26
6182.00,1.26
6181.00,1.26
6180.00,1.26
6179.00,1.26
6178.00,1.26
6177.00,1.27
6176.00,1.27
6175.00,1.27
6174.00,1.27
6173.00,1.27
6172.00,1.28
6171.00,1.28
6170.00,1.28
6169.00,1.28
6168.00,1.29
6167.00,1.29
6166.00,1.29
6165.00,1.29
6164.00,1.30
6163.00,1.30
6162.00,1.30
6161.00,1.30
6160.00,1.31
6159.00,1.31
6158.00,1.31
6157.00,1.31
6156.00,1.32
6155.00,1.32
6154.00,1.32
6153.00,1.32
6152.00,1.32
6151.00,1.32
6150.00,1.33
6149.00,1.33
6148.00,1.33
6147.00,1.33
6146.00,1.33
6145.00,1.34
6144.00,1.34
6143.00,1.34
6142.00,1.34
6141.00,1.34
6140.00,1.35
6139.00,1.35
6138.00,1.35
6137.00,1.35
6136.00,1.35
6135.00,1.36
6134.00,1.36
6133.00,1.36
6132.00,1.36
6131.00,1.36
6130.00,1.36
6129.00,1.36
6128.00,1.37
6127.00,1.37
6126.00,1.37
6125.00,1.37
6124.00,1.37
6123.00,1.37
6122.00,1.38
6121.00,1.38
6120.00,1.38
6119.00,1.38
6118.00,1.38
6117.00,1.38
6116.00,1.39
6115.00,1.39
6114.00,1.39
6113.00,1.39
6112.00,1.39
6111.00,1.40
6110.00,1.40
6109.00,1.40
6108.00,1.40
6107.00,1.40
6106.00,1.41
6105.00,1.41
6104.00,1.41
6103.00,1.41
6102.00,1.41
6101.00,1.42
6100.00,1.42
6099.00,1.42
6098.00,1.42
6097.00,1.42
6096.00,1.43
6095.00,1.43
6094.00,1.43
6093.00,1.43
6092.00,1.43
6091.00,1.43
6090.00,1.44
6089.00,1.44
6088.00,1.44
6087.00,1.44
6086.00,1.44
6085.00,1.44
6084.00,1.45
6083.00,1.45
6082.00,1.45
6081.00,1.45
6080.00,1.45
6079.00,1.45
6078.00,1.45
6077.00,1.46
6076.00,1.46
6075.00,1.46
6074.00,1.46
6073.00,1.46
6072.00,1.46
6071.00,1.46
6070.00,1.47
6069.00,1.47
6068.00,1.47
6067.00,1.47
6066.00,1.47
6065.00,1.47
6064.00,1.47
6063.00,1.47
6062.00,1.47
6061.00,1.47
6060.00,1.48
6059.00,1.48
6058.00,1.48
6057.00,1.48
6056.00,1.48
6055.00,1.48
6054.00,1.48
6053.00,1.48
6052.00,1.48
6051.00,1.49
6050.00,1.49
6049.00,1.49
6048.00,1.49
6047.00,1.49
6046.00,1.49
6045.00,1.49
6044.00,1.49
6043.00,1.50
6042.00,1.50
6041.00,1.50
6040.00,1.50
6039.00,1.50
6038.00,1.50
6037.00,1.50
6036.00,1.50
6035.00,1.50
6034.00,1.51
6033.00,1.51
6032.00,1.51
6031.00,1.51
6030.00,1.51
6029.00,1.51
6028.00,1.51
6027.00,1.51
6026.00,1.51
6025.00,1.51
6024.00,1.51
6023.00,1.51
6022.00,1.51
6021.00,1.51
6020.00,1.51
6019.00,1.51
6018.00,1.51
6017.00,1.51
6016.00,1.51
6015.00,1.51
6014.00,1.51
6013.00,1.51
6012.00,1.51
6011.00,1.51
6010.00,1.51
6009.00,1.51
6008.00,1.51
6007.00,1.51
6006.00,1.51
6005.00,1.51
6004.00,1.51
6003.00,1.51
6002.00,1.51
6001.00,1.51
6000.00,1.51
5999.00,1.51
5998.00,1.50
5997.00,1.50
5996.00,1.50
5995.00,1.50
5994.00,1.50
5993.00,1.50
5992.00,1.49
5991.00,1.49
5990.00,1.49
5989.00,1.48
5988.00,1.48
5987.00,1.48
5986.00,1.47
5985.00,1.47
5984.00,1.47
5983.00,1.46
5982.00,1.46
5981.00,1.45
5980.00,1.45
5979.00,1.44
5978.00,1.44
5977.00,1.43
5976.00,1.43
5975.00,1.42
5974.00,1.42
5973.00,1.41
5972.00,1.40
5971.00,1.40
5970.00,1.39
5969.00,1.38
5968.00,1.37
5967.00,1.36
5966.00,1.36
5965.00,1.35
5964.00,1.34
5963.00,1.33
5962.00,1.32
5961.00,1.31
5960.00,1.30
5959.00,1.29
5958.00,1.28
5957.00,1.27
5956.00,1.27
5955.00,1.26
5954.00,1.25
5953.00,1.24
5952.00,1.23
5951.00,1.22
5950.00,1.22
5949.00,1.21
5948.00,1.20
5947.00,1.20
5946.00,1.19
5945.00,1.18
5944.00,1.18
5943.00,1.17
5942.00,1.17
5941.00,1.17
5940.00,1.16
5939.00,1.16
5938.00,1.16
5937.00,1.16
5936.00,1.16
5935.00,1.15
5934.00,1.15
5933.00,1.15
5932.00,1.15
5931.00,1.15
5930.00,1.15
5929.00,1.15
5928.00,1.15
5927.00,1.14
5926.00,1.14
5925.00,1.14
5924.00,1.14
5923.00,1.14
5922.00,1.13
5921.00,1.13
5920.00,1.13
5919.00,1.13
5918.00,1.12
5917.00,1.12
5916.00,1.12
5915.00,1.11
5914.00,1.11
5913.00,1.10
5912.00,1.10
5911.00,1.10
5910.00,1.09
5909.00,1.09
5908.00,1.09
5907.00,1.09
5906.00,1.08
5905.00,1.08
5904.00,1.08
5903.00,1.08
5902.00,1.08
5901.00,1.08
5900.00,1.08
5899.00,1.08
5898.00,1.08
5897.00,1.08
5896.00,1.09
5895.00,1.09
5894.00,1.09
5893.00,1.09
5892.00,1.10
5891.00,1.10
5890.00,1.10
5889.00,1.11
5888.00,1.11
5887.00,1.12
5886.00,1.12
5885.00,1.12
5884.00,1.13
5883.00,1.13
5882.00,1.13
5881.00,1.14
5880.00,1.14
5879.00,1.14
5878.00,1.15
5877.00,1.15
5876.00,1.15
5875.00,1.16
5874.00,1.16
5873.00,1.16
5872.00,1.16
5871.00,1.17
5870.00,1.17
5869.00,1.17
5868.00,1.18
5867.00,1.18
5866.00,1.18
5865.00,1.18
5864.00,1.18
5863.00,1.19
5862.00,1.19
5861.00,1.19
5860.00,1.19
5859.00,1.19
5858.00,1.20
5857.00,1.20
5856.00,1.20
5855.00,1.20
5854.00,1.20
5853.00,1.20
5852.00,1.21
5851.00,1.21
5850.00,1.21
5849.00,1.21
5848.00,1.21
5847.00,1.21
5846.00,1.21
5845.00,1.21
5844.00,1.21
5843.00,1.21
5842.00,1.21
5841.00,1.21
5840.00,1.21
5839.00,1.21
5838.00,1.21
5837.00,1.21
5836.00,1.21
5835.00,1.21
5834.00,1.21
5833.00,1.21
5832.00,1.21
5831.00,1.21
5830.00,1.21
5829.00,1.21
5828.00,1.21
5827.00,1.21
5826.00,1.21
5825.00,1.21
5824.00,1.21
5823.00,1.21
5822.00,1.21
5821.00,1.21
5820.00,1.21
5819.00,1.21
5818.00,1.21
5817.00,1.21
5816.00,1.21
5815.00,1.21
5814.00,1.21
5813.00,1.21
5812.00,1.21
5811.00,1.21
5810.00,1.21
5809.00,1.21
5808.00,1.21
5807.00,1.21
5806.00,1.21
5805.00,1.20
5804.00,1.20
5803.00,1.20
5802.00,1.20
5801.00,1.20
5800.00,1.20
5799.00,1.20
5798.00,1.19
5797.00,1.19
5796.00,1.19
5795.00,1.19
5794.00,1.19
5793.00,1.18
5792.00,1.18
5791.00,1.18
5790.00,1.18
5789.00,1.17
5788.00,1.17
5787.00,1.17
5786.00,1.16
5785.00,1.16
5784.00,1.16
5783.00,1.16
5782.00,1.15
5781.00,1.15
5780.00,1.15
5779.00,1.15
5778.00,1.15
5777.00,1.15
5776.00,1.14
5775.00,1.14
5774.00,1.14
5773.00,1.14
5772.00,1.14
5771.00,1.14
5770.00,1.14
5769.00,1.15
5768.00,1.15
5767.00,1.15
5766.00,1.15
5765.00,1.15
5764.00,1.15
5763.00,1.16
5762.00,1.16
5761.00,1.16
5760.00,1.17
5759.00,1.17
5758.00,1.17
5757.00,1.18
5756.00,1.18
5755.00,1.19
5754.00,1.19
5753.00,1.19
5752.00,1.20
5751.00,1.20
5750.00,1.21
5749.00,1.21
5748.00,1.22
5747.00,1.22
5746.00,1.23
5745.00,1.23
5744.00,1.23
5743.00,1.24
5742.00,1.24
5741.00,1.25
5740.00,1.25
5739.00,1.25
5738.00,1.26
5737.00,1.26
5736.00,1.26
5735.00,1.27
5734.00,1.27
5733.00,1.27
5732.00,1.28
5731.00,1.28
5730.00,1.28
5729.00,1.28
5728.00,1.28
5727.00,1.28
5726.00,1.29
5725.00,1.29
5724.00,1.29
5723.00,1.29
5722.00,1.29
5721.00,1.29
5720.00,1.29
5719.00,1.29
5718.00,1.29
5717.00,1.29
5716.00,1.29
5715.00,1.29
5714.00,1.29
5713.00,1.29
5712.00,1.29
5711.00,1.29
5710.00,1.29
5709.00,1.29
5708.00,1.29
5707.00,1.29
5706.00,1.29
5705.00,1.29
5704.00,1.29
5703.00,1.29
5702.00,1.29
5701.00,1.29
5700.00,1.29
5699.00,1.28
5698.00,1.28
5697.00,1.28
5696.00,1.28
5695.00,1.28
5694.00,1.27
5693.00,1.27
5692.00,1.27
5691.00,1.27
5690.00,1.27
5689.00,1.26
5688.00,1.26
5687.00,1.26
5686.00,1.26
5685.00,1.26
5684.00,1.25
5683.00,1.25
5682.00,1.25
5681.00,1.25
5680.00,1.25
5679.00,1.25
5678.00,1.25
5677.00,1.24
5676.00,1.24
5675.00,1.24
5674.00,1.24
5673.00,1.24
5672.00,1.24
5671.00,1.24
5670.00,1.24
5669.00,1.24
5668.00,1.24
5667.00,1.24
5666.00,1.25
5665.00,1.25
5664.00,1.25
5663.00,1.25
5662.00,1.25
5661.00,1.25
5660.00,1.26
5659.00,1.26
5658.00,1.26
5657.00,1.26
5656.00,1.27
5655.00,1.27
5654.00,1.27
5653.00,1.28
5652.00,1.28
5651.00,1.28
5650.00,1.29
5649.00,1.29
5648.00,1.29
5647.00,1.29
5646.00,1.30
5645.00,1.30
5644.00,1.30
5643.00,1.30
5642.00,1.31
5641.00,1.31
5640.00,1.31
5639.00,1.31
5638.00,1.32
5637.00,1.32
5636.00,1.32
5635.00,1.32
5634.00,1.33
5633.00,1.33
5632.00,1.33
5631.00,1.33
5630.00,1.33
5629.00,1.34
5628.00,1.34
5627.00,1.34
5626.00,1.34
5625.00,1.34
5624.00,1.35
5623.00,1.35
5622.00,1.35
5621.00,1.35
5620.00,1.35
5619.00,1.36
5618.00,1.36
5617.00,1.36
5616.00,1.36
5615.00,1.36
5614.00,1.37
5613.00,1.37
5612.00,1.37
5611.00,1.37
5610.00,1.38
5609.00,1.38
5608.00,1.38
5607.00,1.38
5606.00,1.39
5605.00,1.39
5604.00,1.39
5603.00,1.39
5602.00,1.40
5601.00,1.40
5600.00,1.40
5599.00,1.40
5598.00,1.41
5597.00,1.41
5596.00,1.41
5595.00,1.41
5594.00,1.42
5593.00,1.42
5592.00,1.42
5591.00,1.42
5590.00,1.42
5589.00,1.43
5588.00,1.43
5587.00,1.43
5586.00,1.43
5585.00,1.43
5584.00,1.44
5583.00,1.44
5582.00,1.44
5581.00,1.44
5580.00,1.44
5579.00,1.45
5578.00,1.45
5577.00,1.45
5576.00,1.45
5575.00,1.45
5574.00,1.46
5573.00,1.46
5572.00,1.46
5571.00,1.46
5570.00,1.46
5569.00,1.47
5568.00,1.47
5567.00,1.47
5566.00,1.47
5565.00,1.48
5564.00,1.48
5563.00,1.48
5562.00,1.48
5561.00,1.48
5560.00,1.49
5559.00,1.49
5558.00,1.49
5557.00,1.49
5556.00,1.49
5555.00,1.50
5554.00,1.50
5553.00,1.50
5552.00,1.50
5551.00,1.50
5550.00,1.50
5549.00,1.51
5548.00,1.51
5547.00,1.51
5546.00,1.51
5545.00,1.51
5544.00,1.52
5543.00,1.52
5542.00,1.52
5541.00,1.52
5540.00,1.52
5539.00,1.52
5538.00,1.53
5537.00,1.53
5536.00,1.53
5535.00,1.53
5534.00,1.53
5533.00,1.53
5532.00,1.53
5531.00,1.53
5530.00,1.54
5529.00,1.54
5528.00,1.54
5527.00,1.54
5526.00,1.54
5525.00,1.54
5524.00,1.54
5523.00,1.54
5522.00,1.54
5521.00,1.54
5520.00,1.54
5519.00,1.54
5518.00,1.54
5517.00,1.55
5516.00,1.55
5515.00,1.55
5514.00,1.55
5513.00,1.55
5512.00,1.55
5511.00,1.55
5510.00,1.55
5509.00,1.55
5508.00,1.56
5507.00,1.56
5506.00,1.56
5505.00,1.56
5504.00,1.56
5503.00,1.56
5502.00,1.56
5501.00,1.56
5500.00,1.56
5499.00,1.56
5498.00,1.57
5497.00,1.57
5496.00,1.57
5495.00,1.57
5494.00,1.57
5493.00,1.57
5492.00,1.57
5491.00,1.57
5490.00,1.57
5489.00,1.58
5488.00,1.58
5487.00,1.58
5486.00,1.58
5485.00,1.58
5484.00,1.58
5483.00,1.59
5482.00,1.59
5481.00,1.59
5480.00,1.59
5479.00,1.59
5478.00,1.60
5477.00,1.60
5476.00,1.60
5475.00,1.60
5474.00,1.60
5473.00,1.60
5472.00,1.61
5471.00,1.61
5470.00,1.61
5469.00,1.61
5468.00,1.61
5467.00,1.61
5466.00,1.61
5465.00,1.62
5464.00,1.62
5463.00,1.62
5462.00,1.62
5461.00,1.62
5460.00,1.62
5459.00,1.62
5458.00,1.63
5457.00,1.63
5456.00,1.63
5455.00,1.63
5454.00,1.63
5453.00,1.63
5452.00,1.63
5451.00,1.63
5450.00,1.64
5449.00,1.64
5448.00,1.64
5447.00,1.64
5446.00,1.64
5445.00,1.64
5444.00,1.64
5443.00,1.64
5442.00,1.64
5441.00,1.64
5440.00,1.64
5439.00,1.64
5438.00,1.64
5437.00,1.64
5436.00,1.64
5435.00,1.64
5434.00,1.64
5433.00,1.64
5432.00,1.64
5431.00,1.64
5430.00,1.64
5429.00,1.64
5428.00,1.64
5427.00,1.64
5426.00,1.64
5425.00,1.64
5424.00,1.64
5423.00,1.64
5422.00,1.64
5421.00,1.64
5420.00,1.64
5419.00,1.64
5418.00,1.64
5417.00,1.64
5416.00,1.64
5415.00,1.64
5414.00,1.64
5413.00,1.64
5412.00,1.64
5411.00,1.64
5410.00,1.64
5409.00,1.64
5408.00,1.64
5407.00,1.64
5406.00,1.64
5405.00,1.64
5404.00,1.64
5403.00,1.64
5402.00,1.64
5401.00,1.64
5400.00,1.63
5399.00,1.63
5398.00,1.63
5397.00,1.63
5396.00,1.63
5395.00,1.63
5394.00,1.63
5393.00,1.62
5392.00,1.62
5391.00,1.62
5390.00,1.62
5389.00,1.61
5388.00,1.61
5387.00,1.61
5386.00,1.60
5385.00,1.60
5384.00,1.60
5383.00,1.59
5382.00,1.59
5381.00,1.58
5380.00,1.58
5379.00,1.58
5378.00,1.57
5377.00,1.57
5376.00,1.56
5375.00,1.56
5374.00,1.55
5373.00,1.55
5372.00,1.54
5371.00,1.53
5370.00,1.53
5369.00,1.52
5368.00,1.52
5367.00,1.51
5366.00,1.50
5365.00,1.50
5364.00,1.49
5363.00,1.48
5362.00,1.47
5361.00,1.46
5360.00,1.46
5359.00,1.45
5358.00,1.44
5357.00,1.43
5356.00,1.42
5355.00,1.41
5354.00,1.40
5353.00,1.39
5352.00,1.38
5351.00,1.37
5350.00,1.36
5349.00,1.35
5348.00,1.34
5347.00,1.32
5346.00,1.31
5345.00,1.30
5344.00,1.29
5343.00,1.27
5342.00,1.26
5341.00,1.25
5340.00,1.24
5339.00,1.22
5338.00,1.21
5337.00,1.20
5336.00,1.18
5335.00,1.17
5334.00,1.16
5333.00,1.14
5332.00,1.13
5331.00,1.12
5330.00,1.10
5329.00,1.09
5328.00,1.08
5327.00,1.07
5326.00,1.05
5325.00,1.04
5324.00,1.03
5323.00,1.02
5322.00,1.00
5321.00,0.99
5320.00,0.98
5319.00,0.97
5318.00,0.96
5317.00,0.95
5316.00,0.94
5315.00,0.92
5314.00,0.91
5313.00,0.90
5312.00,0.89
5311.00,0.89
5310.00,0.88
5309.00,0.87
5308.00,0.86
5307.00,0.85
5306.00,0.84
5305.00,0.84
5304.00,0.83
5303.00,0.82
5302.00,0.82
5301.00,0.81
5300.00,0.80
5299.00,0.80
5298.00,0.79
5297.00,0.79
5296.00,0.78
5295.00,0.78
5294.00,0.78
5293.00,0.77
5292.00,0.77
5291.00,0.77
5290.00,0.76
5289.00,0.76
5288.00,0.76
5287.00,0.76
5286.00,0.75
5285.00,0.75
5284.00,0.75
5283.00,0.75
5282.00,0.75
5281.00,0.75
5280.00,0.74
5279.00,0.74
5278.00,0.74
5277.00,0.74
5276.00,0.74
5275.00,0.74
5274.00,0.74
5273.00,0.74
5272.00,0.74
5271.00,0.74
5270.00,0.74
5269.00,0.74
5268.00,0.73
5267.00,0.73
5266.00,0.73
5265.00,0.73
5264.00,0.73
5263.00,0.73
5262.00,0.73
5261.00,0.73
5260.00,0.73
5259.00,0.73
5258.00,0.73
5257.00,0.73
5256.00,0.73
5255.00,0.73
5254.00,0.73
5253.00,0.73
5252.00,0.73
5251.00,0.73
5250.00,0.73
5249.00,0.73
5248.00,0.73
5247.00,0.73
5246.00,0.73
5245.00,0.73
5244.00,0.73
5243.00,0.73
5242.00,0.73
5241.00,0.73
5240.00,0.73
5239.00,0.73
5238.00,0.73
5237.00,0.73
5236.00,0.73
5235.00,0.73
5234.00,0.73
5233.00,0.73
5232.00,0.73
5231.00,0.73
5230.00,0.73
5229.00,0.73
5228.00,0.73
5227.00,0.73
5226.00,0.73
5225.00,0.73
5224.00,0.73
5223.00,0.73
5222.00,0.73
5221.00,0.73
5220.00,0.73
5219.00,0.74
5218.00,0.74
5217.00,0.74
5216.00,0.74
5215.00,0.74
5214.00,0.74
5213.00,0.74
5212.00,0.74
5211.00,0.74
5210.00,0.74
5209.00,0.74
5208.00,0.74
5207.00,0.74
5206.00,0.74
5205.00,0.74
5204.00,0.74
5203.00,0.74
5202.00,0.74
5201.00,0.74
5200.00,0.74
5199.00,0.74
5198.00,0.74
5197.00,0.74
5196.00,0.74
5195.00,0.74
5194.00,0.75
5193.00,0.75
5192.00,0.75
5191.00,0.75
5190.00,0.75
5189.00,0.75
5188.00,0.75
5187.00,0.75
5186.00,0.75
5185.00,0.75
5184.00,0.75
5183.00,0.75
5182.00,0.75
5181.00,0.75
5180.00,0.75
5179.00,0.76
5178.00,0.76
5177.00,0.76
5176.00,0.76
5175.00,0.76
5174.00,0.76
5173.00,0.76
5172.00,0.76
5171.00,0.76
5170.00,0.76
5169.00,0.76
5168.00,0.76
5167.00,0.76
5166.00,0.77
5165.00,0.77
5164.00,0.77
5163.00,0.77
5162.00,0.77
5161.00,0.77
5160.00,0.77
5159.00,0.77
5158.00,0.77
5157.00,0.77
5156.00,0.77
5155.00,0.77
5154.00,0.77
5153.00,0.77
5152.00,0.77
5151.00,0.77
5150.00,0.77
5149.00,0.77
5148.00,0.77
5147.00,0.77
5146.00,0.77
5145.00,0.77
5144.00,0.77
5143.00,0.77
5142.00,0.77
5141.00,0.78
5140.00,0.78
5139.00,0.78
5138.00,0.78
5137.00,0.78
5136.00,0.78
5135.00,0.78
5134.00,0.78
5133.00,0.78
5132.00,0.78
5131.00,0.78
5130.00,0.78
5129.00,0.78
5128.00,0.78
5127.00,0.78
5126.00,0.78
5125.00,0.78
5124.00,0.78
5123.00,0.78
5122.00,0.78
5121.00,0.78
5120.00,0.78
5119.00,0.78
5118.00,0.78
5117.00,0.79
5116.00,0.79
5115.00,0.79
5114.00,0.79
5113.00,0.79
5112.00,0.79
5111.00,0.79
5110.00,0.79
5109.00,0.79
5108.00,0.79
5107.00,0.79
5106.00,0.79
5105.00,0.79
5104.00,0.79
5103.00,0.79
5102.00,0.79
5101.00,0.80
5100.00,0.80
5099.00,0.80
5098.00,0.80
5097.00,0.80
5096.00,0.80
5095.00,0.80
5094.00,0.80
5093.00,0.80
5092.00,0.80
5091.00,0.80
5090.00,0.81
5089.00,0.81
5088.00,0.81
5087.00,0.81
5086.00,0.81
5085.00,0.81
5084.00,0.81
5083.00,0.81
5082.00,0.81
5081.00,0.81
5080.00,0.81
5079.00,0.81
5078.00,0.81
5077.00,0.81
5076.00,0.81
5075.00,0.81
5074.00,0.81
5073.00,0.81
5072.00,0.81
5071.00,0.81
5070.00,0.81
5069.00,0.81
5068.00,0.82
5067.00,0.82
5066.00,0.82
5065.00,0.82
5064.00,0.82
5063.00,0.82
5062.00,0.82
5061.00,0.82
5060.00,0.82
5059.00,0.82
5058.00,0.83
5057.00,0.83
5056.00,0.83
5055.00,0.83
5054.00,0.83
5053.00,0.83
5052.00,0.83
5051.00,0.83
5050.00,0.83
5049.00,0.83
5048.00,0.83
5047.00,0.83
5046.00,0.83
5045.00,0.83
5044.00,0.83
5043.00,0.83
5042.00,0.84
5041.00,0.84
5040.00,0.84
5039.00,0.84
5038.00,0.84
5037.00,0.84
5036.00,0.84
5035.00,0.84
5034.00,0.84
5033.00,0.84
5032.00,0.84
5031.00,0.84
5030.00,0.84
5029.00,0.85
5028.00,0.85
5027.00,0.85
5026.00,0.85
5025.00,0.85
5024.00,0.85
5023.00,0.85
5022.00,0.85
5021.00,0.85
5020.00,0.86
5019.00,0.86
5018.00,0.86
5017.00,0.86
5016.00,0.86
5015.00,0.86
5014.00,0.86
5013.00,0.86
5012.00,0.87
5011.00,0.87
5010.00,0.87
5009.00,0.87
5008.00,0.87
5007.00,0.87
5006.00,0.87
5005.00,0.87
5004.00,0.87
5003.00,0.88
5002.00,0.88
5001.00,0.88
5000.00,0.88
4999.00,0.88
4998.00,0.88
4997.00,0.88
4996.00,0.88
4995.00,0.89
4994.00,0.89
4993.00,0.89
4992.00,0.89
4991.00,0.89
4990.00,0.89
4989.00,0.89
4988.00,0.89
4987.00,0.89
4986.00,0.89
4985.00,0.89
4984.00,0.89
4983.00,0.89
4982.00,0.89
4981.00,0.89
4980.00,0.89
4979.00,0.90
4978.00,0.90
4977.00,0.90
4976.00,0.90
4975.00,0.90
4974.00,0.90
4973.00,0.90
4972.00,0.90
4971.00,0.90
4970.00,0.90
4969.00,0.90
4968.00,0.90
4967.00,0.90
4966.00,0.91
4965.00,0.91
4964.00,0.91
4963.00,0.91
4962.00,0.91
4961.00,0.91
4960.00,0.91
4959.00,0.91
4958.00,0.91
4957.00,0.92
4956.00,0.92
4955.00,0.92
4954.00,0.92
4953.00,0.92
4952.00,0.92
4951.00,0.92
4950.00,0.92
4949.00,0.92
4948.00,0.92
4947.00,0.92
4946.00,0.93
4945.00,0.93
4944.00,0.93
4943.00,0.93
4942.00,0.93
4941.00,0.93
4940.00,0.93
4939.00,0.93
4938.00,0.93
4937.00,0.94
4936.00,0.94
4935.00,0.94
4934.00,0.94
4933.00,0.94
4932.00,0.94
4931.00,0.94
4930.00,0.94
4929.00,0.95
4928.00,0.95
4927.00,0.95
4926.00,0.95
4925.00,0.95
4924.00,0.95
4923.00,0.95
4922.00,0.95
4921.00,0.95
4920.00,0.95
4919.00,0.95
4918.00,0.96
4917.00,0.96
4916.00,0.96
4915.00,0.96
4914.00,0.96
4913.00,0.96
4912.00,0.96
4911.00,0.96
4910.00,0.96
4909.00,0.96
4908.00,0.96
4907.00,0.96
4906.00,0.97
4905.00,0.97
4904.00,0.97
4903.00,0.97
4902.00,0.97
4901.00,0.97
4900.00,0.97
4899.00,0.97
4898.00,0.97
4897.00,0.97
4896.00,0.97
4895.00,0.97
4894.00,0.97
4893.00,0.97
4892.00,0.97
4891.00,0.97
4890.00,0.97
4889.00,0.97
4888.00,0.97
4887.00,0.97
4886.00,0.98
4885.00,0.98
4884.00,0.98
4883.00,0.98
4882.00,0.98
4881.00,0.98
4880.00,0.98
4879.00,0.98
4878.00,0.98
4877.00,0.98
4876.00,0.98
4875.00,0.98
4874.00,0.98
4873.00,0.98
4872.00,0.98
4871.00,0.98
4870.00,0.98
4869.00,0.99
4868.00,0.99
4867.00,0.99
4866.00,0.99
4865.00,0.99
4864.00,0.99
4863.00,0.99
4862.00,0.99
4861.00,0.99
4860.00,0.99
4859.00,0.99
4858.00,0.99
4857.00,0.99
4856.00,0.99
4855.00,0.99
4854.00,0.99
4853.00,1.00
4852.00,1.00
4851.00,1.00
4850.00,1.00
4849.00,1.00
4848.00,1.00
4847.00,1.00
4846.00,1.01
4845.00,1.01
4844.00,1.01
4843.00,1.01
4842.00,1.01
4841.00,1.01
4840.00,1.01
4839.00,1.01
4838.00,1.02
4837.00,1.02
4836.00,1.02
4835.00,1.02
4834.00,1.02
4833.00,1.02
4832.00,1.02
4831.00,1.02
4830.00,1.02
4829.00,1.02
4828.00,1.02
4827.00,1.02
4826.00,1.03
4825.00,1.03
4824.00,1.03
4823.00,1.03
4822.00,1.03
4821.00,1.03
4820.00,1.03
4819.00,1.03
4818.00,1.03
4817.00,1.03
4816.00,1.04
4815.00,1.04
4814.00,1.04
4813.00,1.04
4812.00,1.04
4811.00,1.04
4810.00,1.04
4809.00,1.04
4808.00,1.04
4807.00,1.04
4806.00,1.04
4805.00,1.04
4804.00,1.04
4803.00,1.04
4802.00,1.05
4801.00,1.05
4800.00,1.05
4799.00,1.05
4798.00,1.05
4797.00,1.05
4796.00,1.05
4795.00,1.05
4794.00,1.05
4793.00,1.06
4792.00,1.06
4791.00,1.06
4790.00,1.06
4789.00,1.06
4788.00,1.06
4787.00,1.07
4786.00,1.07
4785.00,1.07
4784.00,1.07
4783.00,1.07
4782.00,1.08
4781.00,1.08
4780.00,1.08
4779.00,1.08
4778.00,1.08
4777.00,1.08
4776.00,1.08
4775.00,1.09
4774.00,1.09
4773.00,1.09
4772.00,1.09
4771.00,1.09
4770.00,1.09
4769.00,1.09
4768.00,1.10
4767.00,1.10
4766.00,1.10
4765.00,1.10
4764.00,1.10
4763.00,1.10
4762.00,1.11
4761.00,1.11
4760.00,1.11
4759.00,1.11
4758.00,1.11
4757.00,1.12
4756.00,1.12
4755.00,1.12
4754.00,1.12
4753.00,1.12
4752.00,1.12
4751.00,1.12
4750.00,1.12
4749.00,1.13
4748.00,1.13
4747.00,1.13
4746.00,1.13
4745.00,1.13
4744.00,1.13
4743.00,1.13
4742.00,1.13
4741.00,1.14
4740.00,1.14
4739.00,1.14
4738.00,1.14
4737.00,1.14
4736.00,1.14
4735.00,1.14
4734.00,1.15
4733.00,1.15
4732.00,1.15
4731.00,1.15
4730.00,1.15
4729.00,1.15
4728.00,1.16
4727.00,1.16
4726.00,1.16
4725.00,1.16
4724.00,1.17
4723.00,1.17
4722.00,1.17
4721.00,1.17
4720.00,1.18
4719.00,1.18
4718.00,1.18
4717.00,1.18
4716.00,1.18
4715.00,1.19
4714.00,1.19
4713.00,1.19
4712.00,1.19
4711.00,1.19
4710.00,1.19
4709.00,1.20
4708.00,1.20
4707.00,1.20
4706.00,1.20
4705.00,1.20
4704.00,1.20
4703.00,1.21
4702.00,1.21
4701.00,1.21
4700.00,1.21
4699.00,1.21
4698.00,1.22
4697.00,1.22
4696.00,1.22
4695.00,1.22
4694.00,1.23
4693.00,1.23
4692.00,1.23
4691.00,1.23
4690.00,1.23
4689.00,1.24
4688.00,1.24
4687.00,1.24
4686.00,1.24
4685.00,1.24
4684.00,1.24
4683.00,1.25
4682.00,1.25
4681.00,1.25
4680.00,1.25
4679.00,1.25
4678.00,1.26
4677.00,1.26
4676.00,1.26
4675.00,1.26
4674.00,1.26
4673.00,1.26
4672.00,1.27
4671.00,1.27
4670.00,1.27
4669.00,1.27
4668.00,1.27
4667.00,1.27
4666.00,1.28
4665.00,1.28
4664.00,1.28
4663.00,1.28
4662.00,1.28
4661.00,1.29
4660.00,1.29
4659.00,1.29
4658.00,1.29
4657.00,1.29
4656.00,1.29
4655.00,1.30
4654.00,1.30
4653.00,1.30
4652.00,1.30
4651.00,1.30
4650.00,1.30
4649.00,1.31
4648.00,1.31
4647.00,1.31
4646.00,1.31
4645.00,1.31
4644.00,1.31
4643.00,1.31
4642.00,1.31
4641.00,1.32
4640.00,1.32
4639.00,1.32
4638.00,1.32
4637.00,1.32
4636.00,1.32
4635.00,1.33
4634.00,1.33
4633.00,1.33
4632.00,1.33
4631.00,1.33
4630.00,1.33
4629.00,1.34
4628.00,1.34
4627.00,1.34
4626.00,1.34
4625.00,1.34
4624.00,1.34
4623.00,1.35
4622.00,1.35
4621.00,1.35
4620.00,1.35
4619.00,1.35
4618.00,1.35
4617.00,1.35
4616.00,1.36
4615.00,1.36
4614.00,1.36
4613.00,1.36
4612.00,1.36
4611.00,1.36
4610.00,1.36
4609.00,1.36
4608.00,1.36
4607.00,1.37
4606.00,1.37
4605.00,1.37
4604.00,1.37
4603.00,1.37
4602.00,1.37
4601.00,1.37
4600.00,1.37
4599.00,1.37
4598.00,1.38
4597.00,1.38
4596.00,1.38
4595.00,1.38
4594.00,1.38
4593.00,1.38
4592.00,1.38
4591.00,1.38
4590.00,1.39
4589.00,1.39
4588.00,1.39
4587.00,1.39
4586.00,1.39
4585.00,1.39
4584.00,1.39
4583.00,1.39
4582.00,1.40
4581.00,1.40
4580.00,1.40
4579.00,1.40
4578.00,1.40
4577.00,1.41
4576.00,1.41
4575.00,1.41
4574.00,1.41
4573.00,1.41
4572.00,1.42
4571.00,1.42
4570.00,1.42
4569.00,1.42
4568.00,1.42
4567.00,1.42
4566.00,1.42
4565.00,1.42
4564.00,1.43
4563.00,1.43
4562.00,1.43
4561.00,1.43
4560.00,1.43
4559.00,1.43
4558.00,1.43
4557.00,1.43
4556.00,1.43
4555.00,1.43
4554.00,1.43
4553.00,1.43
4552.00,1.43
4551.00,1.43
4550.00,1.43
4549.00,1.44
4548.00,1.44
4547.00,1.44
4546.00,1.44
4545.00,1.44
4544.00,1.44
4543.00,1.44
4542.00,1.45
4541.00,1.45
4540.00,1.45
4539.00,1.45
4538.00,1.45
4537.00,1.45
4536.00,1.45
4535.00,1.45
4534.00,1.45
4533.00,1.45
4532.00,1.45
4531.00,1.45
4530.00,1.45
4529.00,1.45
4528.00,1.45
4527.00,1.45
4526.00,1.45
4525.00,1.45
4524.00,1.45
4523.00,1.45
4522.00,1.45
4521.00,1.45
4520.00,1.45
4519.00,1.45
4518.00,1.46
4517.00,1.46
4516.00,1.46
4515.00,1.46
4514.00,1.46
4513.00,1.46
4512.00,1.46
4511.00,1.46
4510.00,1.46
4509.00,1.46
4508.00,1.46
4507.00,1.46
4506.00,1.46
4505.00,1.46
4504.00,1.46
4503.00,1.46
4502.00,1.46
4501.00,1.46
4500.00,1.46
4499.00,1.46
4498.00,1.46
4497.00,1.46
4496.00,1.46
4495.00,1.46
4494.00,1.46
4493.00,1.46
4492.00,1.46
4491.00,1.45
4490.00,1.45
4489.00,1.45
4488.00,1.45
4487.00,1.45
4486.00,1.45
4485.00,1.45
4484.00,1.45
4483.00,1.44
4482.00,1.44
4481.00,1.44
4480.00,1.44
4479.00,1.43
4478.00,1.43
4477.00,1.43
4476.00,1.43
4475.00,1.42
4474.00,1.42
4473.00,1.42
4472.00,1.42
4471.00,1.41
4470.00,1.41
4469.00,1.41
4468.00,1.41
4467.00,1.40
4466.00,1.40
4465.00,1.40
4464.00,1.39
4463.00,1.39
4462.00,1.39
4461.00,1.38
4460.00,1.38
4459.00,1.38
4458.00,1.37
4457.00,1.37
4456.00,1.36
4455.00,1.36
4454.00,1.35
4453.00,1.35
4452.00,1.34
4451.00,1.34
4450.00,1.33
4449.00,1.33
4448.00,1.32
4447.00,1.32
4446.00,1.31
4445.00,1.31
4444.00,1.31
4443.00,1.30
4442.00,1.30
4441.00,1.29
4440.00,1.29
4439.00,1.29
4438.00,1.28
4437.00,1.28
4436.00,1.27
4435.00,1.27
4434.00,1.27
4433.00,1.27
4432.00,1.26
4431.00,1.26
4430.00,1.26
4429.00,1.26
4428.00,1.25
4427.00,1.25
4426.00,1.25
4425.00,1.25
4424.00,1.25
4423.00,1.25
4422.00,1.25
4421.00,1.25
4420.00,1.25
4419.00,1.24
4418.00,1.24
4417.00,1.24
4416.00,1.24
4415.00,1.24
4414.00,1.24
4413.00,1.24
4412.00,1.24
4411.00,1.24
4410.00,1.24
4409.00,1.24
4408.00,1.24
4407.00,1.24
4406.00,1.24
4405.00,1.24
4404.00,1.25
4403.00,1.25
4402.00,1.25
4401.00,1.25
4400.00,1.25
4399.00,1.25
4398.00,1.26
4397.00,1.26
4396.00,1.26
4395.00,1.26
4394.00,1.27
4393.00,1.27
4392.00,1.27
4391.00,1.27
4390.00,1.27
4389.00,1.28
4388.00,1.28
4387.00,1.28
4386.00,1.28
4385.00,1.28
4384.00,1.28
4383.00,1.28
4382.00,1.28
4381.00,1.28
4380.00,1.28
4379.00,1.28
4378.00,1.28
4377.00,1.28
4376.00,1.28
4375.00,1.28
4374.00,1.29
4373.00,1.29
4372.00,1.29
4371.00,1.29
4370.00,1.29
4369.00,1.29
4368.00,1.29
4367.00,1.29
4366.00,1.29
4365.00,1.29
4364.00,1.29
4363.00,1.29
4362.00,1.29
4361.00,1.29
4360.00,1.30
4359.00,1.30
4358.00,1.30
4357.00,1.30
4356.00,1.30
4355.00,1.30
4354.00,1.30
4353.00,1.30
4352.00,1.30
4351.00,1.30
4350.00,1.30
4349.00,1.30
4348.00,1.30
4347.00,1.30
4346.00,1.30
4345.00,1.30
4344.00,1.30
4343.00,1.30
4342.00,1.30
4341.00,1.30
4340.00,1.30
4339.00,1.30
4338.00,1.30
4337.00,1.30
4336.00,1.30
4335.00,1.30
4334.00,1.31
4333.00,1.31
4332.00,1.31
4331.00,1.31
4330.00,1.31
4329.00,1.31
4328.00,1.32
4327.00,1.32
4326.00,1.32
4325.00,1.32
4324.00,1.33
4323.00,1.33
4322.00,1.33
4321.00,1.33
4320.00,1.33
4319.00,1.34
4318.00,1.34
4317.00,1.34
4316.00,1.34
4315.00,1.34
4314.00,1.34
4313.00,1.34
4312.00,1.35
4311.00,1.35
4310.00,1.35
4309.00,1.35
4308.00,1.35
4307.00,1.35
4306.00,1.36
4305.00,1.36
4304.00,1.36
4303.00,1.36
4302.00,1.37
4301.00,1.37
4300.00,1.37
4299.00,1.37
4298.00,1.38
4297.00,1.38
4296.00,1.38
4295.00,1.38
4294.00,1.39
4293.00,1.39
4292.00,1.39
4291.00,1.39
4290.00,1.39
4289.00,1.39
4288.00,1.39
4287.00,1.39
4286.00,1.39
4285.00,1.39
4284.00,1.39
4283.00,1.39
4282.00,1.39
4281.00,1.39
4280.00,1.39
4279.00,1.39
4278.00,1.39
4277.00,1.39
4276.00,1.39
4275.00,1.39
4274.00,1.39
4273.00,1.39
4272.00,1.39
4271.00,1.39
4270.00,1.39
4269.00,1.39
4268.00,1.39
4267.00,1.39
4266.00,1.39
4265.00,1.39
4264.00,1.39
4263.00,1.39
4262.00,1.39
4261.00,1.39
4260.00,1.39
4259.00,1.39
4258.00,1.39
4257.00,1.40
4256.00,1.40
4255.00,1.40
4254.00,1.40
4253.00,1.40
4252.00,1.40
4251.00,1.40
4250.00,1.40
4249.00,1.40
4248.00,1.40
4247.00,1.40
4246.00,1.41
4245.00,1.41
4244.00,1.41
4243.00,1.41
4242.00,1.41
4241.00,1.41
4240.00,1.41
4239.00,1.41
4238.00,1.42
4237.00,1.42
4236.00,1.42
4235.00,1.42
4234.00,1.42
4233.00,1.42
4232.00,1.43
4231.00,1.43
4230.00,1.43
4229.00,1.43
4228.00,1.43
4227.00,1.43
4226.00,1.44
4225.00,1.44
4224.00,1.44
4223.00,1.44
4222.00,1.44
4221.00,1.44
4220.00,1.44
4219.00,1.44
4218.00,1.44
4217.00,1.44
4216.00,1.45
4215.00,1.45
4214.00,1.45
4213.00,1.45
4212.00,1.45
4211.00,1.45
4210.00,1.45
4209.00,1.45
4208.00,1.45
4207.00,1.45
4206.00,1.45
4205.00,1.45
4204.00,1.45
4203.00,1.45
4202.00,1.45
4201.00,1.45
4200.00,1.45
4199.00,1.45
4198.00,1.45
4197.00,1.45
4196.00,1.45
4195.00,1.45
4194.00,1.45
4193.00,1.45
4192.00,1.45
4191.00,1.45
4190.00,1.46
4189.00,1.46
4188.00,1.46
4187.00,1.46
4186.00,1.46
4185.00,1.46
4184.00,1.46
4183.00,1.46
4182.00,1.46
4181.00,1.46
4180.00,1.46
4179.00,1.46
4178.00,1.46
4177.00,1.46
4176.00,1.46
4175.00,1.46
4174.00,1.47
4173.00,1.47
4172.00,1.47
4171.00,1.47
4170.00,1.47
4169.00,1.47
4168.00,1.47
4167.00,1.47
4166.00,1.48
4165.00,1.48
4164.00,1.48
4163.00,1.48
4162.00,1.48
4161.00,1.48
4160.00,1.48
4159.00,1.48
4158.00,1.48
4157.00,1.48
4156.00,1.48
4155.00,1.48
4154.00,1.48
4153.00,1.48
4152.00,1.48
4151.00,1.48
4150.00,1.48
4149.00,1.48
4148.00,1.48
4147.00,1.48
4146.00,1.48
4145.00,1.49
4144.00,1.49
4143.00,1.49
4142.00,1.49
4141.00,1.49
4140.00,1.49
4139.00,1.49
4138.00,1.49
4137.00,1.49
4136.00,1.49
4135.00,1.50
4134.00,1.50
4133.00,1.50
4132.00,1.50
4131.00,1.50
4130.00,1.50
4129.00,1.51
4128.00,1.51
4127.00,1.51
4126.00,1.51
4125.00,1.51
4124.00,1.51
4123.00,1.51
4122.00,1.51
4121.00,1.51
4120.00,1.52
4119.00,1.52
4118.00,1.52
4117.00,1.52
4116.00,1.52
4115.00,1.52
4114.00,1.52
4113.00,1.52
4112.00,1.52
4111.00,1.51
4110.00,1.51
4109.00,1.51
4108.00,1.51
4107.00,1.51
4106.00,1.51
4105.00,1.51
4104.00,1.51
4103.00,1.51
4102.00,1.51
4101.00,1.51
4100.00,1.52
4099.00,1.52
4098.00,1.52
4097.00,1.52
4096.00,1.52
4095.00,1.52
4094.00,1.53
4093.00,1.53
4092.00,1.53
4091.00,1.53
4090.00,1.54
4089.00,1.54
4088.00,1.54
4087.00,1.54
4086.00,1.55
4085.00,1.55
4084.00,1.55
4083.00,1.55
4082.00,1.56
4081.00,1.56
4080.00,1.56
4079.00,1.56
4078.00,1.56
4077.00,1.56
4076.00,1.56
4075.00,1.56
4074.00,1.57
4073.00,1.57
4072.00,1.57
4071.00,1.57
4070.00,1.57
4069.00,1.57
4068.00,1.57
4067.00,1.57
4066.00,1.57
4065.00,1.57
4064.00,1.57
4063.00,1.57
4062.00,1.57
4061.00,1.57
4060.00,1.57
4059.00,1.57
4058.00,1.57
4057.00,1.57
4056.00,1.57
4055.00,1.57
4054.00,1.57
4053.00,1.57
4052.00,1.57
4051.00,1.57
4050.00,1.57
4049.00,1.57
4048.00,1.57
4047.00,1.57
4046.00,1.57
4045.00,1.57
4044.00,1.57
4043.00,1.57
4042.00,1.57
4041.00,1.57
4040.00,1.57
4039.00,1.57
4038.00,1.58
4037.00,1.58
4036.00,1.58
4035.00,1.58
4034.00,1.58
4033.00,1.59
4032.00,1.59
4031.00,1.59
4030.00,1.59
4029.00,1.60
4028.00,1.60
4027.00,1.60
4026.00,1.60
4025.00,1.60
4024.00,1.60
4023.00,1.60
4022.00,1.60
4021.00,1.60
4020.00,1.60
4019.00,1.60
4018.00,1.60
4017.00,1.60
4016.00,1.60
4015.00,1.60
4014.00,1.60
4013.00,1.60
4012.00,1.60
4011.00,1.60
4010.00,1.61
4009.00,1.61
4008.00,1.61
4007.00,1.62
4006.00,1.62
4005.00,1.62
4004.00,1.63
4003.00,1.63
4002.00,1.63
4001.00,1.64
4000.00,1.64
