创建为新数据集,样品 342 用户 Administrator 日期 星期四, 三月 08 2018
cm-1,%T
10000.00,1.37
9999.00,1.37
9998.00,1.36
9997.00,1.36
9996.00,1.36
9995.00,1.36
9994.00,1.36
9993.00,1.35
9992.00,1.35
9991.00,1.35
9990.00,1.35
9989.00,1.35
9988.00,1.35
9987.00,1.35
9986.00,1.35
9985.00,1.35
9984.00,1.35
9983.00,1.35
9982.00,1.35
9981.00,1.35
9980.00,1.35
9979.00,1.35
9978.00,1.35
9977.00,1.35
9976.00,1.35
9975.00,1.35
9974.00,1.35
9973.00,1.35
9972.00,1.35
9971.00,1.35
9970.00,1.35
9969.00,1.35
9968.00,1.35
9967.00,1.35
9966.00,1.35
9965.00,1.35
9964.00,1.35
9963.00,1.35
9962.00,1.35
9961.00,1.36
9960.00,1.36
9959.00,1.36
9958.00,1.36
9957.00,1.36
9956.00,1.36
9955.00,1.36
9954.00,1.36
9953.00,1.36
9952.00,1.36
9951.00,1.36
9950.00,1.36
9949.00,1.36
9948.00,1.36
9947.00,1.36
9946.00,1.35
9945.00,1.35
9944.00,1.35
9943.00,1.35
9942.00,1.34
9941.00,1.34
9940.00,1.34
9939.00,1.34
9938.00,1.34
9937.00,1.33
9936.00,1.33
9935.00,1.33
9934.00,1.33
9933.00,1.34
9932.00,1.34
9931.00,1.34
9930.00,1.34
9929.00,1.34
9928.00,1.35
9927.00,1.35
9926.00,1.35
9925.00,1.35
9924.00,1.36
9923.00,1.36
9922.00,1.36
9921.00,1.36
9920.00,1.36
9919.00,1.36
9918.00,1.36
9917.00,1.35
9916.00,1.35
9915.00,1.35
9914.00,1.35
9913.00,1.34
9912.00,1.34
9911.00,1.34
9910.00,1.33
9909.00,1.33
9908.00,1.33
9907.00,1.32
9906.00,1.32
9905.00,1.32
9904.00,1.32
9903.00,1.32
9902.00,1.32
9901.00,1.32
9900.00,1.32
9899.00,1.33
9898.00,1.33
9897.00,1.33
9896.00,1.33
9895.00,1.34
9894.00,1.34
9893.00,1.34
9892.00,1.34
9891.00,1.35
9890.00,1.35
9889.00,1.35
9888.00,1.35
9887.00,1.35
9886.00,1.35
9885.00,1.36
9884.00,1.36
9883.00,1.36
9882.00,1.36
9881.00,1.36
9880.00,1.36
9879.00,1.35
9878.00,1.35
9877.00,1.35
9876.00,1.35
9875.00,1.35
9874.00,1.35
9873.00,1.34
9872.00,1.34
9871.00,1.34
9870.00,1.34
9869.00,1.34
9868.00,1.34
9867.00,1.34
9866.00,1.34
9865.00,1.34
9864.00,1.34
9863.00,1.34
9862.00,1.34
9861.00,1.34
9860.00,1.34
9859.00,1.33
9858.00,1.33
9857.00,1.33
9856.00,1.33
9855.00,1.33
9854.00,1.33
9853.00,1.33
9852.00,1.33
9851.00,1.33
9850.00,1.33
9849.00,1.33
9848.00,1.33
9847.00,1.33
9846.00,1.34
9845.00,1.34
9844.00,1.34
9843.00,1.34
9842.00,1.34
9841.00,1.35
9840.00,1.35
9839.00,1.35
9838.00,1.35
9837.00,1.35
9836.00,1.35
9835.00,1.35
9834.00,1.35
9833.00,1.35
9832.00,1.35
9831.00,1.35
9830.00,1.34
9829.00,1.34
9828.00,1.34
9827.00,1.34
9826.00,1.34
9825.00,1.34
9824.00,1.34
9823.00,1.34
9822.00,1.34
9821.00,1.34
9820.00,1.34
9819.00,1.34
9818.00,1.34
9817.00,1.34
9816.00,1.34
9815.00,1.34
9814.00,1.34
9813.00,1.34
9812.00,1.34
9811.00,1.34
9810.00,1.34
9809.00,1.35
9808.00,1.35
9807.00,1.35
9806.00,1.35
9805.00,1.35
9804.00,1.35
9803.00,1.35
9802.00,1.35
9801.00,1.35
9800.00,1.35
9799.00,1.36
9798.00,1.36
9797.00,1.36
9796.00,1.36
9795.00,1.36
9794.00,1.36
9793.00,1.36
9792.00,1.36
9791.00,1.36
9790.00,1.36
9789.00,1.36
9788.00,1.36
9787.00,1.36
9786.00,1.36
9785.00,1.36
9784.00,1.36
9783.00,1.36
9782.00,1.36
9781.00,1.36
9780.00,1.35
9779.00,1.35
9778.00,1.35
9777.00,1.34
9776.00,1.34
9775.00,1.33
9774.00,1.33
9773.00,1.33
9772.00,1.32
9771.00,1.32
9770.00,1.31
9769.00,1.31
9768.00,1.31
9767.00,1.31
9766.00,1.31
9765.00,1.31
9764.00,1.31
9763.00,1.31
9762.00,1.31
9761.00,1.31
9760.00,1.32
9759.00,1.32
9758.00,1.32
9757.00,1.33
9756.00,1.33
9755.00,1.33
9754.00,1.34
9753.00,1.34
9752.00,1.34
9751.00,1.34
9750.00,1.34
9749.00,1.35
9748.00,1.35
9747.00,1.35
9746.00,1.35
9745.00,1.35
9744.00,1.35
9743.00,1.35
9742.00,1.35
9741.00,1.35
9740.00,1.35
9739.00,1.35
9738.00,1.35
9737.00,1.35
9736.00,1.35
9735.00,1.35
9734.00,1.35
9733.00,1.35
9732.00,1.35
9731.00,1.35
9730.00,1.35
9729.00,1.35
9728.00,1.35
9727.00,1.35
9726.00,1.35
9725.00,1.36
9724.00,1.36
9723.00,1.36
9722.00,1.36
9721.00,1.36
9720.00,1.36
9719.00,1.36
9718.00,1.36
9717.00,1.36
9716.00,1.36
9715.00,1.36
9714.00,1.36
9713.00,1.35
9712.00,1.35
9711.00,1.35
9710.00,1.35
9709.00,1.35
9708.00,1.35
9707.00,1.35
9706.00,1.35
9705.00,1.35
9704.00,1.34
9703.00,1.34
9702.00,1.34
9701.00,1.34
9700.00,1.34
9699.00,1.34
9698.00,1.34
9697.00,1.34
9696.00,1.34
9695.00,1.34
9694.00,1.33
9693.00,1.33
9692.00,1.33
9691.00,1.33
9690.00,1.33
9689.00,1.33
9688.00,1.33
9687.00,1.33
9686.00,1.33
9685.00,1.33
9684.00,1.33
9683.00,1.33
9682.00,1.33
9681.00,1.33
9680.00,1.33
9679.00,1.33
9678.00,1.32
9677.00,1.32
9676.00,1.32
9675.00,1.32
9674.00,1.32
9673.00,1.32
9672.00,1.32
9671.00,1.32
9670.00,1.32
9669.00,1.33
9668.00,1.33
9667.00,1.33
9666.00,1.33
9665.00,1.33
9664.00,1.33
9663.00,1.33
9662.00,1.33
9661.00,1.34
9660.00,1.34
9659.00,1.34
9658.00,1.34
9657.00,1.34
9656.00,1.34
9655.00,1.34
9654.00,1.34
9653.00,1.34
9652.00,1.34
9651.00,1.34
9650.00,1.34
9649.00,1.34
9648.00,1.34
9647.00,1.34
9646.00,1.34
9645.00,1.34
9644.00,1.35
9643.00,1.35
9642.00,1.35
9641.00,1.35
9640.00,1.35
9639.00,1.35
9638.00,1.35
9637.00,1.35
9636.00,1.35
9635.00,1.35
9634.00,1.35
9633.00,1.35
9632.00,1.35
9631.00,1.35
9630.00,1.35
9629.00,1.35
9628.00,1.35
9627.00,1.35
9626.00,1.35
9625.00,1.35
9624.00,1.34
9623.00,1.34
9622.00,1.34
9621.00,1.34
9620.00,1.34
9619.00,1.34
9618.00,1.33
9617.00,1.33
9616.00,1.33
9615.00,1.33
9614.00,1.33
9613.00,1.33
9612.00,1.34
9611.00,1.34
9610.00,1.34
9609.00,1.34
9608.00,1.34
9607.00,1.34
9606.00,1.35
9605.00,1.35
9604.00,1.35
9603.00,1.35
9602.00,1.35
9601.00,1.35
9600.00,1.35
9599.00,1.35
9598.00,1.36
9597.00,1.36
9596.00,1.36
9595.00,1.36
9594.00,1.36
9593.00,1.36
9592.00,1.36
9591.00,1.36
9590.00,1.36
9589.00,1.36
9588.00,1.36
9587.00,1.36
9586.00,1.36
9585.00,1.36
9584.00,1.36
9583.00,1.36
9582.00,1.36
9581.00,1.36
9580.00,1.36
9579.00,1.36
9578.00,1.36
9577.00,1.36
9576.00,1.36
9575.00,1.36
9574.00,1.36
9573.00,1.36
9572.00,1.36
9571.00,1.36
9570.00,1.36
9569.00,1.36
9568.00,1.36
9567.00,1.36
9566.00,1.36
9565.00,1.35
9564.00,1.35
9563.00,1.35
9562.00,1.35
9561.00,1.35
9560.00,1.35
9559.00,1.35
9558.00,1.34
9557.00,1.34
9556.00,1.34
9555.00,1.34
9554.00,1.34
9553.00,1.34
9552.00,1.34
9551.00,1.34
9550.00,1.34
9549.00,1.34
9548.00,1.34
9547.00,1.34
9546.00,1.34
9545.00,1.34
9544.00,1.33
9543.00,1.33
9542.00,1.33
9541.00,1.33
9540.00,1.33
9539.00,1.33
9538.00,1.33
9537.00,1.33
9536.00,1.33
9535.00,1.33
9534.00,1.33
9533.00,1.33
9532.00,1.33
9531.00,1.33
9530.00,1.33
9529.00,1.33
9528.00,1.33
9527.00,1.33
9526.00,1.33
9525.00,1.33
9524.00,1.33
9523.00,1.33
9522.00,1.33
9521.00,1.34
9520.00,1.34
9519.00,1.34
9518.00,1.34
9517.00,1.34
9516.00,1.34
9515.00,1.35
9514.00,1.35
9513.00,1.35
9512.00,1.35
9511.00,1.35
9510.00,1.35
9509.00,1.35
9508.00,1.35
9507.00,1.35
9506.00,1.35
9505.00,1.35
9504.00,1.36
9503.00,1.36
9502.00,1.36
9501.00,1.36
9500.00,1.36
9499.00,1.36
9498.00,1.36
9497.00,1.36
9496.00,1.35
9495.00,1.35
9494.00,1.35
9493.00,1.35
9492.00,1.35
9491.00,1.35
9490.00,1.34
9489.00,1.34
9488.00,1.34
9487.00,1.33
9486.00,1.33
9485.00,1.33
9484.00,1.33
9483.00,1.32
9482.00,1.32
9481.00,1.32
9480.00,1.32
9479.00,1.32
9478.00,1.32
9477.00,1.32
9476.00,1.32
9475.00,1.32
9474.00,1.32
9473.00,1.32
9472.00,1.33
9471.00,1.33
9470.00,1.33
9469.00,1.33
9468.00,1.34
9467.00,1.34
9466.00,1.34
9465.00,1.34
9464.00,1.34
9463.00,1.35
9462.00,1.35
9461.00,1.35
9460.00,1.35
9459.00,1.35
9458.00,1.35
9457.00,1.35
9456.00,1.35
9455.00,1.35
9454.00,1.35
9453.00,1.34
9452.00,1.34
9451.00,1.34
9450.00,1.34
9449.00,1.34
9448.00,1.34
9447.00,1.33
9446.00,1.33
9445.00,1.33
9444.00,1.33
9443.00,1.33
9442.00,1.33
9441.00,1.33
9440.00,1.33
9439.00,1.33
9438.00,1.33
9437.00,1.33
9436.00,1.33
9435.00,1.33
9434.00,1.33
9433.00,1.33
9432.00,1.33
9431.00,1.33
9430.00,1.34
9429.00,1.34
9428.00,1.34
9427.00,1.34
9426.00,1.34
9425.00,1.34
9424.00,1.35
9423.00,1.35
9422.00,1.35
9421.00,1.35
9420.00,1.35
9419.00,1.35
9418.00,1.35
9417.00,1.35
9416.00,1.35
9415.00,1.35
9414.00,1.35
9413.00,1.35
9412.00,1.35
9411.00,1.35
9410.00,1.35
9409.00,1.35
9408.00,1.35
9407.00,1.35
9406.00,1.35
9405.00,1.34
9404.00,1.34
9403.00,1.34
9402.00,1.34
9401.00,1.34
9400.00,1.34
9399.00,1.34
9398.00,1.34
9397.00,1.34
9396.00,1.34
9395.00,1.34
9394.00,1.34
9393.00,1.34
9392.00,1.34
9391.00,1.34
9390.00,1.34
9389.00,1.34
9388.00,1.34
9387.00,1.34
9386.00,1.34
9385.00,1.34
9384.00,1.34
9383.00,1.34
9382.00,1.34
9381.00,1.33
9380.00,1.33
9379.00,1.33
9378.00,1.33
9377.00,1.33
9376.00,1.33
9375.00,1.33
9374.00,1.33
9373.00,1.33
9372.00,1.33
9371.00,1.33
9370.00,1.33
9369.00,1.33
9368.00,1.33
9367.00,1.33
9366.00,1.33
9365.00,1.33
9364.00,1.33
9363.00,1.33
9362.00,1.33
9361.00,1.33
9360.00,1.33
9359.00,1.33
9358.00,1.33
9357.00,1.33
9356.00,1.33
9355.00,1.33
9354.00,1.33
9353.00,1.33
9352.00,1.33
9351.00,1.34
9350.00,1.34
9349.00,1.34
9348.00,1.34
9347.00,1.34
9346.00,1.34
9345.00,1.34
9344.00,1.34
9343.00,1.34
9342.00,1.35
9341.00,1.35
9340.00,1.35
9339.00,1.35
9338.00,1.35
9337.00,1.36
9336.00,1.36
9335.00,1.36
9334.00,1.36
9333.00,1.36
9332.00,1.36
9331.00,1.36
9330.00,1.36
9329.00,1.36
9328.00,1.35
9327.00,1.35
9326.00,1.35
9325.00,1.35
9324.00,1.35
9323.00,1.34
9322.00,1.34
9321.00,1.34
9320.00,1.34
9319.00,1.34
9318.00,1.34
9317.00,1.34
9316.00,1.34
9315.00,1.34
9314.00,1.34
9313.00,1.34
9312.00,1.34
9311.00,1.34
9310.00,1.34
9309.00,1.34
9308.00,1.34
9307.00,1.34
9306.00,1.34
9305.00,1.34
9304.00,1.34
9303.00,1.34
9302.00,1.34
9301.00,1.34
9300.00,1.34
9299.00,1.34
9298.00,1.34
9297.00,1.34
9296.00,1.34
9295.00,1.34
9294.00,1.34
9293.00,1.34
9292.00,1.34
9291.00,1.34
9290.00,1.34
9289.00,1.34
9288.00,1.34
9287.00,1.34
9286.00,1.34
9285.00,1.34
9284.00,1.34
9283.00,1.34
9282.00,1.34
9281.00,1.34
9280.00,1.34
9279.00,1.34
9278.00,1.34
9277.00,1.34
9276.00,1.34
9275.00,1.34
9274.00,1.34
9273.00,1.34
9272.00,1.34
9271.00,1.34
9270.00,1.34
9269.00,1.34
9268.00,1.34
9267.00,1.34
9266.00,1.34
9265.00,1.34
9264.00,1.34
9263.00,1.34
9262.00,1.34
9261.00,1.33
9260.00,1.33
9259.00,1.33
9258.00,1.33
9257.00,1.33
9256.00,1.33
9255.00,1.33
9254.00,1.33
9253.00,1.33
9252.00,1.33
9251.00,1.33
9250.00,1.33
9249.00,1.33
9248.00,1.33
9247.00,1.33
9246.00,1.33
9245.00,1.33
9244.00,1.33
9243.00,1.33
9242.00,1.33
9241.00,1.33
9240.00,1.34
9239.00,1.34
9238.00,1.34
9237.00,1.34
9236.00,1.34
9235.00,1.35
9234.00,1.35
9233.00,1.35
9232.00,1.35
9231.00,1.36
9230.00,1.36
9229.00,1.36
9228.00,1.36
9227.00,1.36
9226.00,1.36
9225.00,1.36
9224.00,1.36
9223.00,1.36
9222.00,1.36
9221.00,1.36
9220.00,1.36
9219.00,1.36
9218.00,1.36
9217.00,1.36
9216.00,1.36
9215.00,1.36
9214.00,1.36
9213.00,1.36
9212.00,1.36
9211.00,1.36
9210.00,1.36
9209.00,1.36
9208.00,1.36
9207.00,1.36
9206.00,1.35
9205.00,1.35
9204.00,1.35
9203.00,1.35
9202.00,1.35
9201.00,1.35
9200.00,1.35
9199.00,1.35
9198.00,1.35
9197.00,1.34
9196.00,1.34
9195.00,1.34
9194.00,1.34
9193.00,1.34
9192.00,1.34
9191.00,1.34
9190.00,1.34
9189.00,1.34
9188.00,1.34
9187.00,1.35
9186.00,1.35
9185.00,1.35
9184.00,1.35
9183.00,1.35
9182.00,1.35
9181.00,1.35
9180.00,1.35
9179.00,1.35
9178.00,1.35
9177.00,1.35
9176.00,1.35
9175.00,1.35
9174.00,1.34
9173.00,1.34
9172.00,1.34
9171.00,1.34
9170.00,1.34
9169.00,1.34
9168.00,1.34
9167.00,1.34
9166.00,1.34
9165.00,1.34
9164.00,1.34
9163.00,1.34
9162.00,1.34
9161.00,1.34
9160.00,1.34
9159.00,1.34
9158.00,1.34
9157.00,1.34
9156.00,1.34
9155.00,1.34
9154.00,1.34
9153.00,1.34
9152.00,1.34
9151.00,1.34
9150.00,1.34
9149.00,1.35
9148.00,1.35
9147.00,1.35
9146.00,1.35
9145.00,1.35
9144.00,1.35
9143.00,1.35
9142.00,1.35
9141.00,1.35
9140.00,1.35
9139.00,1.34
9138.00,1.34
9137.00,1.34
9136.00,1.34
9135.00,1.34
9134.00,1.34
9133.00,1.34
9132.00,1.34
9131.00,1.34
9130.00,1.34
9129.00,1.34
9128.00,1.34
9127.00,1.34
9126.00,1.34
9125.00,1.34
9124.00,1.33
9123.00,1.33
9122.00,1.33
9121.00,1.33
9120.00,1.33
9119.00,1.33
9118.00,1.33
9117.00,1.33
9116.00,1.33
9115.00,1.33
9114.00,1.33
9113.00,1.33
9112.00,1.33
9111.00,1.33
9110.00,1.33
9109.00,1.34
9108.00,1.34
9107.00,1.34
9106.00,1.34
9105.00,1.34
9104.00,1.34
9103.00,1.34
9102.00,1.35
9101.00,1.35
9100.00,1.35
9099.00,1.35
9098.00,1.35
9097.00,1.35
9096.00,1.35
9095.00,1.35
9094.00,1.35
9093.00,1.35
9092.00,1.34
9091.00,1.34
9090.00,1.34
9089.00,1.34
9088.00,1.34
9087.00,1.34
9086.00,1.34
9085.00,1.34
9084.00,1.34
9083.00,1.33
9082.00,1.33
9081.00,1.33
9080.00,1.33
9079.00,1.33
9078.00,1.33
9077.00,1.33
9076.00,1.33
9075.00,1.33
9074.00,1.33
9073.00,1.33
9072.00,1.33
9071.00,1.33
9070.00,1.33
9069.00,1.33
9068.00,1.33
9067.00,1.33
9066.00,1.33
9065.00,1.33
9064.00,1.33
9063.00,1.33
9062.00,1.33
9061.00,1.33
9060.00,1.33
9059.00,1.33
9058.00,1.33
9057.00,1.33
9056.00,1.33
9055.00,1.33
9054.00,1.33
9053.00,1.33
9052.00,1.33
9051.00,1.33
9050.00,1.33
9049.00,1.34
9048.00,1.34
9047.00,1.34
9046.00,1.34
9045.00,1.34
9044.00,1.34
9043.00,1.34
9042.00,1.34
9041.00,1.34
9040.00,1.35
9039.00,1.35
9038.00,1.35
9037.00,1.35
9036.00,1.35
9035.00,1.35
9034.00,1.35
9033.00,1.35
9032.00,1.35
9031.00,1.34
9030.00,1.34
9029.00,1.34
9028.00,1.34
9027.00,1.34
9026.00,1.34
9025.00,1.34
9024.00,1.33
9023.00,1.33
9022.00,1.33
9021.00,1.33
9020.00,1.33
9019.00,1.33
9018.00,1.33
9017.00,1.33
9016.00,1.33
9015.00,1.33
9014.00,1.33
9013.00,1.33
9012.00,1.33
9011.00,1.33
9010.00,1.34
9009.00,1.34
9008.00,1.34
9007.00,1.34
9006.00,1.34
9005.00,1.35
9004.00,1.35
9003.00,1.35
9002.00,1.35
9001.00,1.35
9000.00,1.35
8999.00,1.35
8998.00,1.35
8997.00,1.35
8996.00,1.35
8995.00,1.36
8994.00,1.36
8993.00,1.36
8992.00,1.35
8991.00,1.35
8990.00,1.35
8989.00,1.35
8988.00,1.35
8987.00,1.35
8986.00,1.35
8985.00,1.35
8984.00,1.35
8983.00,1.35
8982.00,1.35
8981.00,1.35
8980.00,1.35
8979.00,1.35
8978.00,1.35
8977.00,1.34
8976.00,1.34
8975.00,1.34
8974.00,1.34
8973.00,1.34
8972.00,1.34
8971.00,1.34
8970.00,1.35
8969.00,1.35
8968.00,1.35
8967.00,1.35
8966.00,1.35
8965.00,1.35
8964.00,1.35
8963.00,1.35
8962.00,1.35
8961.00,1.35
8960.00,1.35
8959.00,1.35
8958.00,1.35
8957.00,1.35
8956.00,1.35
8955.00,1.35
8954.00,1.35
8953.00,1.35
8952.00,1.35
8951.00,1.35
8950.00,1.35
8949.00,1.35
8948.00,1.35
8947.00,1.35
8946.00,1.35
8945.00,1.35
8944.00,1.36
8943.00,1.36
8942.00,1.36
8941.00,1.36
8940.00,1.36
8939.00,1.36
8938.00,1.36
8937.00,1.36
8936.00,1.36
8935.00,1.36
8934.00,1.36
8933.00,1.36
8932.00,1.36
8931.00,1.36
8930.00,1.36
8929.00,1.36
8928.00,1.36
8927.00,1.36
8926.00,1.36
8925.00,1.36
8924.00,1.36
8923.00,1.36
8922.00,1.36
8921.00,1.36
8920.00,1.36
8919.00,1.36
8918.00,1.36
8917.00,1.36
8916.00,1.36
8915.00,1.36
8914.00,1.36
8913.00,1.36
8912.00,1.36
8911.00,1.36
8910.00,1.36
8909.00,1.36
8908.00,1.36
8907.00,1.36
8906.00,1.36
8905.00,1.36
8904.00,1.35
8903.00,1.35
8902.00,1.35
8901.00,1.35
8900.00,1.35
8899.00,1.35
8898.00,1.35
8897.00,1.35
8896.00,1.35
8895.00,1.35
8894.00,1.35
8893.00,1.34
8892.00,1.34
8891.00,1.34
8890.00,1.34
8889.00,1.34
8888.00,1.34
8887.00,1.34
8886.00,1.34
8885.00,1.34
8884.00,1.34
8883.00,1.34
8882.00,1.34
8881.00,1.34
8880.00,1.34
8879.00,1.35
8878.00,1.35
8877.00,1.35
8876.00,1.35
8875.00,1.35
8874.00,1.35
8873.00,1.35
8872.00,1.35
8871.00,1.35
8870.00,1.35
8869.00,1.36
8868.00,1.36
8867.00,1.35
8866.00,1.35
8865.00,1.35
8864.00,1.35
8863.00,1.35
8862.00,1.35
8861.00,1.35
8860.00,1.35
8859.00,1.34
8858.00,1.34
8857.00,1.34
8856.00,1.34
8855.00,1.33
8854.00,1.33
8853.00,1.33
8852.00,1.33
8851.00,1.33
8850.00,1.33
8849.00,1.33
8848.00,1.33
8847.00,1.33
8846.00,1.33
8845.00,1.33
8844.00,1.33
8843.00,1.33
8842.00,1.33
8841.00,1.33
8840.00,1.33
8839.00,1.33
8838.00,1.33
8837.00,1.33
8836.00,1.33
8835.00,1.33
8834.00,1.33
8833.00,1.33
8832.00,1.34
8831.00,1.34
8830.00,1.34
8829.00,1.34
8828.00,1.34
8827.00,1.34
8826.00,1.34
8825.00,1.33
8824.00,1.33
8823.00,1.33
8822.00,1.33
8821.00,1.33
8820.00,1.33
8819.00,1.33
8818.00,1.32
8817.00,1.32
8816.00,1.32
8815.00,1.32
8814.00,1.32
8813.00,1.32
8812.00,1.31
8811.00,1.31
8810.00,1.31
8809.00,1.31
8808.00,1.31
8807.00,1.31
8806.00,1.31
8805.00,1.31
8804.00,1.32
8803.00,1.32
8802.00,1.32
8801.00,1.32
8800.00,1.32
8799.00,1.32
8798.00,1.32
8797.00,1.32
8796.00,1.32
8795.00,1.32
8794.00,1.32
8793.00,1.32
8792.00,1.32
8791.00,1.32
8790.00,1.32
8789.00,1.32
8788.00,1.32
8787.00,1.32
8786.00,1.32
8785.00,1.32
8784.00,1.32
8783.00,1.32
8782.00,1.32
8781.00,1.32
8780.00,1.32
8779.00,1.31
8778.00,1.31
8777.00,1.31
8776.00,1.31
8775.00,1.31
8774.00,1.31
8773.00,1.31
8772.00,1.31
8771.00,1.31
8770.00,1.31
8769.00,1.31
8768.00,1.31
8767.00,1.32
8766.00,1.32
8765.00,1.32
8764.00,1.32
8763.00,1.32
8762.00,1.31
8761.00,1.31
8760.00,1.31
8759.00,1.31
8758.00,1.31
8757.00,1.31
8756.00,1.31
8755.00,1.31
8754.00,1.30
8753.00,1.30
8752.00,1.30
8751.00,1.30
8750.00,1.29
8749.00,1.29
8748.00,1.29
8747.00,1.29
8746.00,1.29
8745.00,1.28
8744.00,1.28
8743.00,1.28
8742.00,1.28
8741.00,1.28
8740.00,1.28
8739.00,1.28
8738.00,1.28
8737.00,1.28
8736.00,1.28
8735.00,1.28
8734.00,1.28
8733.00,1.28
8732.00,1.28
8731.00,1.28
8730.00,1.28
8729.00,1.28
8728.00,1.28
8727.00,1.28
8726.00,1.28
8725.00,1.28
8724.00,1.28
8723.00,1.28
8722.00,1.28
8721.00,1.28
8720.00,1.28
8719.00,1.28
8718.00,1.28
8717.00,1.28
8716.00,1.28
8715.00,1.29
8714.00,1.29
8713.00,1.29
8712.00,1.29
8711.00,1.29
8710.00,1.29
8709.00,1.29
8708.00,1.29
8707.00,1.30
8706.00,1.30
8705.00,1.30
8704.00,1.30
8703.00,1.30
8702.00,1.30
8701.00,1.30
8700.00,1.30
8699.00,1.30
8698.00,1.30
8697.00,1.30
8696.00,1.30
8695.00,1.29
8694.00,1.29
8693.00,1.29
8692.00,1.29
8691.00,1.29
8690.00,1.28
8689.00,1.28
8688.00,1.28
8687.00,1.28
8686.00,1.28
8685.00,1.28
8684.00,1.28
8683.00,1.27
8682.00,1.27
8681.00,1.27
8680.00,1.27
8679.00,1.27
8678.00,1.27
8677.00,1.27
8676.00,1.27
8675.00,1.27
8674.00,1.27
8673.00,1.27
8672.00,1.27
8671.00,1.27
8670.00,1.27
8669.00,1.27
8668.00,1.27
8667.00,1.27
8666.00,1.27
8665.00,1.27
8664.00,1.27
8663.00,1.27
8662.00,1.27
8661.00,1.27
8660.00,1.27
8659.00,1.27
8658.00,1.27
8657.00,1.27
8656.00,1.27
8655.00,1.27
8654.00,1.27
8653.00,1.27
8652.00,1.27
8651.00,1.27
8650.00,1.27
8649.00,1.27
8648.00,1.27
8647.00,1.27
8646.00,1.27
8645.00,1.27
8644.00,1.27
8643.00,1.27
8642.00,1.27
8641.00,1.27
8640.00,1.27
8639.00,1.26
8638.00,1.26
8637.00,1.26
8636.00,1.26
8635.00,1.26
8634.00,1.26
8633.00,1.26
8632.00,1.26
8631.00,1.26
8630.00,1.26
8629.00,1.26
8628.00,1.26
8627.00,1.26
8626.00,1.26
8625.00,1.26
8624.00,1.25
8623.00,1.25
8622.00,1.25
8621.00,1.25
8620.00,1.25
8619.00,1.25
8618.00,1.25
8617.00,1.25
8616.00,1.25
8615.00,1.25
8614.00,1.25
8613.00,1.25
8612.00,1.25
8611.00,1.25
8610.00,1.25
8609.00,1.25
8608.00,1.25
8607.00,1.25
8606.00,1.25
8605.00,1.25
8604.00,1.25
8603.00,1.24
8602.00,1.24
8601.00,1.24
8600.00,1.24
8599.00,1.24
8598.00,1.24
8597.00,1.24
8596.00,1.24
8595.00,1.23
8594.00,1.23
8593.00,1.23
8592.00,1.23
8591.00,1.23
8590.00,1.23
8589.00,1.23
8588.00,1.23
8587.00,1.23
8586.00,1.22
8585.00,1.22
8584.00,1.22
8583.00,1.23
8582.00,1.23
8581.00,1.23
8580.00,1.23
8579.00,1.23
8578.00,1.23
8577.00,1.23
8576.00,1.23
8575.00,1.23
8574.00,1.23
8573.00,1.23
8572.00,1.23
8571.00,1.23
8570.00,1.23
8569.00,1.24
8568.00,1.24
8567.00,1.24
8566.00,1.24
8565.00,1.24
8564.00,1.24
8563.00,1.24
8562.00,1.24
8561.00,1.24
8560.00,1.24
8559.00,1.24
8558.00,1.24
8557.00,1.24
8556.00,1.24
8555.00,1.24
8554.00,1.24
8553.00,1.24
8552.00,1.24
8551.00,1.24
8550.00,1.24
8549.00,1.24
8548.00,1.24
8547.00,1.24
8546.00,1.24
8545.00,1.24
8544.00,1.24
8543.00,1.24
8542.00,1.24
8541.00,1.23
8540.00,1.23
8539.00,1.23
8538.00,1.23
8537.00,1.23
8536.00,1.23
8535.00,1.23
8534.00,1.22
8533.00,1.22
8532.00,1.22
8531.00,1.22
8530.00,1.22
8529.00,1.22
8528.00,1.22
8527.00,1.22
8526.00,1.22
8525.00,1.22
8524.00,1.22
8523.00,1.21
8522.00,1.21
8521.00,1.21
8520.00,1.21
8519.00,1.21
8518.00,1.21
8517.00,1.21
8516.00,1.21
8515.00,1.21
8514.00,1.21
8513.00,1.21
8512.00,1.21
8511.00,1.21
8510.00,1.21
8509.00,1.20
8508.00,1.20
8507.00,1.20
8506.00,1.20
8505.00,1.20
8504.00,1.20
8503.00,1.20
8502.00,1.20
8501.00,1.20
8500.00,1.20
8499.00,1.19
8498.00,1.19
8497.00,1.19
8496.00,1.19
8495.00,1.19
8494.00,1.19
8493.00,1.18
8492.00,1.18
8491.00,1.18
8490.00,1.18
8489.00,1.18
8488.00,1.18
8487.00,1.18
8486.00,1.17
8485.00,1.17
8484.00,1.17
8483.00,1.17
8482.00,1.17
8481.00,1.17
8480.00,1.17
8479.00,1.17
8478.00,1.18
8477.00,1.18
8476.00,1.18
8475.00,1.18
8474.00,1.18
8473.00,1.18
8472.00,1.18
8471.00,1.18
8470.00,1.18
8469.00,1.18
8468.00,1.17
8467.00,1.17
8466.00,1.17
8465.00,1.17
8464.00,1.17
8463.00,1.16
8462.00,1.16
8461.00,1.16
8460.00,1.16
8459.00,1.16
8458.00,1.15
8457.00,1.15
8456.00,1.15
8455.00,1.15
8454.00,1.15
8453.00,1.15
8452.00,1.15
8451.00,1.15
8450.00,1.15
8449.00,1.15
8448.00,1.15
8447.00,1.15
8446.00,1.15
8445.00,1.15
8444.00,1.15
8443.00,1.15
8442.00,1.14
8441.00,1.14
8440.00,1.14
8439.00,1.14
8438.00,1.14
8437.00,1.14
8436.00,1.14
8435.00,1.14
8434.00,1.13
8433.00,1.13
8432.00,1.13
8431.00,1.13
8430.00,1.13
8429.00,1.14
8428.00,1.14
8427.00,1.14
8426.00,1.14
8425.00,1.14
8424.00,1.14
8423.00,1.14
8422.00,1.15
8421.00,1.15
8420.00,1.15
8419.00,1.15
8418.00,1.15
8417.00,1.16
8416.00,1.16
8415.00,1.16
8414.00,1.16
8413.00,1.16
8412.00,1.16
8411.00,1.16
8410.00,1.16
8409.00,1.16
8408.00,1.16
8407.00,1.16
8406.00,1.16
8405.00,1.16
8404.00,1.16
8403.00,1.16
8402.00,1.16
8401.00,1.16
8400.00,1.17
8399.00,1.17
8398.00,1.17
8397.00,1.17
8396.00,1.17
8395.00,1.17
8394.00,1.18
8393.00,1.18
8392.00,1.18
8391.00,1.18
8390.00,1.19
8389.00,1.19
8388.00,1.19
8387.00,1.19
8386.00,1.19
8385.00,1.19
8384.00,1.20
8383.00,1.20
8382.00,1.20
8381.00,1.20
8380.00,1.20
8379.00,1.20
8378.00,1.20
8377.00,1.20
8376.00,1.20
8375.00,1.20
8374.00,1.20
8373.00,1.20
8372.00,1.20
8371.00,1.20
8370.00,1.20
8369.00,1.20
8368.00,1.20
8367.00,1.20
8366.00,1.20
8365.00,1.20
8364.00,1.20
8363.00,1.21
8362.00,1.21
8361.00,1.21
8360.00,1.21
8359.00,1.21
8358.00,1.21
8357.00,1.21
8356.00,1.21
8355.00,1.21
8354.00,1.21
8353.00,1.21
8352.00,1.21
8351.00,1.21
8350.00,1.21
8349.00,1.21
8348.00,1.21
8347.00,1.22
8346.00,1.22
8345.00,1.22
8344.00,1.22
8343.00,1.22
8342.00,1.22
8341.00,1.22
8340.00,1.22
8339.00,1.22
8338.00,1.22
8337.00,1.22
8336.00,1.22
8335.00,1.22
8334.00,1.22
8333.00,1.22
8332.00,1.22
8331.00,1.22
8330.00,1.22
8329.00,1.22
8328.00,1.22
8327.00,1.22
8326.00,1.22
8325.00,1.22
8324.00,1.22
8323.00,1.22
8322.00,1.22
8321.00,1.22
8320.00,1.22
8319.00,1.21
8318.00,1.21
8317.00,1.21
8316.00,1.21
8315.00,1.21
8314.00,1.21
8313.00,1.21
8312.00,1.21
8311.00,1.21
8310.00,1.21
8309.00,1.21
8308.00,1.21
8307.00,1.21
8306.00,1.21
8305.00,1.21
8304.00,1.21
8303.00,1.21
8302.00,1.21
8301.00,1.21
8300.00,1.21
8299.00,1.21
8298.00,1.21
8297.00,1.21
8296.00,1.22
8295.00,1.22
8294.00,1.22
8293.00,1.22
8292.00,1.22
8291.00,1.22
8290.00,1.22
8289.00,1.23
8288.00,1.23
8287.00,1.23
8286.00,1.23
8285.00,1.23
8284.00,1.23
8283.00,1.23
8282.00,1.23
8281.00,1.23
8280.00,1.23
8279.00,1.23
8278.00,1.23
8277.00,1.23
8276.00,1.23
8275.00,1.23
8274.00,1.23
8273.00,1.23
8272.00,1.23
8271.00,1.23
8270.00,1.23
8269.00,1.24
8268.00,1.24
8267.00,1.24
8266.00,1.24
8265.00,1.24
8264.00,1.24
8263.00,1.24
8262.00,1.24
8261.00,1.24
8260.00,1.24
8259.00,1.24
8258.00,1.24
8257.00,1.24
8256.00,1.24
8255.00,1.24
8254.00,1.24
8253.00,1.24
8252.00,1.24
8251.00,1.24
8250.00,1.24
8249.00,1.24
8248.00,1.24
8247.00,1.24
8246.00,1.24
8245.00,1.24
8244.00,1.24
8243.00,1.24
8242.00,1.24
8241.00,1.23
8240.00,1.23
8239.00,1.23
8238.00,1.23
8237.00,1.23
8236.00,1.23
8235.00,1.23
8234.00,1.23
8233.00,1.23
8232.00,1.23
8231.00,1.23
8230.00,1.23
8229.00,1.23
8228.00,1.23
8227.00,1.23
8226.00,1.23
8225.00,1.24
8224.00,1.24
8223.00,1.24
8222.00,1.24
8221.00,1.24
8220.00,1.24
8219.00,1.24
8218.00,1.24
8217.00,1.24
8216.00,1.24
8215.00,1.24
8214.00,1.24
8213.00,1.24
8212.00,1.24
8211.00,1.24
8210.00,1.24
8209.00,1.24
8208.00,1.24
8207.00,1.24
8206.00,1.24
8205.00,1.24
8204.00,1.24
8203.00,1.24
8202.00,1.24
8201.00,1.24
8200.00,1.24
8199.00,1.24
8198.00,1.24
8197.00,1.25
8196.00,1.25
8195.00,1.25
8194.00,1.25
8193.00,1.25
8192.00,1.25
8191.00,1.25
8190.00,1.25
8189.00,1.25
8188.00,1.25
8187.00,1.25
8186.00,1.25
8185.00,1.25
8184.00,1.25
8183.00,1.25
8182.00,1.25
8181.00,1.25
8180.00,1.25
8179.00,1.25
8178.00,1.25
8177.00,1.25
8176.00,1.25
8175.00,1.25
8174.00,1.25
8173.00,1.25
8172.00,1.25
8171.00,1.25
8170.00,1.25
8169.00,1.25
8168.00,1.25
8167.00,1.25
8166.00,1.26
8165.00,1.26
8164.00,1.26
8163.00,1.26
8162.00,1.26
8161.00,1.26
8160.00,1.26
8159.00,1.26
8158.00,1.26
8157.00,1.26
8156.00,1.26
8155.00,1.26
8154.00,1.26
8153.00,1.26
8152.00,1.26
8151.00,1.26
8150.00,1.26
8149.00,1.26
8148.00,1.26
8147.00,1.26
8146.00,1.26
8145.00,1.27
8144.00,1.27
8143.00,1.27
8142.00,1.27
8141.00,1.27
8140.00,1.27
8139.00,1.27
8138.00,1.28
8137.00,1.28
8136.00,1.28
8135.00,1.28
8134.00,1.28
8133.00,1.28
8132.00,1.28
8131.00,1.27
8130.00,1.27
8129.00,1.27
8128.00,1.27
8127.00,1.27
8126.00,1.27
8125.00,1.27
8124.00,1.27
8123.00,1.27
8122.00,1.27
8121.00,1.27
8120.00,1.27
8119.00,1.28
8118.00,1.28
8117.00,1.28
8116.00,1.28
8115.00,1.28
8114.00,1.29
8113.00,1.29
8112.00,1.29
8111.00,1.29
8110.00,1.29
8109.00,1.30
8108.00,1.30
8107.00,1.30
8106.00,1.30
8105.00,1.30
8104.00,1.30
8103.00,1.30
8102.00,1.30
8101.00,1.30
8100.00,1.30
8099.00,1.31
8098.00,1.31
8097.00,1.31
8096.00,1.31
8095.00,1.31
8094.00,1.31
8093.00,1.31
8092.00,1.31
8091.00,1.31
8090.00,1.31
8089.00,1.31
8088.00,1.31
8087.00,1.31
8086.00,1.31
8085.00,1.31
8084.00,1.31
8083.00,1.31
8082.00,1.31
8081.00,1.31
8080.00,1.31
8079.00,1.31
8078.00,1.31
8077.00,1.31
8076.00,1.31
8075.00,1.31
8074.00,1.31
8073.00,1.31
8072.00,1.31
8071.00,1.31
8070.00,1.31
8069.00,1.31
8068.00,1.30
8067.00,1.30
8066.00,1.30
8065.00,1.30
8064.00,1.30
8063.00,1.30
8062.00,1.29
8061.00,1.29
8060.00,1.29
8059.00,1.29
8058.00,1.29
8057.00,1.29
8056.00,1.29
8055.00,1.29
8054.00,1.29
8053.00,1.29
8052.00,1.29
8051.00,1.29
8050.00,1.30
8049.00,1.30
8048.00,1.30
8047.00,1.30
8046.00,1.30
8045.00,1.30
8044.00,1.30
8043.00,1.30
8042.00,1.30
8041.00,1.31
8040.00,1.31
8039.00,1.31
8038.00,1.31
8037.00,1.31
8036.00,1.31
8035.00,1.31
8034.00,1.31
8033.00,1.31
8032.00,1.31
8031.00,1.31
8030.00,1.31
8029.00,1.31
8028.00,1.31
8027.00,1.31
8026.00,1.31
8025.00,1.31
8024.00,1.31
8023.00,1.31
8022.00,1.31
8021.00,1.31
8020.00,1.31
8019.00,1.31
8018.00,1.31
8017.00,1.31
8016.00,1.31
8015.00,1.30
8014.00,1.30
8013.00,1.30
8012.00,1.30
8011.00,1.30
8010.00,1.30
8009.00,1.30
8008.00,1.30
8007.00,1.30
8006.00,1.30
8005.00,1.30
8004.00,1.30
8003.00,1.30
8002.00,1.30
8001.00,1.30
8000.00,1.30
7999.00,1.30
7998.00,1.31
7997.00,1.31
7996.00,1.31
7995.00,1.31
7994.00,1.31
7993.00,1.31
7992.00,1.31
7991.00,1.32
7990.00,1.32
7989.00,1.32
7988.00,1.32
7987.00,1.32
7986.00,1.32
7985.00,1.32
7984.00,1.32
7983.00,1.32
7982.00,1.32
7981.00,1.32
7980.00,1.32
7979.00,1.32
7978.00,1.32
7977.00,1.32
7976.00,1.32
7975.00,1.32
7974.00,1.32
7973.00,1.32
7972.00,1.32
7971.00,1.32
7970.00,1.32
7969.00,1.32
7968.00,1.32
7967.00,1.32
7966.00,1.32
7965.00,1.32
7964.00,1.32
7963.00,1.32
7962.00,1.32
7961.00,1.32
7960.00,1.32
7959.00,1.32
7958.00,1.32
7957.00,1.32
7956.00,1.32
7955.00,1.32
7954.00,1.32
7953.00,1.32
7952.00,1.32
7951.00,1.32
7950.00,1.32
7949.00,1.32
7948.00,1.32
7947.00,1.32
7946.00,1.32
7945.00,1.32
7944.00,1.32
7943.00,1.32
7942.00,1.32
7941.00,1.33
7940.00,1.33
7939.00,1.33
7938.00,1.33
7937.00,1.33
7936.00,1.33
7935.00,1.33
7934.00,1.33
7933.00,1.33
7932.00,1.33
7931.00,1.33
7930.00,1.33
7929.00,1.33
7928.00,1.33
7927.00,1.33
7926.00,1.33
7925.00,1.33
7924.00,1.33
7923.00,1.33
7922.00,1.33
7921.00,1.33
7920.00,1.33
7919.00,1.33
7918.00,1.33
7917.00,1.33
7916.00,1.33
7915.00,1.33
7914.00,1.33
7913.00,1.33
7912.00,1.33
7911.00,1.33
7910.00,1.33
7909.00,1.33
7908.00,1.33
7907.00,1.33
7906.00,1.33
7905.00,1.33
7904.00,1.33
7903.00,1.33
7902.00,1.33
7901.00,1.33
7900.00,1.33
7899.00,1.33
7898.00,1.33
7897.00,1.33
7896.00,1.33
7895.00,1.33
7894.00,1.33
7893.00,1.33
7892.00,1.32
7891.00,1.32
7890.00,1.32
7889.00,1.32
7888.00,1.32
7887.00,1.32
7886.00,1.32
7885.00,1.32
7884.00,1.32
7883.00,1.32
7882.00,1.32
7881.00,1.33
7880.00,1.33
7879.00,1.33
7878.00,1.33
7877.00,1.33
7876.00,1.33
7875.00,1.33
7874.00,1.33
7873.00,1.33
7872.00,1.33
7871.00,1.33
7870.00,1.34
7869.00,1.34
7868.00,1.34
7867.00,1.34
7866.00,1.34
7865.00,1.34
7864.00,1.34
7863.00,1.35
7862.00,1.35
7861.00,1.35
7860.00,1.35
7859.00,1.35
7858.00,1.35
7857.00,1.35
7856.00,1.35
7855.00,1.35
7854.00,1.35
7853.00,1.35
7852.00,1.35
7851.00,1.35
7850.00,1.35
7849.00,1.35
7848.00,1.35
7847.00,1.35
7846.00,1.35
7845.00,1.35
7844.00,1.35
7843.00,1.35
7842.00,1.35
7841.00,1.35
7840.00,1.34
7839.00,1.34
7838.00,1.34
7837.00,1.34
7836.00,1.34
7835.00,1.34
7834.00,1.34
7833.00,1.34
7832.00,1.34
7831.00,1.34
7830.00,1.34
7829.00,1.34
7828.00,1.34
7827.00,1.34
7826.00,1.34
7825.00,1.34
7824.00,1.34
7823.00,1.34
7822.00,1.34
7821.00,1.34
7820.00,1.34
7819.00,1.34
7818.00,1.34
7817.00,1.34
7816.00,1.34
7815.00,1.34
7814.00,1.34
7813.00,1.34
7812.00,1.34
7811.00,1.34
7810.00,1.34
7809.00,1.34
7808.00,1.34
7807.00,1.34
7806.00,1.34
7805.00,1.35
7804.00,1.35
7803.00,1.35
7802.00,1.35
7801.00,1.35
7800.00,1.35
7799.00,1.35
7798.00,1.35
7797.00,1.35
7796.00,1.35
7795.00,1.35
7794.00,1.35
7793.00,1.35
7792.00,1.35
7791.00,1.34
7790.00,1.34
7789.00,1.34
7788.00,1.34
7787.00,1.34
7786.00,1.34
7785.00,1.34
7784.00,1.34
7783.00,1.34
7782.00,1.34
7781.00,1.34
7780.00,1.34
7779.00,1.35
7778.00,1.35
7777.00,1.35
7776.00,1.35
7775.00,1.35
7774.00,1.35
7773.00,1.35
7772.00,1.35
7771.00,1.35
7770.00,1.35
7769.00,1.35
7768.00,1.35
7767.00,1.35
7766.00,1.35
7765.00,1.35
7764.00,1.35
7763.00,1.35
7762.00,1.35
7761.00,1.35
7760.00,1.35
7759.00,1.35
7758.00,1.35
7757.00,1.35
7756.00,1.35
7755.00,1.35
7754.00,1.35
7753.00,1.35
7752.00,1.35
7751.00,1.35
7750.00,1.35
7749.00,1.35
7748.00,1.35
7747.00,1.35
7746.00,1.35
7745.00,1.35
7744.00,1.35
7743.00,1.36
7742.00,1.36
7741.00,1.36
7740.00,1.36
7739.00,1.36
7738.00,1.36
7737.00,1.36
7736.00,1.36
7735.00,1.36
7734.00,1.36
7733.00,1.36
7732.00,1.36
7731.00,1.36
7730.00,1.36
7729.00,1.36
7728.00,1.36
7727.00,1.36
7726.00,1.36
7725.00,1.36
7724.00,1.36
7723.00,1.36
7722.00,1.36
7721.00,1.36
7720.00,1.35
7719.00,1.35
7718.00,1.35
7717.00,1.35
7716.00,1.35
7715.00,1.35
7714.00,1.35
7713.00,1.35
7712.00,1.35
7711.00,1.35
7710.00,1.35
7709.00,1.35
7708.00,1.35
7707.00,1.35
7706.00,1.35
7705.00,1.35
7704.00,1.35
7703.00,1.35
7702.00,1.35
7701.00,1.35
7700.00,1.35
7699.00,1.35
7698.00,1.36
7697.00,1.36
7696.00,1.36
7695.00,1.36
7694.00,1.36
7693.00,1.36
7692.00,1.36
7691.00,1.36
7690.00,1.36
7689.00,1.36
7688.00,1.36
7687.00,1.36
7686.00,1.36
7685.00,1.36
7684.00,1.36
7683.00,1.36
7682.00,1.36
7681.00,1.36
7680.00,1.36
7679.00,1.36
7678.00,1.36
7677.00,1.36
7676.00,1.36
7675.00,1.36
7674.00,1.36
7673.00,1.36
7672.00,1.35
7671.00,1.35
7670.00,1.35
7669.00,1.35
7668.00,1.35
7667.00,1.35
7666.00,1.35
7665.00,1.35
7664.00,1.35
7663.00,1.35
7662.00,1.35
7661.00,1.35
7660.00,1.35
7659.00,1.35
7658.00,1.35
7657.00,1.35
7656.00,1.35
7655.00,1.35
7654.00,1.35
7653.00,1.35
7652.00,1.35
7651.00,1.35
7650.00,1.36
7649.00,1.36
7648.00,1.36
7647.00,1.36
7646.00,1.36
7645.00,1.36
7644.00,1.36
7643.00,1.36
7642.00,1.36
7641.00,1.36
7640.00,1.36
7639.00,1.36
7638.00,1.36
7637.00,1.36
7636.00,1.36
7635.00,1.36
7634.00,1.36
7633.00,1.36
7632.00,1.36
7631.00,1.36
7630.00,1.36
7629.00,1.36
7628.00,1.36
7627.00,1.36
7626.00,1.36
7625.00,1.36
7624.00,1.36
7623.00,1.36
7622.00,1.35
7621.00,1.35
7620.00,1.35
7619.00,1.35
7618.00,1.35
7617.00,1.35
7616.00,1.35
7615.00,1.35
7614.00,1.35
7613.00,1.35
7612.00,1.35
7611.00,1.35
7610.00,1.35
7609.00,1.35
7608.00,1.35
7607.00,1.35
7606.00,1.35
7605.00,1.35
7604.00,1.35
7603.00,1.35
7602.00,1.35
7601.00,1.35
7600.00,1.35
7599.00,1.36
7598.00,1.36
7597.00,1.36
7596.00,1.36
7595.00,1.36
7594.00,1.36
7593.00,1.36
7592.00,1.36
7591.00,1.36
7590.00,1.36
7589.00,1.36
7588.00,1.36
7587.00,1.36
7586.00,1.36
7585.00,1.36
7584.00,1.36
7583.00,1.36
7582.00,1.36
7581.00,1.36
7580.00,1.36
7579.00,1.36
7578.00,1.36
7577.00,1.36
7576.00,1.36
7575.00,1.36
7574.00,1.36
7573.00,1.36
7572.00,1.36
7571.00,1.36
7570.00,1.36
7569.00,1.36
7568.00,1.36
7567.00,1.36
7566.00,1.36
7565.00,1.36
7564.00,1.36
7563.00,1.36
7562.00,1.36
7561.00,1.36
7560.00,1.36
7559.00,1.36
7558.00,1.36
7557.00,1.36
7556.00,1.36
7555.00,1.35
7554.00,1.35
7553.00,1.35
7552.00,1.35
7551.00,1.35
7550.00,1.35
7549.00,1.35
7548.00,1.34
7547.00,1.34
7546.00,1.34
7545.00,1.34
7544.00,1.34
7543.00,1.34
7542.00,1.34
7541.00,1.34
7540.00,1.34
7539.00,1.34
7538.00,1.34
7537.00,1.34
7536.00,1.35
7535.00,1.35
7534.00,1.35
7533.00,1.35
7532.00,1.35
7531.00,1.35
7530.00,1.35
7529.00,1.35
7528.00,1.35
7527.00,1.35
7526.00,1.35
7525.00,1.35
7524.00,1.35
7523.00,1.34
7522.00,1.34
7521.00,1.34
7520.00,1.34
7519.00,1.34
7518.00,1.34
7517.00,1.34
7516.00,1.34
7515.00,1.34
7514.00,1.34
7513.00,1.34
7512.00,1.34
7511.00,1.34
7510.00,1.33
7509.00,1.33
7508.00,1.33
7507.00,1.33
7506.00,1.33
7505.00,1.33
7504.00,1.33
7503.00,1.33
7502.00,1.33
7501.00,1.32
7500.00,1.32
7499.00,1.32
7498.00,1.32
7497.00,1.32
7496.00,1.32
7495.00,1.32
7494.00,1.32
7493.00,1.32
7492.00,1.32
7491.00,1.32
7490.00,1.32
7489.00,1.32
7488.00,1.31
7487.00,1.31
7486.00,1.31
7485.00,1.31
7484.00,1.31
7483.00,1.31
7482.00,1.31
7481.00,1.31
7480.00,1.31
7479.00,1.31
7478.00,1.31
7477.00,1.31
7476.00,1.31
7475.00,1.31
7474.00,1.31
7473.00,1.31
7472.00,1.31
7471.00,1.31
7470.00,1.31
7469.00,1.31
7468.00,1.30
7467.00,1.30
7466.00,1.30
7465.00,1.30
7464.00,1.30
7463.00,1.30
7462.00,1.30
7461.00,1.30
7460.00,1.30
7459.00,1.30
7458.00,1.30
7457.00,1.30
7456.00,1.30
7455.00,1.30
7454.00,1.30
7453.00,1.30
7452.00,1.30
7451.00,1.30
7450.00,1.30
7449.00,1.30
7448.00,1.30
7447.00,1.30
7446.00,1.30
7445.00,1.30
7444.00,1.29
7443.00,1.29
7442.00,1.29
7441.00,1.29
7440.00,1.29
7439.00,1.29
7438.00,1.29
7437.00,1.29
7436.00,1.29
7435.00,1.29
7434.00,1.29
7433.00,1.29
7432.00,1.29
7431.00,1.29
7430.00,1.29
7429.00,1.28
7428.00,1.28
7427.00,1.28
7426.00,1.28
7425.00,1.28
7424.00,1.28
7423.00,1.28
7422.00,1.28
7421.00,1.28
7420.00,1.28
7419.00,1.28
7418.00,1.28
7417.00,1.28
7416.00,1.27
7415.00,1.27
7414.00,1.27
7413.00,1.27
7412.00,1.27
7411.00,1.27
7410.00,1.27
7409.00,1.27
7408.00,1.27
7407.00,1.27
7406.00,1.27
7405.00,1.27
7404.00,1.27
7403.00,1.27
7402.00,1.26
7401.00,1.26
7400.00,1.26
7399.00,1.26
7398.00,1.26
7397.00,1.26
7396.00,1.26
7395.00,1.26
7394.00,1.26
7393.00,1.25
7392.00,1.25
7391.00,1.25
7390.00,1.25
7389.00,1.25
7388.00,1.25
7387.00,1.25
7386.00,1.25
7385.00,1.25
7384.00,1.24
7383.00,1.24
7382.00,1.24
7381.00,1.24
7380.00,1.24
7379.00,1.24
7378.00,1.24
7377.00,1.24
7376.00,1.23
7375.00,1.23
7374.00,1.23
7373.00,1.23
7372.00,1.23
7371.00,1.23
7370.00,1.23
7369.00,1.23
7368.00,1.22
7367.00,1.22
7366.00,1.22
7365.00,1.22
7364.00,1.22
7363.00,1.22
7362.00,1.22
7361.00,1.22
7360.00,1.22
7359.00,1.22
7358.00,1.22
7357.00,1.22
7356.00,1.22
7355.00,1.22
7354.00,1.22
7353.00,1.22
7352.00,1.21
7351.00,1.21
7350.00,1.21
7349.00,1.21
7348.00,1.21
7347.00,1.21
7346.00,1.21
7345.00,1.21
7344.00,1.21
7343.00,1.21
7342.00,1.21
7341.00,1.21
7340.00,1.21
7339.00,1.21
7338.00,1.21
7337.00,1.21
7336.00,1.21
7335.00,1.21
7334.00,1.21
7333.00,1.21
7332.00,1.21
7331.00,1.21
7330.00,1.21
7329.00,1.21
7328.00,1.21
7327.00,1.21
7326.00,1.21
7325.00,1.21
7324.00,1.21
7323.00,1.21
7322.00,1.21
7321.00,1.21
7320.00,1.21
7319.00,1.21
7318.00,1.21
7317.00,1.21
7316.00,1.21
7315.00,1.21
7314.00,1.20
7313.00,1.20
7312.00,1.20
7311.00,1.20
7310.00,1.20
7309.00,1.20
7308.00,1.20
7307.00,1.19
7306.00,1.19
7305.00,1.19
7304.00,1.19
7303.00,1.19
7302.00,1.19
7301.00,1.19
7300.00,1.19
7299.00,1.18
7298.00,1.18
7297.00,1.18
7296.00,1.18
7295.00,1.18
7294.00,1.18
7293.00,1.18
7292.00,1.18
7291.00,1.18
7290.00,1.18
7289.00,1.18
7288.00,1.17
7287.00,1.17
7286.00,1.17
7285.00,1.17
7284.00,1.17
7283.00,1.17
7282.00,1.17
7281.00,1.17
7280.00,1.16
7279.00,1.16
7278.00,1.16
7277.00,1.16
7276.00,1.16
7275.00,1.16
7274.00,1.16
7273.00,1.16
7272.00,1.16
7271.00,1.15
7270.00,1.15
7269.00,1.15
7268.00,1.15
7267.00,1.15
7266.00,1.15
7265.00,1.15
7264.00,1.15
7263.00,1.15
7262.00,1.15
7261.00,1.15
7260.00,1.14
7259.00,1.14
7258.00,1.14
7257.00,1.14
7256.00,1.14
7255.00,1.14
7254.00,1.14
7253.00,1.14
7252.00,1.13
7251.00,1.13
7250.00,1.13
7249.00,1.13
7248.00,1.13
7247.00,1.12
7246.00,1.12
7245.00,1.12
7244.00,1.12
7243.00,1.11
7242.00,1.11
7241.00,1.11
7240.00,1.11
7239.00,1.10
7238.00,1.10
7237.00,1.10
7236.00,1.09
7235.00,1.09
7234.00,1.09
7233.00,1.08
7232.00,1.08
7231.00,1.08
7230.00,1.08
7229.00,1.07
7228.00,1.07
7227.00,1.07
7226.00,1.06
7225.00,1.06
7224.00,1.06
7223.00,1.06
7222.00,1.05
7221.00,1.05
7220.00,1.05
7219.00,1.04
7218.00,1.04
7217.00,1.04
7216.00,1.03
7215.00,1.03
7214.00,1.03
7213.00,1.02
7212.00,1.02
7211.00,1.02
7210.00,1.01
7209.00,1.01
7208.00,1.01
7207.00,1.00
7206.00,1.00
7205.00,1.00
7204.00,1.00
7203.00,0.99
7202.00,0.99
7201.00,0.99
7200.00,0.98
7199.00,0.98
7198.00,0.98
7197.00,0.97
7196.00,0.97
7195.00,0.97
7194.00,0.96
7193.00,0.96
7192.00,0.96
7191.00,0.95
7190.00,0.95
7189.00,0.94
7188.00,0.94
7187.00,0.94
7186.00,0.93
7185.00,0.93
7184.00,0.92
7183.00,0.92
7182.00,0.92
7181.00,0.92
7180.00,0.91
7179.00,0.91
7178.00,0.91
7177.00,0.90
7176.00,0.90
7175.00,0.90
7174.00,0.90
7173.00,0.90
7172.00,0.89
7171.00,0.89
7170.00,0.89
7169.00,0.89
7168.00,0.89
7167.00,0.88
7166.00,0.88
7165.00,0.88
7164.00,0.88
7163.00,0.88
7162.00,0.87
7161.00,0.87
7160.00,0.87
7159.00,0.87
7158.00,0.87
7157.00,0.87
7156.00,0.87
7155.00,0.86
7154.00,0.86
7153.00,0.86
7152.00,0.86
7151.00,0.86
7150.00,0.85
7149.00,0.85
7148.00,0.85
7147.00,0.85
7146.00,0.84
7145.00,0.84
7144.00,0.84
7143.00,0.83
7142.00,0.83
7141.00,0.83
7140.00,0.82
7139.00,0.82
7138.00,0.82
7137.00,0.81
7136.00,0.81
7135.00,0.81
7134.00,0.81
7133.00,0.80
7132.00,0.80
7131.00,0.80
7130.00,0.80
7129.00,0.79
7128.00,0.79
7127.00,0.79
7126.00,0.79
7125.00,0.79
7124.00,0.78
7123.00,0.78
7122.00,0.78
7121.00,0.78
7120.00,0.78
7119.00,0.77
7118.00,0.77
7117.00,0.77
7116.00,0.77
7115.00,0.77
7114.00,0.77
7113.00,0.76
7112.00,0.76
7111.00,0.76
7110.00,0.76
7109.00,0.76
7108.00,0.76
7107.00,0.75
7106.00,0.75
7105.00,0.75
7104.00,0.75
7103.00,0.75
7102.00,0.74
7101.00,0.74
7100.00,0.74
7099.00,0.74
7098.00,0.74
7097.00,0.73
7096.00,0.73
7095.00,0.73
7094.00,0.73
7093.00,0.72
7092.00,0.72
7091.00,0.72
7090.00,0.72
7089.00,0.72
7088.00,0.71
7087.00,0.71
7086.00,0.71
7085.00,0.71
7084.00,0.71
7083.00,0.70
7082.00,0.70
7081.00,0.70
7080.00,0.70
7079.00,0.70
7078.00,0.69
7077.00,0.69
7076.00,0.69
7075.00,0.69
7074.00,0.69
7073.00,0.68
7072.00,0.68
7071.00,0.68
7070.00,0.68
7069.00,0.68
7068.00,0.68
7067.00,0.68
7066.00,0.67
7065.00,0.67
7064.00,0.67
7063.00,0.67
7062.00,0.67
7061.00,0.67
7060.00,0.67
7059.00,0.67
7058.00,0.67
7057.00,0.67
7056.00,0.66
7055.00,0.66
7054.00,0.66
7053.00,0.66
7052.00,0.66
7051.00,0.66
7050.00,0.66
7049.00,0.66
7048.00,0.66
7047.00,0.66
7046.00,0.66
7045.00,0.66
7044.00,0.66
7043.00,0.66
7042.00,0.65
7041.00,0.65
7040.00,0.65
7039.00,0.65
7038.00,0.65
7037.00,0.65
7036.00,0.65
7035.00,0.65
7034.00,0.65
7033.00,0.65
7032.00,0.65
7031.00,0.64
7030.00,0.64
7029.00,0.64
7028.00,0.64
7027.00,0.64
7026.00,0.64
7025.00,0.64
7024.00,0.64
7023.00,0.64
7022.00,0.64
7021.00,0.64
7020.00,0.64
7019.00,0.64
7018.00,0.64
7017.00,0.64
7016.00,0.64
7015.00,0.64
7014.00,0.64
7013.00,0.64
7012.00,0.64
7011.00,0.64
7010.00,0.64
7009.00,0.63
7008.00,0.63
7007.00,0.63
7006.00,0.63
7005.00,0.63
7004.00,0.63
7003.00,0.63
7002.00,0.63
7001.00,0.63
7000.00,0.63
6999.00,0.63
6998.00,0.63
6997.00,0.63
6996.00,0.62
6995.00,0.62
6994.00,0.62
6993.00,0.62
6992.00,0.62
6991.00,0.62
6990.00,0.62
6989.00,0.62
6988.00,0.62
6987.00,0.61
6986.00,0.61
6985.00,0.61
6984.00,0.61
6983.00,0.61
6982.00,0.61
6981.00,0.61
6980.00,0.61
6979.00,0.61
6978.00,0.61
6977.00,0.61
6976.00,0.61
6975.00,0.61
6974.00,0.61
6973.00,0.61
6972.00,0.61
6971.00,0.60
6970.00,0.60
6969.00,0.60
6968.00,0.60
6967.00,0.60
6966.00,0.60
6965.00,0.60
6964.00,0.60
6963.00,0.60
6962.00,0.60
6961.00,0.60
6960.00,0.60
6959.00,0.60
6958.00,0.60
6957.00,0.59
6956.00,0.59
6955.00,0.59
6954.00,0.59
6953.00,0.59
6952.00,0.59
6951.00,0.59
6950.00,0.59
6949.00,0.59
6948.00,0.59
6947.00,0.59
6946.00,0.59
6945.00,0.60
6944.00,0.60
6943.00,0.60
6942.00,0.60
6941.00,0.60
6940.00,0.60
6939.00,0.59
6938.00,0.59
6937.00,0.59
6936.00,0.59
6935.00,0.59
6934.00,0.59
6933.00,0.59
6932.00,0.59
6931.00,0.59
6930.00,0.59
6929.00,0.59
6928.00,0.59
6927.00,0.59
6926.00,0.59
6925.00,0.59
6924.00,0.59
6923.00,0.59
6922.00,0.59
6921.00,0.59
6920.00,0.59
6919.00,0.59
6918.00,0.59
6917.00,0.59
6916.00,0.59
6915.00,0.59
6914.00,0.59
6913.00,0.59
6912.00,0.59
6911.00,0.59
6910.00,0.59
6909.00,0.59
6908.00,0.59
6907.00,0.59
6906.00,0.59
6905.00,0.59
6904.00,0.59
6903.00,0.59
6902.00,0.59
6901.00,0.59
6900.00,0.59
6899.00,0.59
6898.00,0.59
6897.00,0.59
6896.00,0.59
6895.00,0.59
6894.00,0.59
6893.00,0.59
6892.00,0.59
6891.00,0.59
6890.00,0.59
6889.00,0.59
6888.00,0.59
6887.00,0.59
6886.00,0.59
6885.00,0.59
6884.00,0.59
6883.00,0.58
6882.00,0.58
6881.00,0.58
6880.00,0.58
6879.00,0.58
6878.00,0.58
6877.00,0.58
6876.00,0.58
6875.00,0.58
6874.00,0.58
6873.00,0.58
6872.00,0.58
6871.00,0.58
6870.00,0.58
6869.00,0.58
6868.00,0.58
6867.00,0.58
6866.00,0.58
6865.00,0.58
6864.00,0.58
6863.00,0.58
6862.00,0.58
6861.00,0.59
6860.00,0.59
6859.00,0.59
6858.00,0.59
6857.00,0.59
6856.00,0.59
6855.00,0.59
6854.00,0.59
6853.00,0.59
6852.00,0.59
6851.00,0.59
6850.00,0.59
6849.00,0.59
6848.00,0.59
6847.00,0.59
6846.00,0.59
6845.00,0.59
6844.00,0.59
6843.00,0.59
6842.00,0.59
6841.00,0.59
6840.00,0.59
6839.00,0.59
6838.00,0.59
6837.00,0.59
6836.00,0.59
6835.00,0.59
6834.00,0.59
6833.00,0.59
6832.00,0.59
6831.00,0.59
6830.00,0.59
6829.00,0.59
6828.00,0.59
6827.00,0.59
6826.00,0.59
6825.00,0.59
6824.00,0.59
6823.00,0.59
6822.00,0.59
6821.00,0.59
6820.00,0.59
6819.00,0.59
6818.00,0.59
6817.00,0.59
6816.00,0.59
6815.00,0.59
6814.00,0.59
6813.00,0.59
6812.00,0.59
6811.00,0.59
6810.00,0.59
6809.00,0.59
6808.00,0.60
6807.00,0.60
6806.00,0.60
6805.00,0.60
6804.00,0.60
6803.00,0.60
6802.00,0.60
6801.00,0.60
6800.00,0.60
6799.00,0.60
6798.00,0.60
6797.00,0.60
6796.00,0.60
6795.00,0.60
6794.00,0.60
6793.00,0.60
6792.00,0.60
6791.00,0.60
6790.00,0.60
6789.00,0.60
6788.00,0.60
6787.00,0.60
6786.00,0.60
6785.00,0.60
6784.00,0.60
6783.00,0.60
6782.00,0.60
6781.00,0.60
6780.00,0.60
6779.00,0.60
6778.00,0.60
6777.00,0.60
6776.00,0.60
6775.00,0.60
6774.00,0.60
6773.00,0.60
6772.00,0.60
6771.00,0.60
6770.00,0.60
6769.00,0.60
6768.00,0.60
6767.00,0.60
6766.00,0.60
6765.00,0.60
6764.00,0.60
6763.00,0.60
6762.00,0.60
6761.00,0.60
6760.00,0.60
6759.00,0.60
6758.00,0.60
6757.00,0.60
6756.00,0.60
6755.00,0.61
6754.00,0.61
6753.00,0.61
6752.00,0.61
6751.00,0.61
6750.00,0.61
6749.00,0.61
6748.00,0.61
6747.00,0.61
6746.00,0.61
6745.00,0.61
6744.00,0.61
6743.00,0.62
6742.00,0.62
6741.00,0.62
6740.00,0.62
6739.00,0.62
6738.00,0.62
6737.00,0.62
6736.00,0.62
6735.00,0.62
6734.00,0.63
6733.00,0.63
6732.00,0.63
6731.00,0.63
6730.00,0.63
6729.00,0.63
6728.00,0.63
6727.00,0.64
6726.00,0.64
6725.00,0.64
6724.00,0.64
6723.00,0.64
6722.00,0.64
6721.00,0.64
6720.00,0.64
6719.00,0.64
6718.00,0.64
6717.00,0.64
6716.00,0.64
6715.00,0.64
6714.00,0.64
6713.00,0.64
6712.00,0.64
6711.00,0.64
6710.00,0.64
6709.00,0.64
6708.00,0.64
6707.00,0.64
6706.00,0.64
6705.00,0.64
6704.00,0.64
6703.00,0.64
6702.00,0.64
6701.00,0.64
6700.00,0.64
6699.00,0.64
6698.00,0.64
6697.00,0.64
6696.00,0.64
6695.00,0.65
6694.00,0.65
6693.00,0.65
6692.00,0.65
6691.00,0.65
6690.00,0.65
6689.00,0.65
6688.00,0.65
6687.00,0.65
6686.00,0.65
6685.00,0.65
6684.00,0.65
6683.00,0.65
6682.00,0.65
6681.00,0.65
6680.00,0.65
6679.00,0.66
6678.00,0.66
6677.00,0.66
6676.00,0.66
6675.00,0.66
6674.00,0.66
6673.00,0.66
6672.00,0.66
6671.00,0.66
6670.00,0.66
6669.00,0.66
6668.00,0.66
6667.00,0.66
6666.00,0.66
6665.00,0.66
6664.00,0.66
6663.00,0.66
6662.00,0.67
6661.00,0.67
6660.00,0.67
6659.00,0.67
6658.00,0.67
6657.00,0.67
6656.00,0.67
6655.00,0.67
6654.00,0.67
6653.00,0.67
6652.00,0.67
6651.00,0.67
6650.00,0.67
6649.00,0.67
6648.00,0.67
6647.00,0.67
6646.00,0.67
6645.00,0.67
6644.00,0.67
6643.00,0.68
6642.00,0.68
6641.00,0.68
6640.00,0.68
6639.00,0.68
6638.00,0.68
6637.00,0.68
6636.00,0.68
6635.00,0.68
6634.00,0.69
6633.00,0.69
6632.00,0.69
6631.00,0.69
6630.00,0.69
6629.00,0.69
6628.00,0.69
6627.00,0.69
6626.00,0.70
6625.00,0.70
6624.00,0.70
6623.00,0.70
6622.00,0.70
6621.00,0.70
6620.00,0.70
6619.00,0.70
6618.00,0.70
6617.00,0.70
6616.00,0.71
6615.00,0.71
6614.00,0.71
6613.00,0.71
6612.00,0.71
6611.00,0.71
6610.00,0.71
6609.00,0.71
6608.00,0.71
6607.00,0.71
6606.00,0.71
6605.00,0.71
6604.00,0.71
6603.00,0.71
6602.00,0.71
6601.00,0.71
6600.00,0.71
6599.00,0.71
6598.00,0.71
6597.00,0.71
6596.00,0.71
6595.00,0.71
6594.00,0.72
6593.00,0.72
6592.00,0.72
6591.00,0.72
6590.00,0.72
6589.00,0.72
6588.00,0.72
6587.00,0.72
6586.00,0.72
6585.00,0.72
6584.00,0.72
6583.00,0.72
6582.00,0.72
6581.00,0.73
6580.00,0.73
6579.00,0.73
6578.00,0.73
6577.00,0.73
6576.00,0.73
6575.00,0.73
6574.00,0.73
6573.00,0.74
6572.00,0.74
6571.00,0.74
6570.00,0.74
6569.00,0.74
6568.00,0.74
6567.00,0.74
6566.00,0.74
6565.00,0.74
6564.00,0.74
6563.00,0.74
6562.00,0.74
6561.00,0.74
6560.00,0.74
6559.00,0.74
6558.00,0.74
6557.00,0.74
6556.00,0.74
6555.00,0.74
6554.00,0.75
6553.00,0.75
6552.00,0.75
6551.00,0.75
6550.00,0.75
6549.00,0.75
6548.00,0.75
6547.00,0.75
6546.00,0.75
6545.00,0.75
6544.00,0.75
6543.00,0.75
6542.00,0.75
6541.00,0.76
6540.00,0.76
6539.00,0.76
6538.00,0.76
6537.00,0.76
6536.00,0.76
6535.00,0.76
6534.00,0.76
6533.00,0.76
6532.00,0.76
6531.00,0.76
6530.00,0.76
6529.00,0.76
6528.00,0.76
6527.00,0.76
6526.00,0.76
6525.00,0.76
6524.00,0.76
6523.00,0.76
6522.00,0.76
6521.00,0.77
6520.00,0.77
6519.00,0.77
6518.00,0.77
6517.00,0.77
6516.00,0.77
6515.00,0.78
6514.00,0.78
6513.00,0.78
6512.00,0.78
6511.00,0.78
6510.00,0.78
6509.00,0.78
6508.00,0.79
6507.00,0.79
6506.00,0.79
6505.00,0.79
6504.00,0.79
6503.00,0.79
6502.00,0.79
6501.00,0.79
6500.00,0.79
6499.00,0.79
6498.00,0.79
6497.00,0.79
6496.00,0.79
6495.00,0.79
6494.00,0.79
6493.00,0.78
6492.00,0.78
6491.00,0.79
6490.00,0.79
6489.00,0.79
6488.00,0.79
6487.00,0.79
6486.00,0.79
6485.00,0.79
6484.00,0.79
6483.00,0.79
6482.00,0.79
6481.00,0.79
6480.00,0.79
6479.00,0.79
6478.00,0.79
6477.00,0.80
6476.00,0.80
6475.00,0.80
6474.00,0.80
6473.00,0.80
6472.00,0.80
6471.00,0.80
6470.00,0.80
6469.00,0.80
6468.00,0.80
6467.00,0.80
6466.00,0.80
6465.00,0.80
6464.00,0.80
6463.00,0.80
6462.00,0.80
6461.00,0.80
6460.00,0.80
6459.00,0.80
6458.00,0.80
6457.00,0.80
6456.00,0.80
6455.00,0.80
6454.00,0.81
6453.00,0.81
6452.00,0.81
6451.00,0.81
6450.00,0.81
6449.00,0.81
6448.00,0.81
6447.00,0.81
6446.00,0.81
6445.00,0.81
6444.00,0.81
6443.00,0.81
6442.00,0.81
6441.00,0.81
6440.00,0.81
6439.00,0.81
6438.00,0.81
6437.00,0.81
6436.00,0.82
6435.00,0.82
6434.00,0.82
6433.00,0.82
6432.00,0.82
6431.00,0.82
6430.00,0.82
6429.00,0.82
6428.00,0.82
6427.00,0.82
6426.00,0.82
6425.00,0.82
6424.00,0.82
6423.00,0.82
6422.00,0.82
6421.00,0.82
6420.00,0.82
6419.00,0.82
6418.00,0.82
6417.00,0.83
6416.00,0.83
6415.00,0.83
6414.00,0.83
6413.00,0.83
6412.00,0.83
6411.00,0.83
6410.00,0.83
6409.00,0.83
6408.00,0.83
6407.00,0.83
6406.00,0.84
6405.00,0.84
6404.00,0.84
6403.00,0.84
6402.00,0.84
6401.00,0.84
6400.00,0.84
6399.00,0.84
6398.00,0.84
6397.00,0.84
6396.00,0.84
6395.00,0.84
6394.00,0.85
6393.00,0.85
6392.00,0.85
6391.00,0.85
6390.00,0.85
6389.00,0.85
6388.00,0.85
6387.00,0.85
6386.00,0.85
6385.00,0.85
6384.00,0.85
6383.00,0.85
6382.00,0.85
6381.00,0.85
6380.00,0.85
6379.00,0.85
6378.00,0.85
6377.00,0.85
6376.00,0.85
6375.00,0.85
6374.00,0.85
6373.00,0.85
6372.00,0.85
6371.00,0.85
6370.00,0.86
6369.00,0.86
6368.00,0.86
6367.00,0.86
6366.00,0.86
6365.00,0.86
6364.00,0.86
6363.00,0.86
6362.00,0.86
6361.00,0.86
6360.00,0.86
6359.00,0.86
6358.00,0.86
6357.00,0.86
6356.00,0.86
6355.00,0.86
6354.00,0.86
6353.00,0.86
6352.00,0.86
6351.00,0.86
6350.00,0.86
6349.00,0.86
6348.00,0.86
6347.00,0.86
6346.00,0.86
6345.00,0.86
6344.00,0.86
6343.00,0.86
6342.00,0.87
6341.00,0.87
6340.00,0.87
6339.00,0.87
6338.00,0.87
6337.00,0.87
6336.00,0.87
6335.00,0.87
6334.00,0.87
6333.00,0.87
6332.00,0.87
6331.00,0.87
6330.00,0.87
6329.00,0.87
6328.00,0.87
6327.00,0.87
6326.00,0.87
6325.00,0.88
6324.00,0.88
6323.00,0.88
6322.00,0.88
6321.00,0.88
6320.00,0.88
6319.00,0.88
6318.00,0.88
6317.00,0.88
6316.00,0.88
6315.00,0.89
6314.00,0.89
6313.00,0.89
6312.00,0.89
6311.00,0.89
6310.00,0.89
6309.00,0.89
6308.00,0.90
6307.00,0.90
6306.00,0.90
6305.00,0.90
6304.00,0.90
6303.00,0.90
6302.00,0.91
6301.00,0.91
6300.00,0.91
6299.00,0.91
6298.00,0.91
6297.00,0.91
6296.00,0.91
6295.00,0.91
6294.00,0.92
6293.00,0.92
6292.00,0.92
6291.00,0.92
6290.00,0.92
6289.00,0.92
6288.00,0.92
6287.00,0.92
6286.00,0.92
6285.00,0.92
6284.00,0.92
6283.00,0.92
6282.00,0.92
6281.00,0.92
6280.00,0.92
6279.00,0.92
6278.00,0.92
6277.00,0.92
6276.00,0.92
6275.00,0.92
6274.00,0.92
6273.00,0.93
6272.00,0.93
6271.00,0.93
6270.00,0.93
6269.00,0.93
6268.00,0.93
6267.00,0.93
6266.00,0.93
6265.00,0.93
6264.00,0.94
6263.00,0.94
6262.00,0.94
6261.00,0.94
6260.00,0.94
6259.00,0.94
6258.00,0.95
6257.00,0.95
6256.00,0.95
6255.00,0.95
6254.00,0.95
6253.00,0.95
6252.00,0.95
6251.00,0.96
6250.00,0.96
6249.00,0.96
6248.00,0.96
6247.00,0.96
6246.00,0.96
6245.00,0.96
6244.00,0.96
6243.00,0.97
6242.00,0.97
6241.00,0.97
6240.00,0.97
6239.00,0.97
6238.00,0.97
6237.00,0.97
6236.00,0.97
6235.00,0.97
6234.00,0.97
6233.00,0.97
6232.00,0.97
6231.00,0.97
6230.00,0.97
6229.00,0.98
6228.00,0.98
6227.00,0.98
6226.00,0.98
6225.00,0.98
6224.00,0.98
6223.00,0.98
6222.00,0.99
6221.00,0.99
6220.00,0.99
6219.00,0.99
6218.00,0.99
6217.00,1.00
6216.00,1.00
6215.00,1.00
6214.00,1.00
6213.00,1.00
6212.00,1.00
6211.00,1.01
6210.00,1.01
6209.00,1.01
6208.00,1.01
6207.00,1.01
6206.00,1.01
6205.00,1.01
6204.00,1.01
6203.00,1.02
6202.00,1.02
6201.00,1.02
6200.00,1.02
6199.00,1.02
6198.00,1.02
6197.00,1.02
6196.00,1.02
6195.00,1.02
6194.00,1.02
6193.00,1.02
6192.00,1.02
6191.00,1.02
6190.00,1.03
6189.00,1.03
6188.00,1.03
6187.00,1.03
6186.00,1.03
6185.00,1.03
6184.00,1.03
6183.00,1.03
6182.00,1.04
6181.00,1.04
6180.00,1.04
6179.00,1.04
6178.00,1.04
6177.00,1.04
6176.00,1.04
6175.00,1.04
6174.00,1.04
6173.00,1.04
6172.00,1.05
6171.00,1.05
6170.00,1.05
6169.00,1.05
6168.00,1.05
6167.00,1.05
6166.00,1.05
6165.00,1.05
6164.00,1.05
6163.00,1.06
6162.00,1.06
6161.00,1.06
6160.00,1.06
6159.00,1.06
6158.00,1.07
6157.00,1.07
6156.00,1.07
6155.00,1.07
6154.00,1.07
6153.00,1.07
6152.00,1.08
6151.00,1.08
6150.00,1.08
6149.00,1.08
6148.00,1.08
6147.00,1.09
6146.00,1.09
6145.00,1.09
6144.00,1.09
6143.00,1.09
6142.00,1.09
6141.00,1.09
6140.00,1.10
6139.00,1.10
6138.00,1.10
6137.00,1.10
6136.00,1.10
6135.00,1.10
6134.00,1.10
6133.00,1.10
6132.00,1.11
6131.00,1.11
6130.00,1.11
6129.00,1.11
6128.00,1.11
6127.00,1.11
6126.00,1.11
6125.00,1.12
6124.00,1.12
6123.00,1.12
6122.00,1.12
6121.00,1.12
6120.00,1.12
6119.00,1.13
6118.00,1.13
6117.00,1.13
6116.00,1.13
6115.00,1.13
6114.00,1.13
6113.00,1.14
6112.00,1.14
6111.00,1.14
6110.00,1.14
6109.00,1.14
6108.00,1.14
6107.00,1.14
6106.00,1.14
6105.00,1.14
6104.00,1.14
6103.00,1.15
6102.00,1.15
6101.00,1.15
6100.00,1.15
6099.00,1.15
6098.00,1.15
6097.00,1.15
6096.00,1.16
6095.00,1.16
6094.00,1.16
6093.00,1.16
6092.00,1.16
6091.00,1.16
6090.00,1.17
6089.00,1.17
6088.00,1.17
6087.00,1.17
6086.00,1.17
6085.00,1.17
6084.00,1.17
6083.00,1.17
6082.00,1.18
6081.00,1.18
6080.00,1.18
6079.00,1.18
6078.00,1.18
6077.00,1.18
6076.00,1.18
6075.00,1.18
6074.00,1.18
6073.00,1.19
6072.00,1.19
6071.00,1.19
6070.00,1.19
6069.00,1.19
6068.00,1.19
6067.00,1.19
6066.00,1.19
6065.00,1.19
6064.00,1.19
6063.00,1.20
6062.00,1.20
6061.00,1.20
6060.00,1.20
6059.00,1.20
6058.00,1.20
6057.00,1.20
6056.00,1.20
6055.00,1.20
6054.00,1.20
6053.00,1.20
6052.00,1.20
6051.00,1.21
6050.00,1.21
6049.00,1.21
6048.00,1.21
6047.00,1.21
6046.00,1.21
6045.00,1.21
6044.00,1.22
6043.00,1.22
6042.00,1.22
6041.00,1.22
6040.00,1.22
6039.00,1.22
6038.00,1.22
6037.00,1.22
6036.00,1.22
6035.00,1.22
6034.00,1.22
6033.00,1.22
6032.00,1.22
6031.00,1.22
6030.00,1.22
6029.00,1.22
6028.00,1.22
6027.00,1.22
6026.00,1.22
6025.00,1.22
6024.00,1.22
6023.00,1.22
6022.00,1.22
6021.00,1.22
6020.00,1.22
6019.00,1.22
6018.00,1.22
6017.00,1.22
6016.00,1.22
6015.00,1.22
6014.00,1.22
6013.00,1.22
6012.00,1.22
6011.00,1.22
6010.00,1.22
6009.00,1.22
6008.00,1.22
6007.00,1.22
6006.00,1.22
6005.00,1.22
6004.00,1.22
6003.00,1.22
6002.00,1.22
6001.00,1.21
6000.00,1.21
5999.00,1.21
5998.00,1.21
5997.00,1.21
5996.00,1.21
5995.00,1.21
5994.00,1.21
5993.00,1.21
5992.00,1.21
5991.00,1.21
5990.00,1.21
5989.00,1.21
5988.00,1.21
5987.00,1.20
5986.00,1.20
5985.00,1.20
5984.00,1.20
5983.00,1.19
5982.00,1.19
5981.00,1.19
5980.00,1.18
5979.00,1.18
5978.00,1.17
5977.00,1.17
5976.00,1.16
5975.00,1.16
5974.00,1.15
5973.00,1.15
5972.00,1.14
5971.00,1.14
5970.00,1.13
5969.00,1.13
5968.00,1.12
5967.00,1.12
5966.00,1.11
5965.00,1.10
5964.00,1.10
5963.00,1.09
5962.00,1.09
5961.00,1.08
5960.00,1.07
5959.00,1.07
5958.00,1.06
5957.00,1.05
5956.00,1.05
5955.00,1.04
5954.00,1.04
5953.00,1.03
5952.00,1.02
5951.00,1.02
5950.00,1.02
5949.00,1.01
5948.00,1.01
5947.00,1.00
5946.00,1.00
5945.00,1.00
5944.00,1.00
5943.00,0.99
5942.00,0.99
5941.00,0.99
5940.00,0.99
5939.00,0.99
5938.00,0.99
5937.00,0.98
5936.00,0.98
5935.00,0.98
5934.00,0.98
5933.00,0.98
5932.00,0.98
5931.00,0.98
5930.00,0.98
5929.00,0.97
5928.00,0.97
5927.00,0.97
5926.00,0.97
5925.00,0.97
5924.00,0.97
5923.00,0.97
5922.00,0.96
5921.00,0.96
5920.00,0.96
5919.00,0.96
5918.00,0.96
5917.00,0.95
5916.00,0.95
5915.00,0.95
5914.00,0.95
5913.00,0.94
5912.00,0.94
5911.00,0.94
5910.00,0.94
5909.00,0.94
5908.00,0.94
5907.00,0.93
5906.00,0.93
5905.00,0.93
5904.00,0.93
5903.00,0.93
5902.00,0.93
5901.00,0.93
5900.00,0.93
5899.00,0.93
5898.00,0.93
5897.00,0.93
5896.00,0.93
5895.00,0.93
5894.00,0.93
5893.00,0.93
5892.00,0.94
5891.00,0.94
5890.00,0.94
5889.00,0.94
5888.00,0.94
5887.00,0.95
5886.00,0.95
5885.00,0.95
5884.00,0.96
5883.00,0.96
5882.00,0.96
5881.00,0.97
5880.00,0.97
5879.00,0.97
5878.00,0.98
5877.00,0.98
5876.00,0.98
5875.00,0.98
5874.00,0.99
5873.00,0.99
5872.00,0.99
5871.00,1.00
5870.00,1.00
5869.00,1.00
5868.00,1.00
5867.00,1.00
5866.00,1.01
5865.00,1.01
5864.00,1.01
5863.00,1.01
5862.00,1.01
5861.00,1.01
5860.00,1.01
5859.00,1.01
5858.00,1.01
5857.00,1.01
5856.00,1.02
5855.00,1.02
5854.00,1.02
5853.00,1.02
5852.00,1.02
5851.00,1.02
5850.00,1.02
5849.00,1.02
5848.00,1.02
5847.00,1.02
5846.00,1.02
5845.00,1.02
5844.00,1.02
5843.00,1.02
5842.00,1.02
5841.00,1.02
5840.00,1.02
5839.00,1.02
5838.00,1.02
5837.00,1.02
5836.00,1.02
5835.00,1.02
5834.00,1.02
5833.00,1.02
5832.00,1.02
5831.00,1.02
5830.00,1.02
5829.00,1.02
5828.00,1.02
5827.00,1.02
5826.00,1.02
5825.00,1.02
5824.00,1.02
5823.00,1.02
5822.00,1.02
5821.00,1.02
5820.00,1.02
5819.00,1.02
5818.00,1.02
5817.00,1.02
5816.00,1.02
5815.00,1.02
5814.00,1.02
5813.00,1.02
5812.00,1.02
5811.00,1.02
5810.00,1.02
5809.00,1.02
5808.00,1.02
5807.00,1.02
5806.00,1.02
5805.00,1.02
5804.00,1.02
5803.00,1.02
5802.00,1.02
5801.00,1.01
5800.00,1.01
5799.00,1.01
5798.00,1.01
5797.00,1.01
5796.00,1.01
5795.00,1.01
5794.00,1.01
5793.00,1.01
5792.00,1.01
5791.00,1.01
5790.00,1.00
5789.00,1.00
5788.00,1.00
5787.00,1.00
5786.00,1.00
5785.00,1.00
5784.00,1.00
5783.00,0.99
5782.00,0.99
5781.00,0.99
5780.00,0.99
5779.00,0.99
5778.00,0.99
5777.00,0.99
5776.00,0.98
5775.00,0.98
5774.00,0.98
5773.00,0.98
5772.00,0.98
5771.00,0.98
5770.00,0.98
5769.00,0.98
5768.00,0.98
5767.00,0.98
5766.00,0.98
5765.00,0.99
5764.00,0.99
5763.00,0.99
5762.00,0.99
5761.00,0.99
5760.00,1.00
5759.00,1.00
5758.00,1.00
5757.00,1.01
5756.00,1.01
5755.00,1.01
5754.00,1.02
5753.00,1.02
5752.00,1.02
5751.00,1.03
5750.00,1.03
5749.00,1.03
5748.00,1.04
5747.00,1.04
5746.00,1.04
5745.00,1.05
5744.00,1.05
5743.00,1.05
5742.00,1.06
5741.00,1.06
5740.00,1.06
5739.00,1.06
5738.00,1.07
5737.00,1.07
5736.00,1.07
5735.00,1.07
5734.00,1.07
5733.00,1.08
5732.00,1.08
5731.00,1.08
5730.00,1.08
5729.00,1.08
5728.00,1.08
5727.00,1.09
5726.00,1.09
5725.00,1.09
5724.00,1.09
5723.00,1.09
5722.00,1.09
5721.00,1.09
5720.00,1.09
5719.00,1.09
5718.00,1.09
5717.00,1.09
5716.00,1.09
5715.00,1.09
5714.00,1.09
5713.00,1.09
5712.00,1.09
5711.00,1.09
5710.00,1.09
5709.00,1.09
5708.00,1.09
5707.00,1.09
5706.00,1.09
5705.00,1.09
5704.00,1.09
5703.00,1.08
5702.00,1.08
5701.00,1.08
5700.00,1.08
5699.00,1.08
5698.00,1.08
5697.00,1.08
5696.00,1.08
5695.00,1.08
5694.00,1.08
5693.00,1.08
5692.00,1.08
5691.00,1.07
5690.00,1.07
5689.00,1.07
5688.00,1.07
5687.00,1.07
5686.00,1.07
5685.00,1.07
5684.00,1.07
5683.00,1.07
5682.00,1.07
5681.00,1.07
5680.00,1.07
5679.00,1.07
5678.00,1.07
5677.00,1.07
5676.00,1.07
5675.00,1.07
5674.00,1.07
5673.00,1.07
5672.00,1.07
5671.00,1.07
5670.00,1.07
5669.00,1.07
5668.00,1.07
5667.00,1.07
5666.00,1.07
5665.00,1.07
5664.00,1.07
5663.00,1.07
5662.00,1.07
5661.00,1.07
5660.00,1.07
5659.00,1.07
5658.00,1.07
5657.00,1.08
5656.00,1.08
5655.00,1.08
5654.00,1.08
5653.00,1.08
5652.00,1.08
5651.00,1.09
5650.00,1.09
5649.00,1.09
5648.00,1.09
5647.00,1.09
5646.00,1.10
5645.00,1.10
5644.00,1.10
5643.00,1.10
5642.00,1.10
5641.00,1.11
5640.00,1.11
5639.00,1.11
5638.00,1.11
5637.00,1.11
5636.00,1.12
5635.00,1.12
5634.00,1.12
5633.00,1.12
5632.00,1.12
5631.00,1.13
5630.00,1.13
5629.00,1.13
5628.00,1.13
5627.00,1.13
5626.00,1.13
5625.00,1.14
5624.00,1.14
5623.00,1.14
5622.00,1.14
5621.00,1.14
5620.00,1.14
5619.00,1.14
5618.00,1.15
5617.00,1.15
5616.00,1.15
5615.00,1.15
5614.00,1.15
5613.00,1.15
5612.00,1.16
5611.00,1.16
5610.00,1.16
5609.00,1.16
5608.00,1.16
5607.00,1.16
5606.00,1.17
5605.00,1.17
5604.00,1.17
5603.00,1.17
5602.00,1.17
5601.00,1.18
5600.00,1.18
5599.00,1.18
5598.00,1.18
5597.00,1.18
5596.00,1.19
5595.00,1.19
5594.00,1.19
5593.00,1.19
5592.00,1.19
5591.00,1.20
5590.00,1.20
5589.00,1.20
5588.00,1.20
5587.00,1.20
5586.00,1.20
5585.00,1.20
5584.00,1.21
5583.00,1.21
5582.00,1.21
5581.00,1.21
5580.00,1.21
5579.00,1.21
5578.00,1.21
5577.00,1.21
5576.00,1.22
5575.00,1.22
5574.00,1.22
5573.00,1.22
5572.00,1.22
5571.00,1.22
5570.00,1.22
5569.00,1.23
5568.00,1.23
5567.00,1.23
5566.00,1.23
5565.00,1.23
5564.00,1.23
5563.00,1.23
5562.00,1.23
5561.00,1.23
5560.00,1.24
5559.00,1.24
5558.00,1.24
5557.00,1.24
5556.00,1.24
5555.00,1.24
5554.00,1.24
5553.00,1.24
5552.00,1.24
5551.00,1.24
5550.00,1.25
5549.00,1.25
5548.00,1.25
5547.00,1.25
5546.00,1.25
5545.00,1.25
5544.00,1.25
5543.00,1.26
5542.00,1.26
5541.00,1.26
5540.00,1.26
5539.00,1.26
5538.00,1.26
5537.00,1.26
5536.00,1.27
5535.00,1.27
5534.00,1.27
5533.00,1.27
5532.00,1.27
5531.00,1.27
5530.00,1.27
5529.00,1.27
5528.00,1.28
5527.00,1.28
5526.00,1.28
5525.00,1.28
5524.00,1.28
5523.00,1.28
5522.00,1.28
5521.00,1.28
5520.00,1.28
5519.00,1.28
5518.00,1.28
5517.00,1.28
5516.00,1.28
5515.00,1.28
5514.00,1.28
5513.00,1.29
5512.00,1.29
5511.00,1.29
5510.00,1.29
5509.00,1.29
5508.00,1.29
5507.00,1.29
5506.00,1.29
5505.00,1.29
5504.00,1.29
5503.00,1.29
5502.00,1.29
5501.00,1.29
5500.00,1.29
5499.00,1.30
5498.00,1.30
5497.00,1.30
5496.00,1.30
5495.00,1.30
5494.00,1.30
5493.00,1.30
5492.00,1.30
5491.00,1.30
5490.00,1.30
5489.00,1.30
5488.00,1.30
5487.00,1.31
5486.00,1.31
5485.00,1.31
5484.00,1.31
5483.00,1.31
5482.00,1.31
5481.00,1.31
5480.00,1.31
5479.00,1.31
5478.00,1.32
5477.00,1.32
5476.00,1.32
5475.00,1.32
5474.00,1.32
5473.00,1.32
5472.00,1.32
5471.00,1.32
5470.00,1.33
5469.00,1.33
5468.00,1.33
5467.00,1.33
5466.00,1.33
5465.00,1.33
5464.00,1.33
5463.00,1.34
5462.00,1.34
5461.00,1.34
5460.00,1.34
5459.00,1.34
5458.00,1.34
5457.00,1.34
5456.00,1.34
5455.00,1.34
5454.00,1.34
5453.00,1.34
5452.00,1.34
5451.00,1.34
5450.00,1.34
5449.00,1.34
5448.00,1.35
5447.00,1.35
5446.00,1.35
5445.00,1.35
5444.00,1.35
5443.00,1.35
5442.00,1.35
5441.00,1.35
5440.00,1.35
5439.00,1.35
5438.00,1.35
5437.00,1.35
5436.00,1.35
5435.00,1.35
5434.00,1.35
5433.00,1.35
5432.00,1.36
5431.00,1.36
5430.00,1.36
5429.00,1.36
5428.00,1.36
5427.00,1.36
5426.00,1.36
5425.00,1.36
5424.00,1.36
5423.00,1.36
5422.00,1.36
5421.00,1.36
5420.00,1.36
5419.00,1.36
5418.00,1.36
5417.00,1.36
5416.00,1.36
5415.00,1.36
5414.00,1.36
5413.00,1.36
5412.00,1.36
5411.00,1.36
5410.00,1.36
5409.00,1.36
5408.00,1.36
5407.00,1.36
5406.00,1.36
5405.00,1.36
5404.00,1.36
5403.00,1.36
5402.00,1.36
5401.00,1.36
5400.00,1.36
5399.00,1.36
5398.00,1.36
5397.00,1.36
5396.00,1.36
5395.00,1.36
5394.00,1.36
5393.00,1.36
5392.00,1.36
5391.00,1.35
5390.00,1.35
5389.00,1.35
5388.00,1.35
5387.00,1.35
5386.00,1.34
5385.00,1.34
5384.00,1.34
5383.00,1.34
5382.00,1.33
5381.00,1.33
5380.00,1.33
5379.00,1.33
5378.00,1.32
5377.00,1.32
5376.00,1.32
5375.00,1.31
5374.00,1.31
5373.00,1.31
5372.00,1.30
5371.00,1.30
5370.00,1.29
5369.00,1.29
5368.00,1.28
5367.00,1.28
5366.00,1.27
5365.00,1.27
5364.00,1.26
5363.00,1.26
5362.00,1.25
5361.00,1.25
5360.00,1.24
5359.00,1.23
5358.00,1.23
5357.00,1.22
5356.00,1.21
5355.00,1.20
5354.00,1.20
5353.00,1.19
5352.00,1.18
5351.00,1.17
5350.00,1.17
5349.00,1.16
5348.00,1.15
5347.00,1.14
5346.00,1.13
5345.00,1.13
5344.00,1.12
5343.00,1.11
5342.00,1.10
5341.00,1.09
5340.00,1.09
5339.00,1.08
5338.00,1.07
5337.00,1.06
5336.00,1.05
5335.00,1.05
5334.00,1.04
5333.00,1.03
5332.00,1.02
5331.00,1.01
5330.00,1.01
5329.00,1.00
5328.00,0.99
5327.00,0.98
5326.00,0.97
5325.00,0.97
5324.00,0.96
5323.00,0.95
5322.00,0.94
5321.00,0.94
5320.00,0.93
5319.00,0.92
5318.00,0.92
5317.00,0.91
5316.00,0.90
5315.00,0.89
5314.00,0.89
5313.00,0.88
5312.00,0.87
5311.00,0.87
5310.00,0.86
5309.00,0.86
5308.00,0.85
5307.00,0.85
5306.00,0.84
5305.00,0.84
5304.00,0.83
5303.00,0.83
5302.00,0.82
5301.00,0.82
5300.00,0.81
5299.00,0.81
5298.00,0.81
5297.00,0.80
5296.00,0.80
5295.00,0.80
5294.00,0.80
5293.00,0.79
5292.00,0.79
5291.00,0.79
5290.00,0.79
5289.00,0.78
5288.00,0.78
5287.00,0.78
5286.00,0.78
5285.00,0.78
5284.00,0.78
5283.00,0.77
5282.00,0.77
5281.00,0.77
5280.00,0.77
5279.00,0.77
5278.00,0.77
5277.00,0.77
5276.00,0.77
5275.00,0.77
5274.00,0.77
5273.00,0.77
5272.00,0.77
5271.00,0.77
5270.00,0.77
5269.00,0.77
5268.00,0.77
5267.00,0.77
5266.00,0.77
5265.00,0.77
5264.00,0.76
5263.00,0.76
5262.00,0.76
5261.00,0.76
5260.00,0.76
5259.00,0.76
5258.00,0.76
5257.00,0.76
5256.00,0.76
5255.00,0.76
5254.00,0.76
5253.00,0.77
5252.00,0.77
5251.00,0.77
5250.00,0.77
5249.00,0.77
5248.00,0.77
5247.00,0.77
5246.00,0.77
5245.00,0.77
5244.00,0.77
5243.00,0.77
5242.00,0.77
5241.00,0.77
5240.00,0.77
5239.00,0.77
5238.00,0.77
5237.00,0.77
5236.00,0.77
5235.00,0.77
5234.00,0.77
5233.00,0.77
5232.00,0.77
5231.00,0.77
5230.00,0.77
5229.00,0.77
5228.00,0.77
5227.00,0.77
5226.00,0.77
5225.00,0.77
5224.00,0.77
5223.00,0.77
5222.00,0.77
5221.00,0.77
5220.00,0.77
5219.00,0.77
5218.00,0.77
5217.00,0.77
5216.00,0.77
5215.00,0.77
5214.00,0.77
5213.00,0.77
5212.00,0.77
5211.00,0.77
5210.00,0.77
5209.00,0.77
5208.00,0.77
5207.00,0.77
5206.00,0.77
5205.00,0.77
5204.00,0.77
5203.00,0.77
5202.00,0.77
5201.00,0.77
5200.00,0.77
5199.00,0.77
5198.00,0.77
5197.00,0.77
5196.00,0.77
5195.00,0.78
5194.00,0.78
5193.00,0.78
5192.00,0.78
5191.00,0.78
5190.00,0.78
5189.00,0.78
5188.00,0.78
5187.00,0.78
5186.00,0.78
5185.00,0.78
5184.00,0.78
5183.00,0.78
5182.00,0.78
5181.00,0.78
5180.00,0.79
5179.00,0.79
5178.00,0.79
5177.00,0.79
5176.00,0.79
5175.00,0.79
5174.00,0.79
5173.00,0.79
5172.00,0.79
5171.00,0.79
5170.00,0.79
5169.00,0.79
5168.00,0.79
5167.00,0.79
5166.00,0.79
5165.00,0.79
5164.00,0.79
5163.00,0.79
5162.00,0.79
5161.00,0.79
5160.00,0.79
5159.00,0.79
5158.00,0.79
5157.00,0.80
5156.00,0.80
5155.00,0.80
5154.00,0.80
5153.00,0.80
5152.00,0.80
5151.00,0.80
5150.00,0.80
5149.00,0.80
5148.00,0.80
5147.00,0.80
5146.00,0.80
5145.00,0.80
5144.00,0.80
5143.00,0.80
5142.00,0.80
5141.00,0.80
5140.00,0.80
5139.00,0.80
5138.00,0.80
5137.00,0.80
5136.00,0.81
5135.00,0.81
5134.00,0.81
5133.00,0.81
5132.00,0.81
5131.00,0.81
5130.00,0.81
5129.00,0.81
5128.00,0.81
5127.00,0.81
5126.00,0.81
5125.00,0.81
5124.00,0.81
5123.00,0.81
5122.00,0.81
5121.00,0.81
5120.00,0.81
5119.00,0.81
5118.00,0.81
5117.00,0.81
5116.00,0.81
5115.00,0.81
5114.00,0.81
5113.00,0.81
5112.00,0.82
5111.00,0.82
5110.00,0.82
5109.00,0.82
5108.00,0.82
5107.00,0.82
5106.00,0.82
5105.00,0.82
5104.00,0.82
5103.00,0.82
5102.00,0.83
5101.00,0.83
5100.00,0.83
5099.00,0.83
5098.00,0.83
5097.00,0.83
5096.00,0.83
5095.00,0.83
5094.00,0.83
5093.00,0.83
5092.00,0.83
5091.00,0.83
5090.00,0.83
5089.00,0.83
5088.00,0.83
5087.00,0.83
5086.00,0.83
5085.00,0.83
5084.00,0.83
5083.00,0.83
5082.00,0.83
5081.00,0.83
5080.00,0.83
5079.00,0.83
5078.00,0.83
5077.00,0.83
5076.00,0.83
5075.00,0.83
5074.00,0.84
5073.00,0.84
5072.00,0.84
5071.00,0.84
5070.00,0.84
5069.00,0.84
5068.00,0.84
5067.00,0.84
5066.00,0.84
5065.00,0.84
5064.00,0.84
5063.00,0.84
5062.00,0.84
5061.00,0.84
5060.00,0.85
5059.00,0.85
5058.00,0.85
5057.00,0.85
5056.00,0.85
5055.00,0.85
5054.00,0.85
5053.00,0.85
5052.00,0.85
5051.00,0.85
5050.00,0.85
5049.00,0.85
5048.00,0.85
5047.00,0.85
5046.00,0.85
5045.00,0.85
5044.00,0.85
5043.00,0.85
5042.00,0.85
5041.00,0.85
5040.00,0.85
5039.00,0.85
5038.00,0.85
5037.00,0.85
5036.00,0.85
5035.00,0.85
5034.00,0.85
5033.00,0.85
5032.00,0.85
5031.00,0.85
5030.00,0.85
5029.00,0.85
5028.00,0.85
5027.00,0.85
5026.00,0.85
5025.00,0.85
5024.00,0.85
5023.00,0.85
5022.00,0.85
5021.00,0.85
5020.00,0.85
5019.00,0.86
5018.00,0.86
5017.00,0.86
5016.00,0.86
5015.00,0.86
5014.00,0.86
5013.00,0.86
5012.00,0.86
5011.00,0.86
5010.00,0.87
5009.00,0.87
5008.00,0.87
5007.00,0.87
5006.00,0.87
5005.00,0.87
5004.00,0.87
5003.00,0.87
5002.00,0.87
5001.00,0.87
5000.00,0.87
4999.00,0.87
4998.00,0.88
4997.00,0.88
4996.00,0.88
4995.00,0.88
4994.00,0.88
4993.00,0.88
4992.00,0.88
4991.00,0.88
4990.00,0.88
4989.00,0.88
4988.00,0.88
4987.00,0.88
4986.00,0.88
4985.00,0.88
4984.00,0.88
4983.00,0.88
4982.00,0.88
4981.00,0.88
4980.00,0.88
4979.00,0.88
4978.00,0.89
4977.00,0.89
4976.00,0.89
4975.00,0.89
4974.00,0.89
4973.00,0.89
4972.00,0.89
4971.00,0.89
4970.00,0.89
4969.00,0.89
4968.00,0.90
4967.00,0.90
4966.00,0.90
4965.00,0.90
4964.00,0.90
4963.00,0.90
4962.00,0.90
4961.00,0.90
4960.00,0.89
4959.00,0.89
4958.00,0.89
4957.00,0.89
4956.00,0.89
4955.00,0.89
4954.00,0.89
4953.00,0.89
4952.00,0.89
4951.00,0.89
4950.00,0.90
4949.00,0.90
4948.00,0.90
4947.00,0.90
4946.00,0.90
4945.00,0.90
4944.00,0.90
4943.00,0.90
4942.00,0.91
4941.00,0.91
4940.00,0.91
4939.00,0.91
4938.00,0.91
4937.00,0.91
4936.00,0.91
4935.00,0.91
4934.00,0.92
4933.00,0.92
4932.00,0.92
4931.00,0.92
4930.00,0.92
4929.00,0.92
4928.00,0.92
4927.00,0.92
4926.00,0.92
4925.00,0.92
4924.00,0.92
4923.00,0.92
4922.00,0.92
4921.00,0.92
4920.00,0.92
4919.00,0.93
4918.00,0.93
4917.00,0.93
4916.00,0.93
4915.00,0.93
4914.00,0.93
4913.00,0.93
4912.00,0.93
4911.00,0.93
4910.00,0.93
4909.00,0.93
4908.00,0.93
4907.00,0.93
4906.00,0.93
4905.00,0.93
4904.00,0.93
4903.00,0.93
4902.00,0.93
4901.00,0.93
4900.00,0.93
4899.00,0.93
4898.00,0.93
4897.00,0.93
4896.00,0.93
4895.00,0.93
4894.00,0.93
4893.00,0.93
4892.00,0.93
4891.00,0.93
4890.00,0.93
4889.00,0.93
4888.00,0.93
4887.00,0.94
4886.00,0.94
4885.00,0.94
4884.00,0.94
4883.00,0.94
4882.00,0.94
4881.00,0.94
4880.00,0.94
4879.00,0.94
4878.00,0.94
4877.00,0.94
4876.00,0.94
4875.00,0.94
4874.00,0.94
4873.00,0.94
4872.00,0.94
4871.00,0.94
4870.00,0.94
4869.00,0.94
4868.00,0.94
4867.00,0.94
4866.00,0.94
4865.00,0.94
4864.00,0.94
4863.00,0.94
4862.00,0.94
4861.00,0.94
4860.00,0.94
4859.00,0.94
4858.00,0.94
4857.00,0.94
4856.00,0.95
4855.00,0.95
4854.00,0.95
4853.00,0.95
4852.00,0.95
4851.00,0.95
4850.00,0.95
4849.00,0.95
4848.00,0.95
4847.00,0.95
4846.00,0.95
4845.00,0.95
4844.00,0.95
4843.00,0.95
4842.00,0.95
4841.00,0.96
4840.00,0.96
4839.00,0.96
4838.00,0.96
4837.00,0.96
4836.00,0.96
4835.00,0.96
4834.00,0.96
4833.00,0.96
4832.00,0.96
4831.00,0.96
4830.00,0.96
4829.00,0.96
4828.00,0.96
4827.00,0.96
4826.00,0.96
4825.00,0.96
4824.00,0.96
4823.00,0.96
4822.00,0.96
4821.00,0.97
4820.00,0.97
4819.00,0.97
4818.00,0.97
4817.00,0.97
4816.00,0.97
4815.00,0.97
4814.00,0.97
4813.00,0.97
4812.00,0.97
4811.00,0.97
4810.00,0.97
4809.00,0.97
4808.00,0.97
4807.00,0.97
4806.00,0.98
4805.00,0.98
4804.00,0.98
4803.00,0.98
4802.00,0.98
4801.00,0.98
4800.00,0.98
4799.00,0.98
4798.00,0.98
4797.00,0.98
4796.00,0.98
4795.00,0.98
4794.00,0.98
4793.00,0.99
4792.00,0.99
4791.00,0.99
4790.00,0.99
4789.00,0.99
4788.00,0.99
4787.00,0.99
4786.00,0.99
4785.00,0.99
4784.00,0.99
4783.00,0.99
4782.00,0.99
4781.00,0.99
4780.00,1.00
4779.00,1.00
4778.00,1.00
4777.00,1.00
4776.00,1.00
4775.00,1.00
4774.00,1.00
4773.00,1.00
4772.00,1.00
4771.00,1.00
4770.00,1.01
4769.00,1.01
4768.00,1.01
4767.00,1.01
4766.00,1.01
4765.00,1.01
4764.00,1.01
4763.00,1.01
4762.00,1.02
4761.00,1.02
4760.00,1.02
4759.00,1.02
4758.00,1.02
4757.00,1.02
4756.00,1.02
4755.00,1.02
4754.00,1.02
4753.00,1.02
4752.00,1.02
4751.00,1.02
4750.00,1.02
4749.00,1.02
4748.00,1.02
4747.00,1.02
4746.00,1.02
4745.00,1.02
4744.00,1.02
4743.00,1.02
4742.00,1.02
4741.00,1.02
4740.00,1.02
4739.00,1.02
4738.00,1.03
4737.00,1.03
4736.00,1.03
4735.00,1.03
4734.00,1.03
4733.00,1.03
4732.00,1.03
4731.00,1.03
4730.00,1.04
4729.00,1.04
4728.00,1.04
4727.00,1.04
4726.00,1.05
4725.00,1.05
4724.00,1.05
4723.00,1.05
4722.00,1.06
4721.00,1.06
4720.00,1.06
4719.00,1.06
4718.00,1.06
4717.00,1.06
4716.00,1.07
4715.00,1.07
4714.00,1.07
4713.00,1.07
4712.00,1.07
4711.00,1.07
4710.00,1.07
4709.00,1.07
4708.00,1.07
4707.00,1.07
4706.00,1.07
4705.00,1.07
4704.00,1.07
4703.00,1.07
4702.00,1.07
4701.00,1.07
4700.00,1.07
4699.00,1.07
4698.00,1.07
4697.00,1.07
4696.00,1.08
4695.00,1.08
4694.00,1.08
4693.00,1.08
4692.00,1.08
4691.00,1.08
4690.00,1.08
4689.00,1.08
4688.00,1.08
4687.00,1.08
4686.00,1.08
4685.00,1.09
4684.00,1.09
4683.00,1.09
4682.00,1.09
4681.00,1.09
4680.00,1.09
4679.00,1.09
4678.00,1.10
4677.00,1.10
4676.00,1.10
4675.00,1.10
4674.00,1.10
4673.00,1.10
4672.00,1.11
4671.00,1.11
4670.00,1.11
4669.00,1.11
4668.00,1.11
4667.00,1.11
4666.00,1.11
4665.00,1.11
4664.00,1.11
4663.00,1.11
4662.00,1.12
4661.00,1.12
4660.00,1.12
4659.00,1.12
4658.00,1.12
4657.00,1.12
4656.00,1.12
4655.00,1.12
4654.00,1.12
4653.00,1.12
4652.00,1.12
4651.00,1.13
4650.00,1.13
4649.00,1.13
4648.00,1.13
4647.00,1.13
4646.00,1.13
4645.00,1.13
4644.00,1.13
4643.00,1.13
4642.00,1.13
4641.00,1.13
4640.00,1.13
4639.00,1.13
4638.00,1.13
4637.00,1.13
4636.00,1.13
4635.00,1.14
4634.00,1.14
4633.00,1.14
4632.00,1.14
4631.00,1.14
4630.00,1.14
4629.00,1.14
4628.00,1.14
4627.00,1.14
4626.00,1.14
4625.00,1.14
4624.00,1.14
4623.00,1.15
4622.00,1.15
4621.00,1.15
4620.00,1.15
4619.00,1.15
4618.00,1.15
4617.00,1.15
4616.00,1.15
4615.00,1.15
4614.00,1.15
4613.00,1.15
4612.00,1.15
4611.00,1.15
4610.00,1.15
4609.00,1.16
4608.00,1.16
4607.00,1.16
4606.00,1.16
4605.00,1.16
4604.00,1.16
4603.00,1.16
4602.00,1.16
4601.00,1.16
4600.00,1.16
4599.00,1.16
4598.00,1.16
4597.00,1.16
4596.00,1.16
4595.00,1.16
4594.00,1.16
4593.00,1.16
4592.00,1.16
4591.00,1.16
4590.00,1.16
4589.00,1.16
4588.00,1.17
4587.00,1.17
4586.00,1.17
4585.00,1.17
4584.00,1.17
4583.00,1.17
4582.00,1.17
4581.00,1.17
4580.00,1.17
4579.00,1.17
4578.00,1.18
4577.00,1.18
4576.00,1.18
4575.00,1.18
4574.00,1.18
4573.00,1.18
4572.00,1.19
4571.00,1.19
4570.00,1.19
4569.00,1.19
4568.00,1.19
4567.00,1.19
4566.00,1.19
4565.00,1.19
4564.00,1.19
4563.00,1.19
4562.00,1.19
4561.00,1.19
4560.00,1.19
4559.00,1.19
4558.00,1.20
4557.00,1.20
4556.00,1.20
4555.00,1.20
4554.00,1.20
4553.00,1.20
4552.00,1.20
4551.00,1.20
4550.00,1.20
4549.00,1.20
4548.00,1.20
4547.00,1.20
4546.00,1.20
4545.00,1.20
4544.00,1.21
4543.00,1.21
4542.00,1.21
4541.00,1.21
4540.00,1.21
4539.00,1.21
4538.00,1.21
4537.00,1.21
4536.00,1.21
4535.00,1.21
4534.00,1.21
4533.00,1.21
4532.00,1.21
4531.00,1.21
4530.00,1.21
4529.00,1.21
4528.00,1.21
4527.00,1.21
4526.00,1.21
4525.00,1.21
4524.00,1.21
4523.00,1.21
4522.00,1.21
4521.00,1.21
4520.00,1.21
4519.00,1.21
4518.00,1.21
4517.00,1.21
4516.00,1.21
4515.00,1.21
4514.00,1.21
4513.00,1.21
4512.00,1.22
4511.00,1.22
4510.00,1.22
4509.00,1.22
4508.00,1.22
4507.00,1.22
4506.00,1.22
4505.00,1.22
4504.00,1.22
4503.00,1.22
4502.00,1.22
4501.00,1.22
4500.00,1.22
4499.00,1.22
4498.00,1.22
4497.00,1.22
4496.00,1.22
4495.00,1.22
4494.00,1.22
4493.00,1.22
4492.00,1.22
4491.00,1.22
4490.00,1.21
4489.00,1.21
4488.00,1.21
4487.00,1.21
4486.00,1.21
4485.00,1.21
4484.00,1.21
4483.00,1.21
4482.00,1.21
4481.00,1.21
4480.00,1.20
4479.00,1.20
4478.00,1.20
4477.00,1.20
4476.00,1.20
4475.00,1.20
4474.00,1.20
4473.00,1.20
4472.00,1.20
4471.00,1.20
4470.00,1.19
4469.00,1.19
4468.00,1.19
4467.00,1.19
4466.00,1.19
4465.00,1.19
4464.00,1.19
4463.00,1.18
4462.00,1.18
4461.00,1.18
4460.00,1.18
4459.00,1.17
4458.00,1.17
4457.00,1.17
4456.00,1.17
4455.00,1.16
4454.00,1.16
4453.00,1.16
4452.00,1.16
4451.00,1.15
4450.00,1.15
4449.00,1.15
4448.00,1.15
4447.00,1.14
4446.00,1.14
4445.00,1.14
4444.00,1.14
4443.00,1.14
4442.00,1.14
4441.00,1.13
4440.00,1.13
4439.00,1.13
4438.00,1.13
4437.00,1.13
4436.00,1.13
4435.00,1.13
4434.00,1.13
4433.00,1.13
4432.00,1.13
4431.00,1.13
4430.00,1.13
4429.00,1.13
4428.00,1.14
4427.00,1.14
4426.00,1.14
4425.00,1.14
4424.00,1.14
4423.00,1.14
4422.00,1.14
4421.00,1.14
4420.00,1.14
4419.00,1.14
4418.00,1.14
4417.00,1.14
4416.00,1.14
4415.00,1.14
4414.00,1.14
4413.00,1.14
4412.00,1.14
4411.00,1.14
4410.00,1.14
4409.00,1.14
4408.00,1.14
4407.00,1.14
4406.00,1.14
4405.00,1.14
4404.00,1.14
4403.00,1.14
4402.00,1.14
4401.00,1.14
4400.00,1.14
4399.00,1.14
4398.00,1.14
4397.00,1.14
4396.00,1.14
4395.00,1.14
4394.00,1.14
4393.00,1.14
4392.00,1.14
4391.00,1.14
4390.00,1.14
4389.00,1.14
4388.00,1.14
4387.00,1.14
4386.00,1.14
4385.00,1.14
4384.00,1.15
4383.00,1.15
4382.00,1.15
4381.00,1.15
4380.00,1.15
4379.00,1.15
4378.00,1.15
4377.00,1.15
4376.00,1.15
4375.00,1.15
4374.00,1.16
4373.00,1.16
4372.00,1.16
4371.00,1.16
4370.00,1.16
4369.00,1.16
4368.00,1.16
4367.00,1.16
4366.00,1.16
4365.00,1.17
4364.00,1.17
4363.00,1.17
4362.00,1.17
4361.00,1.17
4360.00,1.17
4359.00,1.17
4358.00,1.17
4357.00,1.17
4356.00,1.17
4355.00,1.17
4354.00,1.17
4353.00,1.17
4352.00,1.17
4351.00,1.17
4350.00,1.17
4349.00,1.17
4348.00,1.17
4347.00,1.17
4346.00,1.17
4345.00,1.17
4344.00,1.17
4343.00,1.17
4342.00,1.18
4341.00,1.18
4340.00,1.18
4339.00,1.18
4338.00,1.18
4337.00,1.18
4336.00,1.18
4335.00,1.18
4334.00,1.18
4333.00,1.18
4332.00,1.18
4331.00,1.18
4330.00,1.18
4329.00,1.19
4328.00,1.19
4327.00,1.19
4326.00,1.19
4325.00,1.19
4324.00,1.19
4323.00,1.19
4322.00,1.19
4321.00,1.19
4320.00,1.20
4319.00,1.20
4318.00,1.20
4317.00,1.20
4316.00,1.20
4315.00,1.20
4314.00,1.20
4313.00,1.20
4312.00,1.20
4311.00,1.20
4310.00,1.20
4309.00,1.20
4308.00,1.20
4307.00,1.20
4306.00,1.20
4305.00,1.20
4304.00,1.20
4303.00,1.20
4302.00,1.20
4301.00,1.20
4300.00,1.20
4299.00,1.20
4298.00,1.20
4297.00,1.21
4296.00,1.21
4295.00,1.21
4294.00,1.21
4293.00,1.21
4292.00,1.21
4291.00,1.21
4290.00,1.21
4289.00,1.21
4288.00,1.22
4287.00,1.22
4286.00,1.22
4285.00,1.22
4284.00,1.22
4283.00,1.22
4282.00,1.22
4281.00,1.22
4280.00,1.22
4279.00,1.22
4278.00,1.22
4277.00,1.22
4276.00,1.22
4275.00,1.22
4274.00,1.22
4273.00,1.22
4272.00,1.22
4271.00,1.22
4270.00,1.22
4269.00,1.22
4268.00,1.22
4267.00,1.22
4266.00,1.22
4265.00,1.22
4264.00,1.22
4263.00,1.22
4262.00,1.22
4261.00,1.22
4260.00,1.22
4259.00,1.22
4258.00,1.22
4257.00,1.22
4256.00,1.23
4255.00,1.23
4254.00,1.23
4253.00,1.23
4252.00,1.23
4251.00,1.23
4250.00,1.23
4249.00,1.23
4248.00,1.23
4247.00,1.23
4246.00,1.23
4245.00,1.23
4244.00,1.23
4243.00,1.23
4242.00,1.23
4241.00,1.23
4240.00,1.23
4239.00,1.23
4238.00,1.23
4237.00,1.23
4236.00,1.23
4235.00,1.23
4234.00,1.23
4233.00,1.23
4232.00,1.23
4231.00,1.24
4230.00,1.24
4229.00,1.24
4228.00,1.24
4227.00,1.24
4226.00,1.24
4225.00,1.24
4224.00,1.24
4223.00,1.24
4222.00,1.24
4221.00,1.24
4220.00,1.24
4219.00,1.25
4218.00,1.25
4217.00,1.25
4216.00,1.25
4215.00,1.25
4214.00,1.25
4213.00,1.25
4212.00,1.26
4211.00,1.26
4210.00,1.26
4209.00,1.26
4208.00,1.26
4207.00,1.26
4206.00,1.26
4205.00,1.26
4204.00,1.26
4203.00,1.26
4202.00,1.26
4201.00,1.26
4200.00,1.26
4199.00,1.26
4198.00,1.26
4197.00,1.26
4196.00,1.26
4195.00,1.26
4194.00,1.26
4193.00,1.26
4192.00,1.26
4191.00,1.26
4190.00,1.26
4189.00,1.26
4188.00,1.26
4187.00,1.26
4186.00,1.26
4185.00,1.26
4184.00,1.26
4183.00,1.27
4182.00,1.27
4181.00,1.27
4180.00,1.27
4179.00,1.27
4178.00,1.27
4177.00,1.27
4176.00,1.27
4175.00,1.27
4174.00,1.27
4173.00,1.27
4172.00,1.27
4171.00,1.27
4170.00,1.27
4169.00,1.27
4168.00,1.27
4167.00,1.28
4166.00,1.28
4165.00,1.28
4164.00,1.28
4163.00,1.28
4162.00,1.28
4161.00,1.28
4160.00,1.28
4159.00,1.28
4158.00,1.28
4157.00,1.28
4156.00,1.29
4155.00,1.29
4154.00,1.29
4153.00,1.29
4152.00,1.29
4151.00,1.29
4150.00,1.29
4149.00,1.29
4148.00,1.29
4147.00,1.29
4146.00,1.29
4145.00,1.29
4144.00,1.29
4143.00,1.29
4142.00,1.29
4141.00,1.29
4140.00,1.29
4139.00,1.29
4138.00,1.29
4137.00,1.29
4136.00,1.29
4135.00,1.29
4134.00,1.29
4133.00,1.29
4132.00,1.29
4131.00,1.30
4130.00,1.30
4129.00,1.30
4128.00,1.30
4127.00,1.30
4126.00,1.30
4125.00,1.30
4124.00,1.30
4123.00,1.30
4122.00,1.31
4121.00,1.31
4120.00,1.31
4119.00,1.31
4118.00,1.31
4117.00,1.31
4116.00,1.31
4115.00,1.31
4114.00,1.31
4113.00,1.31
4112.00,1.31
4111.00,1.31
4110.00,1.31
4109.00,1.31
4108.00,1.31
4107.00,1.30
4106.00,1.30
4105.00,1.30
4104.00,1.30
4103.00,1.30
4102.00,1.30
4101.00,1.30
4100.00,1.30
4099.00,1.30
4098.00,1.30
4097.00,1.30
4096.00,1.30
4095.00,1.30
4094.00,1.30
4093.00,1.30
4092.00,1.30
4091.00,1.30
4090.00,1.30
4089.00,1.30
4088.00,1.30
4087.00,1.30
4086.00,1.30
4085.00,1.31
4084.00,1.31
4083.00,1.31
4082.00,1.31
4081.00,1.31
4080.00,1.31
4079.00,1.31
4078.00,1.31
4077.00,1.31
4076.00,1.31
4075.00,1.32
4074.00,1.32
4073.00,1.32
4072.00,1.32
4071.00,1.32
4070.00,1.32
4069.00,1.32
4068.00,1.33
4067.00,1.33
4066.00,1.33
4065.00,1.33
4064.00,1.33
4063.00,1.33
4062.00,1.33
4061.00,1.33
4060.00,1.33
4059.00,1.33
4058.00,1.33
4057.00,1.33
4056.00,1.33
4055.00,1.33
4054.00,1.33
4053.00,1.33
4052.00,1.33
4051.00,1.33
4050.00,1.33
4049.00,1.33
4048.00,1.33
4047.00,1.33
4046.00,1.33
4045.00,1.33
4044.00,1.33
4043.00,1.33
4042.00,1.33
4041.00,1.33
4040.00,1.33
4039.00,1.33
4038.00,1.33
4037.00,1.33
4036.00,1.33
4035.00,1.33
4034.00,1.34
4033.00,1.34
4032.00,1.34
4031.00,1.34
4030.00,1.34
4029.00,1.34
4028.00,1.34
4027.00,1.34
4026.00,1.34
4025.00,1.34
4024.00,1.34
4023.00,1.34
4022.00,1.34
4021.00,1.34
4020.00,1.34
4019.00,1.34
4018.00,1.34
4017.00,1.34
4016.00,1.34
4015.00,1.34
4014.00,1.34
4013.00,1.34
4012.00,1.35
4011.00,1.35
4010.00,1.35
4009.00,1.35
4008.00,1.35
4007.00,1.36
4006.00,1.36
4005.00,1.36
4004.00,1.36
4003.00,1.36
4002.00,1.36
4001.00,1.36
4000.00,1.36
