创建为新数据集,样品 371 用户 Administrator 日期 星期四, 三月 08 2018
cm-1,%T
10000.00,1.64
9999.00,1.64
9998.00,1.64
9997.00,1.64
9996.00,1.64
9995.00,1.64
9994.00,1.64
9993.00,1.64
9992.00,1.64
9991.00,1.64
9990.00,1.64
9989.00,1.64
9988.00,1.64
9987.00,1.64
9986.00,1.64
9985.00,1.64
9984.00,1.63
9983.00,1.63
9982.00,1.63
9981.00,1.63
9980.00,1.63
9979.00,1.63
9978.00,1.63
9977.00,1.63
9976.00,1.62
9975.00,1.62
9974.00,1.62
9973.00,1.62
9972.00,1.62
9971.00,1.62
9970.00,1.62
9969.00,1.63
9968.00,1.63
9967.00,1.63
9966.00,1.63
9965.00,1.63
9964.00,1.63
9963.00,1.64
9962.00,1.64
9961.00,1.64
9960.00,1.64
9959.00,1.64
9958.00,1.64
9957.00,1.64
9956.00,1.64
9955.00,1.64
9954.00,1.64
9953.00,1.63
9952.00,1.63
9951.00,1.63
9950.00,1.63
9949.00,1.62
9948.00,1.62
9947.00,1.62
9946.00,1.61
9945.00,1.61
9944.00,1.61
9943.00,1.61
9942.00,1.61
9941.00,1.61
9940.00,1.60
9939.00,1.60
9938.00,1.60
9937.00,1.60
9936.00,1.60
9935.00,1.60
9934.00,1.60
9933.00,1.60
9932.00,1.60
9931.00,1.60
9930.00,1.60
9929.00,1.60
9928.00,1.60
9927.00,1.60
9926.00,1.60
9925.00,1.60
9924.00,1.60
9923.00,1.60
9922.00,1.60
9921.00,1.60
9920.00,1.60
9919.00,1.59
9918.00,1.59
9917.00,1.59
9916.00,1.59
9915.00,1.59
9914.00,1.58
9913.00,1.58
9912.00,1.58
9911.00,1.58
9910.00,1.58
9909.00,1.58
9908.00,1.58
9907.00,1.58
9906.00,1.58
9905.00,1.58
9904.00,1.58
9903.00,1.58
9902.00,1.58
9901.00,1.58
9900.00,1.59
9899.00,1.59
9898.00,1.59
9897.00,1.59
9896.00,1.59
9895.00,1.59
9894.00,1.59
9893.00,1.59
9892.00,1.59
9891.00,1.59
9890.00,1.59
9889.00,1.59
9888.00,1.59
9887.00,1.60
9886.00,1.60
9885.00,1.60
9884.00,1.60
9883.00,1.60
9882.00,1.60
9881.00,1.60
9880.00,1.60
9879.00,1.60
9878.00,1.60
9877.00,1.60
9876.00,1.60
9875.00,1.60
9874.00,1.60
9873.00,1.60
9872.00,1.60
9871.00,1.60
9870.00,1.59
9869.00,1.59
9868.00,1.59
9867.00,1.59
9866.00,1.59
9865.00,1.58
9864.00,1.58
9863.00,1.58
9862.00,1.58
9861.00,1.58
9860.00,1.58
9859.00,1.58
9858.00,1.58
9857.00,1.58
9856.00,1.58
9855.00,1.58
9854.00,1.58
9853.00,1.58
9852.00,1.59
9851.00,1.59
9850.00,1.59
9849.00,1.59
9848.00,1.59
9847.00,1.60
9846.00,1.60
9845.00,1.60
9844.00,1.60
9843.00,1.60
9842.00,1.61
9841.00,1.61
9840.00,1.61
9839.00,1.61
9838.00,1.61
9837.00,1.61
9836.00,1.61
9835.00,1.61
9834.00,1.61
9833.00,1.61
9832.00,1.61
9831.00,1.61
9830.00,1.61
9829.00,1.61
9828.00,1.61
9827.00,1.61
9826.00,1.61
9825.00,1.61
9824.00,1.61
9823.00,1.61
9822.00,1.61
9821.00,1.61
9820.00,1.61
9819.00,1.61
9818.00,1.61
9817.00,1.61
9816.00,1.61
9815.00,1.61
9814.00,1.61
9813.00,1.61
9812.00,1.61
9811.00,1.61
9810.00,1.61
9809.00,1.61
9808.00,1.61
9807.00,1.61
9806.00,1.61
9805.00,1.61
9804.00,1.61
9803.00,1.61
9802.00,1.61
9801.00,1.61
9800.00,1.61
9799.00,1.61
9798.00,1.61
9797.00,1.61
9796.00,1.61
9795.00,1.61
9794.00,1.61
9793.00,1.61
9792.00,1.61
9791.00,1.61
9790.00,1.62
9789.00,1.62
9788.00,1.62
9787.00,1.62
9786.00,1.63
9785.00,1.63
9784.00,1.63
9783.00,1.63
9782.00,1.63
9781.00,1.64
9780.00,1.64
9779.00,1.64
9778.00,1.64
9777.00,1.64
9776.00,1.64
9775.00,1.64
9774.00,1.64
9773.00,1.63
9772.00,1.63
9771.00,1.63
9770.00,1.63
9769.00,1.63
9768.00,1.62
9767.00,1.62
9766.00,1.62
9765.00,1.62
9764.00,1.62
9763.00,1.61
9762.00,1.61
9761.00,1.61
9760.00,1.61
9759.00,1.61
9758.00,1.61
9757.00,1.61
9756.00,1.61
9755.00,1.61
9754.00,1.61
9753.00,1.62
9752.00,1.62
9751.00,1.62
9750.00,1.62
9749.00,1.62
9748.00,1.62
9747.00,1.62
9746.00,1.62
9745.00,1.62
9744.00,1.62
9743.00,1.62
9742.00,1.62
9741.00,1.62
9740.00,1.62
9739.00,1.62
9738.00,1.62
9737.00,1.62
9736.00,1.63
9735.00,1.63
9734.00,1.63
9733.00,1.63
9732.00,1.63
9731.00,1.63
9730.00,1.63
9729.00,1.63
9728.00,1.63
9727.00,1.63
9726.00,1.63
9725.00,1.63
9724.00,1.63
9723.00,1.63
9722.00,1.64
9721.00,1.64
9720.00,1.64
9719.00,1.64
9718.00,1.64
9717.00,1.64
9716.00,1.64
9715.00,1.64
9714.00,1.64
9713.00,1.64
9712.00,1.64
9711.00,1.64
9710.00,1.64
9709.00,1.63
9708.00,1.63
9707.00,1.63
9706.00,1.63
9705.00,1.63
9704.00,1.63
9703.00,1.62
9702.00,1.62
9701.00,1.62
9700.00,1.62
9699.00,1.61
9698.00,1.61
9697.00,1.61
9696.00,1.61
9695.00,1.61
9694.00,1.60
9693.00,1.60
9692.00,1.60
9691.00,1.60
9690.00,1.60
9689.00,1.60
9688.00,1.60
9687.00,1.60
9686.00,1.61
9685.00,1.61
9684.00,1.61
9683.00,1.61
9682.00,1.61
9681.00,1.62
9680.00,1.62
9679.00,1.62
9678.00,1.62
9677.00,1.63
9676.00,1.63
9675.00,1.63
9674.00,1.63
9673.00,1.63
9672.00,1.64
9671.00,1.64
9670.00,1.64
9669.00,1.64
9668.00,1.64
9667.00,1.64
9666.00,1.64
9665.00,1.63
9664.00,1.63
9663.00,1.63
9662.00,1.63
9661.00,1.63
9660.00,1.63
9659.00,1.63
9658.00,1.63
9657.00,1.63
9656.00,1.63
9655.00,1.63
9654.00,1.63
9653.00,1.63
9652.00,1.63
9651.00,1.63
9650.00,1.63
9649.00,1.63
9648.00,1.63
9647.00,1.63
9646.00,1.63
9645.00,1.63
9644.00,1.63
9643.00,1.63
9642.00,1.63
9641.00,1.63
9640.00,1.63
9639.00,1.63
9638.00,1.63
9637.00,1.63
9636.00,1.63
9635.00,1.63
9634.00,1.62
9633.00,1.62
9632.00,1.62
9631.00,1.62
9630.00,1.62
9629.00,1.62
9628.00,1.62
9627.00,1.61
9626.00,1.61
9625.00,1.61
9624.00,1.61
9623.00,1.61
9622.00,1.61
9621.00,1.61
9620.00,1.61
9619.00,1.61
9618.00,1.61
9617.00,1.61
9616.00,1.61
9615.00,1.61
9614.00,1.61
9613.00,1.62
9612.00,1.62
9611.00,1.62
9610.00,1.62
9609.00,1.62
9608.00,1.63
9607.00,1.63
9606.00,1.63
9605.00,1.63
9604.00,1.63
9603.00,1.63
9602.00,1.63
9601.00,1.63
9600.00,1.63
9599.00,1.63
9598.00,1.63
9597.00,1.63
9596.00,1.63
9595.00,1.63
9594.00,1.63
9593.00,1.62
9592.00,1.62
9591.00,1.62
9590.00,1.62
9589.00,1.62
9588.00,1.62
9587.00,1.62
9586.00,1.62
9585.00,1.62
9584.00,1.62
9583.00,1.62
9582.00,1.62
9581.00,1.62
9580.00,1.62
9579.00,1.62
9578.00,1.62
9577.00,1.62
9576.00,1.63
9575.00,1.63
9574.00,1.63
9573.00,1.63
9572.00,1.63
9571.00,1.63
9570.00,1.63
9569.00,1.63
9568.00,1.63
9567.00,1.63
9566.00,1.63
9565.00,1.62
9564.00,1.62
9563.00,1.62
9562.00,1.62
9561.00,1.62
9560.00,1.62
9559.00,1.62
9558.00,1.61
9557.00,1.61
9556.00,1.61
9555.00,1.61
9554.00,1.61
9553.00,1.61
9552.00,1.61
9551.00,1.61
9550.00,1.61
9549.00,1.61
9548.00,1.61
9547.00,1.62
9546.00,1.62
9545.00,1.62
9544.00,1.62
9543.00,1.62
9542.00,1.62
9541.00,1.63
9540.00,1.63
9539.00,1.63
9538.00,1.63
9537.00,1.63
9536.00,1.63
9535.00,1.63
9534.00,1.64
9533.00,1.64
9532.00,1.64
9531.00,1.64
9530.00,1.63
9529.00,1.63
9528.00,1.63
9527.00,1.63
9526.00,1.63
9525.00,1.63
9524.00,1.63
9523.00,1.63
9522.00,1.63
9521.00,1.63
9520.00,1.63
9519.00,1.63
9518.00,1.63
9517.00,1.63
9516.00,1.63
9515.00,1.63
9514.00,1.63
9513.00,1.63
9512.00,1.63
9511.00,1.63
9510.00,1.63
9509.00,1.63
9508.00,1.63
9507.00,1.63
9506.00,1.63
9505.00,1.63
9504.00,1.63
9503.00,1.63
9502.00,1.63
9501.00,1.63
9500.00,1.63
9499.00,1.63
9498.00,1.62
9497.00,1.62
9496.00,1.62
9495.00,1.62
9494.00,1.62
9493.00,1.62
9492.00,1.62
9491.00,1.62
9490.00,1.62
9489.00,1.62
9488.00,1.62
9487.00,1.62
9486.00,1.62
9485.00,1.62
9484.00,1.62
9483.00,1.62
9482.00,1.62
9481.00,1.62
9480.00,1.62
9479.00,1.62
9478.00,1.62
9477.00,1.62
9476.00,1.62
9475.00,1.62
9474.00,1.61
9473.00,1.61
9472.00,1.61
9471.00,1.61
9470.00,1.61
9469.00,1.61
9468.00,1.61
9467.00,1.61
9466.00,1.61
9465.00,1.61
9464.00,1.61
9463.00,1.61
9462.00,1.61
9461.00,1.61
9460.00,1.61
9459.00,1.61
9458.00,1.61
9457.00,1.61
9456.00,1.61
9455.00,1.61
9454.00,1.61
9453.00,1.61
9452.00,1.61
9451.00,1.61
9450.00,1.61
9449.00,1.62
9448.00,1.62
9447.00,1.62
9446.00,1.62
9445.00,1.62
9444.00,1.62
9443.00,1.62
9442.00,1.62
9441.00,1.62
9440.00,1.62
9439.00,1.62
9438.00,1.62
9437.00,1.62
9436.00,1.62
9435.00,1.62
9434.00,1.62
9433.00,1.62
9432.00,1.62
9431.00,1.62
9430.00,1.62
9429.00,1.62
9428.00,1.62
9427.00,1.62
9426.00,1.62
9425.00,1.62
9424.00,1.62
9423.00,1.62
9422.00,1.62
9421.00,1.62
9420.00,1.62
9419.00,1.62
9418.00,1.62
9417.00,1.61
9416.00,1.61
9415.00,1.61
9414.00,1.61
9413.00,1.61
9412.00,1.61
9411.00,1.61
9410.00,1.60
9409.00,1.60
9408.00,1.60
9407.00,1.60
9406.00,1.60
9405.00,1.60
9404.00,1.60
9403.00,1.60
9402.00,1.60
9401.00,1.60
9400.00,1.60
9399.00,1.60
9398.00,1.60
9397.00,1.60
9396.00,1.60
9395.00,1.60
9394.00,1.60
9393.00,1.60
9392.00,1.60
9391.00,1.61
9390.00,1.61
9389.00,1.61
9388.00,1.61
9387.00,1.61
9386.00,1.61
9385.00,1.61
9384.00,1.61
9383.00,1.61
9382.00,1.61
9381.00,1.61
9380.00,1.61
9379.00,1.61
9378.00,1.61
9377.00,1.62
9376.00,1.62
9375.00,1.62
9374.00,1.62
9373.00,1.62
9372.00,1.62
9371.00,1.62
9370.00,1.62
9369.00,1.63
9368.00,1.63
9367.00,1.63
9366.00,1.63
9365.00,1.63
9364.00,1.63
9363.00,1.63
9362.00,1.63
9361.00,1.63
9360.00,1.63
9359.00,1.64
9358.00,1.64
9357.00,1.64
9356.00,1.64
9355.00,1.64
9354.00,1.64
9353.00,1.64
9352.00,1.63
9351.00,1.63
9350.00,1.63
9349.00,1.63
9348.00,1.63
9347.00,1.63
9346.00,1.63
9345.00,1.63
9344.00,1.63
9343.00,1.63
9342.00,1.63
9341.00,1.64
9340.00,1.64
9339.00,1.64
9338.00,1.64
9337.00,1.64
9336.00,1.64
9335.00,1.64
9334.00,1.64
9333.00,1.64
9332.00,1.64
9331.00,1.63
9330.00,1.63
9329.00,1.63
9328.00,1.63
9327.00,1.63
9326.00,1.63
9325.00,1.62
9324.00,1.62
9323.00,1.62
9322.00,1.62
9321.00,1.62
9320.00,1.61
9319.00,1.61
9318.00,1.61
9317.00,1.61
9316.00,1.61
9315.00,1.61
9314.00,1.61
9313.00,1.61
9312.00,1.61
9311.00,1.62
9310.00,1.62
9309.00,1.62
9308.00,1.62
9307.00,1.62
9306.00,1.62
9305.00,1.62
9304.00,1.62
9303.00,1.62
9302.00,1.62
9301.00,1.62
9300.00,1.61
9299.00,1.61
9298.00,1.61
9297.00,1.61
9296.00,1.61
9295.00,1.61
9294.00,1.61
9293.00,1.61
9292.00,1.61
9291.00,1.61
9290.00,1.61
9289.00,1.61
9288.00,1.61
9287.00,1.61
9286.00,1.61
9285.00,1.61
9284.00,1.61
9283.00,1.61
9282.00,1.61
9281.00,1.62
9280.00,1.62
9279.00,1.62
9278.00,1.62
9277.00,1.62
9276.00,1.62
9275.00,1.62
9274.00,1.62
9273.00,1.62
9272.00,1.62
9271.00,1.62
9270.00,1.62
9269.00,1.62
9268.00,1.62
9267.00,1.62
9266.00,1.62
9265.00,1.62
9264.00,1.62
9263.00,1.62
9262.00,1.62
9261.00,1.62
9260.00,1.62
9259.00,1.62
9258.00,1.62
9257.00,1.61
9256.00,1.61
9255.00,1.61
9254.00,1.61
9253.00,1.61
9252.00,1.61
9251.00,1.61
9250.00,1.61
9249.00,1.61
9248.00,1.61
9247.00,1.61
9246.00,1.61
9245.00,1.61
9244.00,1.61
9243.00,1.62
9242.00,1.62
9241.00,1.62
9240.00,1.62
9239.00,1.62
9238.00,1.62
9237.00,1.63
9236.00,1.63
9235.00,1.63
9234.00,1.63
9233.00,1.63
9232.00,1.63
9231.00,1.63
9230.00,1.63
9229.00,1.63
9228.00,1.63
9227.00,1.63
9226.00,1.63
9225.00,1.63
9224.00,1.63
9223.00,1.63
9222.00,1.62
9221.00,1.62
9220.00,1.62
9219.00,1.62
9218.00,1.62
9217.00,1.62
9216.00,1.62
9215.00,1.62
9214.00,1.62
9213.00,1.63
9212.00,1.63
9211.00,1.63
9210.00,1.63
9209.00,1.63
9208.00,1.63
9207.00,1.64
9206.00,1.64
9205.00,1.64
9204.00,1.64
9203.00,1.64
9202.00,1.64
9201.00,1.64
9200.00,1.64
9199.00,1.64
9198.00,1.64
9197.00,1.64
9196.00,1.64
9195.00,1.63
9194.00,1.63
9193.00,1.63
9192.00,1.63
9191.00,1.63
9190.00,1.63
9189.00,1.63
9188.00,1.63
9187.00,1.63
9186.00,1.63
9185.00,1.62
9184.00,1.62
9183.00,1.62
9182.00,1.62
9181.00,1.62
9180.00,1.62
9179.00,1.62
9178.00,1.61
9177.00,1.61
9176.00,1.61
9175.00,1.61
9174.00,1.61
9173.00,1.60
9172.00,1.60
9171.00,1.60
9170.00,1.60
9169.00,1.60
9168.00,1.60
9167.00,1.60
9166.00,1.60
9165.00,1.60
9164.00,1.60
9163.00,1.60
9162.00,1.60
9161.00,1.60
9160.00,1.60
9159.00,1.61
9158.00,1.61
9157.00,1.61
9156.00,1.61
9155.00,1.61
9154.00,1.61
9153.00,1.61
9152.00,1.62
9151.00,1.62
9150.00,1.62
9149.00,1.62
9148.00,1.62
9147.00,1.62
9146.00,1.62
9145.00,1.62
9144.00,1.62
9143.00,1.62
9142.00,1.62
9141.00,1.62
9140.00,1.62
9139.00,1.62
9138.00,1.62
9137.00,1.62
9136.00,1.62
9135.00,1.62
9134.00,1.62
9133.00,1.62
9132.00,1.63
9131.00,1.63
9130.00,1.63
9129.00,1.63
9128.00,1.63
9127.00,1.64
9126.00,1.64
9125.00,1.64
9124.00,1.64
9123.00,1.64
9122.00,1.64
9121.00,1.64
9120.00,1.64
9119.00,1.64
9118.00,1.64
9117.00,1.63
9116.00,1.63
9115.00,1.63
9114.00,1.63
9113.00,1.63
9112.00,1.63
9111.00,1.63
9110.00,1.63
9109.00,1.63
9108.00,1.63
9107.00,1.63
9106.00,1.63
9105.00,1.63
9104.00,1.63
9103.00,1.63
9102.00,1.63
9101.00,1.63
9100.00,1.63
9099.00,1.63
9098.00,1.63
9097.00,1.62
9096.00,1.62
9095.00,1.62
9094.00,1.62
9093.00,1.62
9092.00,1.62
9091.00,1.62
9090.00,1.62
9089.00,1.62
9088.00,1.62
9087.00,1.62
9086.00,1.62
9085.00,1.62
9084.00,1.62
9083.00,1.62
9082.00,1.62
9081.00,1.62
9080.00,1.62
9079.00,1.62
9078.00,1.62
9077.00,1.62
9076.00,1.61
9075.00,1.61
9074.00,1.61
9073.00,1.61
9072.00,1.61
9071.00,1.61
9070.00,1.61
9069.00,1.61
9068.00,1.61
9067.00,1.62
9066.00,1.62
9065.00,1.62
9064.00,1.62
9063.00,1.62
9062.00,1.62
9061.00,1.62
9060.00,1.62
9059.00,1.62
9058.00,1.62
9057.00,1.62
9056.00,1.62
9055.00,1.62
9054.00,1.62
9053.00,1.62
9052.00,1.62
9051.00,1.62
9050.00,1.62
9049.00,1.62
9048.00,1.62
9047.00,1.62
9046.00,1.62
9045.00,1.62
9044.00,1.62
9043.00,1.62
9042.00,1.62
9041.00,1.62
9040.00,1.62
9039.00,1.62
9038.00,1.62
9037.00,1.62
9036.00,1.63
9035.00,1.63
9034.00,1.63
9033.00,1.63
9032.00,1.63
9031.00,1.64
9030.00,1.64
9029.00,1.64
9028.00,1.64
9027.00,1.64
9026.00,1.64
9025.00,1.64
9024.00,1.64
9023.00,1.64
9022.00,1.63
9021.00,1.63
9020.00,1.63
9019.00,1.63
9018.00,1.63
9017.00,1.62
9016.00,1.62
9015.00,1.62
9014.00,1.62
9013.00,1.62
9012.00,1.62
9011.00,1.61
9010.00,1.61
9009.00,1.61
9008.00,1.61
9007.00,1.61
9006.00,1.61
9005.00,1.61
9004.00,1.61
9003.00,1.61
9002.00,1.61
9001.00,1.61
9000.00,1.61
8999.00,1.61
8998.00,1.61
8997.00,1.61
8996.00,1.61
8995.00,1.61
8994.00,1.61
8993.00,1.61
8992.00,1.61
8991.00,1.61
8990.00,1.61
8989.00,1.61
8988.00,1.61
8987.00,1.61
8986.00,1.61
8985.00,1.61
8984.00,1.61
8983.00,1.62
8982.00,1.62
8981.00,1.62
8980.00,1.62
8979.00,1.62
8978.00,1.62
8977.00,1.62
8976.00,1.62
8975.00,1.62
8974.00,1.63
8973.00,1.63
8972.00,1.63
8971.00,1.63
8970.00,1.63
8969.00,1.63
8968.00,1.63
8967.00,1.63
8966.00,1.63
8965.00,1.63
8964.00,1.64
8963.00,1.64
8962.00,1.64
8961.00,1.64
8960.00,1.64
8959.00,1.64
8958.00,1.64
8957.00,1.64
8956.00,1.64
8955.00,1.64
8954.00,1.64
8953.00,1.64
8952.00,1.64
8951.00,1.64
8950.00,1.64
8949.00,1.64
8948.00,1.64
8947.00,1.64
8946.00,1.63
8945.00,1.63
8944.00,1.63
8943.00,1.63
8942.00,1.63
8941.00,1.63
8940.00,1.63
8939.00,1.63
8938.00,1.63
8937.00,1.63
8936.00,1.64
8935.00,1.64
8934.00,1.64
8933.00,1.64
8932.00,1.64
8931.00,1.64
8930.00,1.64
8929.00,1.64
8928.00,1.64
8927.00,1.64
8926.00,1.64
8925.00,1.64
8924.00,1.64
8923.00,1.63
8922.00,1.63
8921.00,1.63
8920.00,1.63
8919.00,1.63
8918.00,1.63
8917.00,1.63
8916.00,1.63
8915.00,1.62
8914.00,1.62
8913.00,1.62
8912.00,1.62
8911.00,1.61
8910.00,1.61
8909.00,1.61
8908.00,1.61
8907.00,1.60
8906.00,1.60
8905.00,1.60
8904.00,1.60
8903.00,1.60
8902.00,1.59
8901.00,1.59
8900.00,1.59
8899.00,1.59
8898.00,1.59
8897.00,1.59
8896.00,1.59
8895.00,1.59
8894.00,1.59
8893.00,1.59
8892.00,1.59
8891.00,1.60
8890.00,1.60
8889.00,1.60
8888.00,1.60
8887.00,1.60
8886.00,1.60
8885.00,1.60
8884.00,1.60
8883.00,1.60
8882.00,1.60
8881.00,1.60
8880.00,1.60
8879.00,1.60
8878.00,1.60
8877.00,1.60
8876.00,1.60
8875.00,1.60
8874.00,1.60
8873.00,1.61
8872.00,1.61
8871.00,1.61
8870.00,1.61
8869.00,1.61
8868.00,1.61
8867.00,1.61
8866.00,1.61
8865.00,1.61
8864.00,1.61
8863.00,1.61
8862.00,1.62
8861.00,1.62
8860.00,1.62
8859.00,1.62
8858.00,1.62
8857.00,1.62
8856.00,1.62
8855.00,1.62
8854.00,1.62
8853.00,1.62
8852.00,1.62
8851.00,1.62
8850.00,1.62
8849.00,1.62
8848.00,1.62
8847.00,1.62
8846.00,1.62
8845.00,1.62
8844.00,1.62
8843.00,1.62
8842.00,1.62
8841.00,1.62
8840.00,1.62
8839.00,1.61
8838.00,1.61
8837.00,1.61
8836.00,1.61
8835.00,1.61
8834.00,1.61
8833.00,1.61
8832.00,1.61
8831.00,1.61
8830.00,1.61
8829.00,1.61
8828.00,1.60
8827.00,1.60
8826.00,1.60
8825.00,1.60
8824.00,1.60
8823.00,1.60
8822.00,1.60
8821.00,1.60
8820.00,1.60
8819.00,1.60
8818.00,1.59
8817.00,1.59
8816.00,1.59
8815.00,1.59
8814.00,1.59
8813.00,1.59
8812.00,1.59
8811.00,1.59
8810.00,1.59
8809.00,1.59
8808.00,1.59
8807.00,1.59
8806.00,1.59
8805.00,1.59
8804.00,1.59
8803.00,1.59
8802.00,1.59
8801.00,1.59
8800.00,1.59
8799.00,1.59
8798.00,1.59
8797.00,1.59
8796.00,1.59
8795.00,1.58
8794.00,1.58
8793.00,1.58
8792.00,1.58
8791.00,1.58
8790.00,1.58
8789.00,1.58
8788.00,1.58
8787.00,1.58
8786.00,1.58
8785.00,1.58
8784.00,1.58
8783.00,1.58
8782.00,1.58
8781.00,1.58
8780.00,1.58
8779.00,1.58
8778.00,1.58
8777.00,1.57
8776.00,1.57
8775.00,1.57
8774.00,1.57
8773.00,1.57
8772.00,1.57
8771.00,1.57
8770.00,1.57
8769.00,1.57
8768.00,1.57
8767.00,1.57
8766.00,1.57
8765.00,1.57
8764.00,1.57
8763.00,1.57
8762.00,1.57
8761.00,1.57
8760.00,1.57
8759.00,1.57
8758.00,1.57
8757.00,1.57
8756.00,1.57
8755.00,1.56
8754.00,1.56
8753.00,1.56
8752.00,1.55
8751.00,1.55
8750.00,1.55
8749.00,1.55
8748.00,1.54
8747.00,1.54
8746.00,1.54
8745.00,1.54
8744.00,1.54
8743.00,1.54
8742.00,1.54
8741.00,1.54
8740.00,1.54
8739.00,1.54
8738.00,1.54
8737.00,1.54
8736.00,1.54
8735.00,1.54
8734.00,1.54
8733.00,1.55
8732.00,1.55
8731.00,1.55
8730.00,1.55
8729.00,1.55
8728.00,1.55
8727.00,1.55
8726.00,1.55
8725.00,1.55
8724.00,1.55
8723.00,1.55
8722.00,1.55
8721.00,1.55
8720.00,1.55
8719.00,1.55
8718.00,1.55
8717.00,1.55
8716.00,1.55
8715.00,1.54
8714.00,1.54
8713.00,1.54
8712.00,1.54
8711.00,1.54
8710.00,1.54
8709.00,1.54
8708.00,1.54
8707.00,1.54
8706.00,1.54
8705.00,1.54
8704.00,1.55
8703.00,1.55
8702.00,1.55
8701.00,1.55
8700.00,1.55
8699.00,1.55
8698.00,1.55
8697.00,1.55
8696.00,1.55
8695.00,1.55
8694.00,1.55
8693.00,1.55
8692.00,1.55
8691.00,1.55
8690.00,1.54
8689.00,1.54
8688.00,1.54
8687.00,1.54
8686.00,1.54
8685.00,1.54
8684.00,1.53
8683.00,1.53
8682.00,1.53
8681.00,1.53
8680.00,1.53
8679.00,1.53
8678.00,1.53
8677.00,1.53
8676.00,1.53
8675.00,1.53
8674.00,1.53
8673.00,1.53
8672.00,1.53
8671.00,1.53
8670.00,1.53
8669.00,1.53
8668.00,1.53
8667.00,1.53
8666.00,1.53
8665.00,1.53
8664.00,1.53
8663.00,1.53
8662.00,1.53
8661.00,1.53
8660.00,1.53
8659.00,1.53
8658.00,1.53
8657.00,1.53
8656.00,1.53
8655.00,1.53
8654.00,1.53
8653.00,1.53
8652.00,1.53
8651.00,1.53
8650.00,1.53
8649.00,1.53
8648.00,1.53
8647.00,1.53
8646.00,1.53
8645.00,1.53
8644.00,1.52
8643.00,1.52
8642.00,1.52
8641.00,1.52
8640.00,1.52
8639.00,1.52
8638.00,1.52
8637.00,1.52
8636.00,1.51
8635.00,1.51
8634.00,1.51
8633.00,1.51
8632.00,1.51
8631.00,1.51
8630.00,1.51
8629.00,1.51
8628.00,1.51
8627.00,1.51
8626.00,1.51
8625.00,1.51
8624.00,1.51
8623.00,1.51
8622.00,1.51
8621.00,1.51
8620.00,1.51
8619.00,1.51
8618.00,1.51
8617.00,1.51
8616.00,1.51
8615.00,1.51
8614.00,1.51
8613.00,1.51
8612.00,1.51
8611.00,1.51
8610.00,1.51
8609.00,1.51
8608.00,1.51
8607.00,1.51
8606.00,1.51
8605.00,1.51
8604.00,1.51
8603.00,1.51
8602.00,1.51
8601.00,1.51
8600.00,1.51
8599.00,1.51
8598.00,1.51
8597.00,1.51
8596.00,1.51
8595.00,1.51
8594.00,1.51
8593.00,1.51
8592.00,1.51
8591.00,1.51
8590.00,1.50
8589.00,1.50
8588.00,1.50
8587.00,1.50
8586.00,1.50
8585.00,1.50
8584.00,1.49
8583.00,1.49
8582.00,1.49
8581.00,1.49
8580.00,1.49
8579.00,1.49
8578.00,1.49
8577.00,1.49
8576.00,1.49
8575.00,1.49
8574.00,1.49
8573.00,1.49
8572.00,1.49
8571.00,1.49
8570.00,1.49
8569.00,1.49
8568.00,1.49
8567.00,1.49
8566.00,1.49
8565.00,1.49
8564.00,1.49
8563.00,1.49
8562.00,1.49
8561.00,1.49
8560.00,1.49
8559.00,1.48
8558.00,1.48
8557.00,1.48
8556.00,1.48
8555.00,1.48
8554.00,1.48
8553.00,1.48
8552.00,1.48
8551.00,1.48
8550.00,1.48
8549.00,1.48
8548.00,1.48
8547.00,1.48
8546.00,1.48
8545.00,1.48
8544.00,1.48
8543.00,1.48
8542.00,1.48
8541.00,1.47
8540.00,1.47
8539.00,1.47
8538.00,1.47
8537.00,1.47
8536.00,1.47
8535.00,1.47
8534.00,1.47
8533.00,1.47
8532.00,1.47
8531.00,1.47
8530.00,1.48
8529.00,1.48
8528.00,1.48
8527.00,1.48
8526.00,1.48
8525.00,1.47
8524.00,1.47
8523.00,1.47
8522.00,1.47
8521.00,1.47
8520.00,1.47
8519.00,1.47
8518.00,1.47
8517.00,1.46
8516.00,1.46
8515.00,1.46
8514.00,1.46
8513.00,1.46
8512.00,1.46
8511.00,1.46
8510.00,1.45
8509.00,1.45
8508.00,1.45
8507.00,1.45
8506.00,1.45
8505.00,1.45
8504.00,1.45
8503.00,1.45
8502.00,1.45
8501.00,1.45
8500.00,1.44
8499.00,1.44
8498.00,1.44
8497.00,1.44
8496.00,1.44
8495.00,1.44
8494.00,1.44
8493.00,1.43
8492.00,1.43
8491.00,1.43
8490.00,1.43
8489.00,1.43
8488.00,1.43
8487.00,1.42
8486.00,1.42
8485.00,1.42
8484.00,1.42
8483.00,1.42
8482.00,1.42
8481.00,1.42
8480.00,1.42
8479.00,1.42
8478.00,1.42
8477.00,1.42
8476.00,1.42
8475.00,1.42
8474.00,1.42
8473.00,1.42
8472.00,1.42
8471.00,1.41
8470.00,1.41
8469.00,1.41
8468.00,1.41
8467.00,1.41
8466.00,1.41
8465.00,1.41
8464.00,1.41
8463.00,1.41
8462.00,1.41
8461.00,1.41
8460.00,1.41
8459.00,1.41
8458.00,1.41
8457.00,1.40
8456.00,1.40
8455.00,1.40
8454.00,1.40
8453.00,1.40
8452.00,1.40
8451.00,1.39
8450.00,1.39
8449.00,1.39
8448.00,1.39
8447.00,1.38
8446.00,1.38
8445.00,1.38
8444.00,1.38
8443.00,1.38
8442.00,1.38
8441.00,1.37
8440.00,1.37
8439.00,1.37
8438.00,1.37
8437.00,1.37
8436.00,1.37
8435.00,1.37
8434.00,1.37
8433.00,1.37
8432.00,1.37
8431.00,1.37
8430.00,1.37
8429.00,1.38
8428.00,1.38
8427.00,1.38
8426.00,1.38
8425.00,1.38
8424.00,1.39
8423.00,1.39
8422.00,1.39
8421.00,1.39
8420.00,1.40
8419.00,1.40
8418.00,1.40
8417.00,1.40
8416.00,1.40
8415.00,1.41
8414.00,1.41
8413.00,1.41
8412.00,1.41
8411.00,1.41
8410.00,1.41
8409.00,1.41
8408.00,1.41
8407.00,1.41
8406.00,1.41
8405.00,1.41
8404.00,1.41
8403.00,1.41
8402.00,1.42
8401.00,1.42
8400.00,1.42
8399.00,1.42
8398.00,1.42
8397.00,1.42
8396.00,1.42
8395.00,1.42
8394.00,1.42
8393.00,1.42
8392.00,1.42
8391.00,1.42
8390.00,1.42
8389.00,1.42
8388.00,1.42
8387.00,1.42
8386.00,1.42
8385.00,1.42
8384.00,1.42
8383.00,1.42
8382.00,1.42
8381.00,1.42
8380.00,1.42
8379.00,1.43
8378.00,1.43
8377.00,1.43
8376.00,1.43
8375.00,1.43
8374.00,1.43
8373.00,1.43
8372.00,1.43
8371.00,1.43
8370.00,1.43
8369.00,1.43
8368.00,1.44
8367.00,1.44
8366.00,1.44
8365.00,1.44
8364.00,1.44
8363.00,1.44
8362.00,1.44
8361.00,1.45
8360.00,1.45
8359.00,1.45
8358.00,1.45
8357.00,1.45
8356.00,1.45
8355.00,1.45
8354.00,1.45
8353.00,1.45
8352.00,1.45
8351.00,1.45
8350.00,1.45
8349.00,1.45
8348.00,1.45
8347.00,1.45
8346.00,1.45
8345.00,1.45
8344.00,1.45
8343.00,1.45
8342.00,1.45
8341.00,1.45
8340.00,1.45
8339.00,1.45
8338.00,1.46
8337.00,1.46
8336.00,1.46
8335.00,1.46
8334.00,1.46
8333.00,1.46
8332.00,1.46
8331.00,1.46
8330.00,1.46
8329.00,1.46
8328.00,1.46
8327.00,1.46
8326.00,1.46
8325.00,1.46
8324.00,1.46
8323.00,1.45
8322.00,1.45
8321.00,1.45
8320.00,1.45
8319.00,1.45
8318.00,1.45
8317.00,1.45
8316.00,1.45
8315.00,1.45
8314.00,1.45
8313.00,1.45
8312.00,1.45
8311.00,1.45
8310.00,1.45
8309.00,1.45
8308.00,1.45
8307.00,1.45
8306.00,1.45
8305.00,1.45
8304.00,1.45
8303.00,1.45
8302.00,1.45
8301.00,1.45
8300.00,1.45
8299.00,1.45
8298.00,1.45
8297.00,1.45
8296.00,1.45
8295.00,1.45
8294.00,1.45
8293.00,1.45
8292.00,1.46
8291.00,1.46
8290.00,1.45
8289.00,1.45
8288.00,1.45
8287.00,1.45
8286.00,1.45
8285.00,1.45
8284.00,1.45
8283.00,1.45
8282.00,1.45
8281.00,1.45
8280.00,1.45
8279.00,1.45
8278.00,1.45
8277.00,1.45
8276.00,1.45
8275.00,1.45
8274.00,1.45
8273.00,1.45
8272.00,1.45
8271.00,1.45
8270.00,1.45
8269.00,1.45
8268.00,1.45
8267.00,1.45
8266.00,1.45
8265.00,1.46
8264.00,1.46
8263.00,1.46
8262.00,1.46
8261.00,1.46
8260.00,1.46
8259.00,1.46
8258.00,1.46
8257.00,1.46
8256.00,1.46
8255.00,1.47
8254.00,1.47
8253.00,1.47
8252.00,1.47
8251.00,1.47
8250.00,1.47
8249.00,1.47
8248.00,1.48
8247.00,1.48
8246.00,1.48
8245.00,1.48
8244.00,1.48
8243.00,1.48
8242.00,1.49
8241.00,1.49
8240.00,1.49
8239.00,1.49
8238.00,1.49
8237.00,1.49
8236.00,1.49
8235.00,1.49
8234.00,1.49
8233.00,1.49
8232.00,1.49
8231.00,1.49
8230.00,1.49
8229.00,1.49
8228.00,1.49
8227.00,1.49
8226.00,1.49
8225.00,1.49
8224.00,1.49
8223.00,1.49
8222.00,1.49
8221.00,1.49
8220.00,1.49
8219.00,1.49
8218.00,1.49
8217.00,1.49
8216.00,1.48
8215.00,1.48
8214.00,1.48
8213.00,1.48
8212.00,1.48
8211.00,1.48
8210.00,1.48
8209.00,1.48
8208.00,1.48
8207.00,1.48
8206.00,1.48
8205.00,1.48
8204.00,1.48
8203.00,1.48
8202.00,1.48
8201.00,1.48
8200.00,1.49
8199.00,1.49
8198.00,1.49
8197.00,1.49
8196.00,1.49
8195.00,1.49
8194.00,1.50
8193.00,1.50
8192.00,1.50
8191.00,1.50
8190.00,1.50
8189.00,1.50
8188.00,1.51
8187.00,1.51
8186.00,1.51
8185.00,1.51
8184.00,1.51
8183.00,1.51
8182.00,1.51
8181.00,1.51
8180.00,1.51
8179.00,1.51
8178.00,1.51
8177.00,1.51
8176.00,1.51
8175.00,1.51
8174.00,1.51
8173.00,1.51
8172.00,1.51
8171.00,1.51
8170.00,1.51
8169.00,1.51
8168.00,1.51
8167.00,1.51
8166.00,1.51
8165.00,1.51
8164.00,1.51
8163.00,1.51
8162.00,1.51
8161.00,1.51
8160.00,1.51
8159.00,1.51
8158.00,1.51
8157.00,1.51
8156.00,1.51
8155.00,1.51
8154.00,1.51
8153.00,1.51
8152.00,1.51
8151.00,1.51
8150.00,1.52
8149.00,1.52
8148.00,1.52
8147.00,1.52
8146.00,1.52
8145.00,1.53
8144.00,1.53
8143.00,1.53
8142.00,1.53
8141.00,1.53
8140.00,1.53
8139.00,1.53
8138.00,1.53
8137.00,1.53
8136.00,1.53
8135.00,1.53
8134.00,1.53
8133.00,1.53
8132.00,1.53
8131.00,1.53
8130.00,1.53
8129.00,1.53
8128.00,1.53
8127.00,1.53
8126.00,1.53
8125.00,1.53
8124.00,1.53
8123.00,1.53
8122.00,1.53
8121.00,1.53
8120.00,1.53
8119.00,1.53
8118.00,1.53
8117.00,1.53
8116.00,1.53
8115.00,1.54
8114.00,1.54
8113.00,1.54
8112.00,1.54
8111.00,1.54
8110.00,1.54
8109.00,1.55
8108.00,1.55
8107.00,1.55
8106.00,1.55
8105.00,1.55
8104.00,1.55
8103.00,1.55
8102.00,1.55
8101.00,1.55
8100.00,1.55
8099.00,1.55
8098.00,1.55
8097.00,1.55
8096.00,1.55
8095.00,1.55
8094.00,1.55
8093.00,1.55
8092.00,1.55
8091.00,1.55
8090.00,1.55
8089.00,1.55
8088.00,1.55
8087.00,1.55
8086.00,1.55
8085.00,1.56
8084.00,1.56
8083.00,1.56
8082.00,1.56
8081.00,1.56
8080.00,1.56
8079.00,1.56
8078.00,1.56
8077.00,1.56
8076.00,1.56
8075.00,1.56
8074.00,1.56
8073.00,1.56
8072.00,1.56
8071.00,1.56
8070.00,1.56
8069.00,1.56
8068.00,1.56
8067.00,1.56
8066.00,1.56
8065.00,1.56
8064.00,1.56
8063.00,1.56
8062.00,1.56
8061.00,1.56
8060.00,1.56
8059.00,1.56
8058.00,1.56
8057.00,1.56
8056.00,1.56
8055.00,1.56
8054.00,1.56
8053.00,1.56
8052.00,1.56
8051.00,1.56
8050.00,1.56
8049.00,1.57
8048.00,1.57
8047.00,1.57
8046.00,1.57
8045.00,1.57
8044.00,1.57
8043.00,1.57
8042.00,1.57
8041.00,1.57
8040.00,1.57
8039.00,1.57
8038.00,1.57
8037.00,1.57
8036.00,1.57
8035.00,1.57
8034.00,1.57
8033.00,1.57
8032.00,1.58
8031.00,1.58
8030.00,1.58
8029.00,1.58
8028.00,1.58
8027.00,1.58
8026.00,1.58
8025.00,1.58
8024.00,1.58
8023.00,1.58
8022.00,1.58
8021.00,1.58
8020.00,1.58
8019.00,1.58
8018.00,1.58
8017.00,1.58
8016.00,1.58
8015.00,1.58
8014.00,1.58
8013.00,1.58
8012.00,1.58
8011.00,1.59
8010.00,1.59
8009.00,1.59
8008.00,1.59
8007.00,1.59
8006.00,1.59
8005.00,1.59
8004.00,1.59
8003.00,1.59
8002.00,1.59
8001.00,1.59
8000.00,1.59
7999.00,1.58
7998.00,1.58
7997.00,1.58
7996.00,1.58
7995.00,1.58
7994.00,1.58
7993.00,1.58
7992.00,1.58
7991.00,1.58
7990.00,1.58
7989.00,1.58
7988.00,1.58
7987.00,1.59
7986.00,1.59
7985.00,1.59
7984.00,1.59
7983.00,1.59
7982.00,1.59
7981.00,1.59
7980.00,1.59
7979.00,1.59
7978.00,1.59
7977.00,1.60
7976.00,1.60
7975.00,1.60
7974.00,1.60
7973.00,1.60
7972.00,1.60
7971.00,1.60
7970.00,1.60
7969.00,1.60
7968.00,1.60
7967.00,1.61
7966.00,1.61
7965.00,1.61
7964.00,1.61
7963.00,1.61
7962.00,1.61
7961.00,1.61
7960.00,1.60
7959.00,1.60
7958.00,1.60
7957.00,1.60
7956.00,1.60
7955.00,1.60
7954.00,1.60
7953.00,1.60
7952.00,1.60
7951.00,1.60
7950.00,1.60
7949.00,1.60
7948.00,1.59
7947.00,1.59
7946.00,1.59
7945.00,1.59
7944.00,1.59
7943.00,1.59
7942.00,1.59
7941.00,1.59
7940.00,1.59
7939.00,1.59
7938.00,1.59
7937.00,1.59
7936.00,1.59
7935.00,1.59
7934.00,1.59
7933.00,1.59
7932.00,1.59
7931.00,1.59
7930.00,1.59
7929.00,1.59
7928.00,1.59
7927.00,1.60
7926.00,1.60
7925.00,1.60
7924.00,1.60
7923.00,1.60
7922.00,1.60
7921.00,1.60
7920.00,1.60
7919.00,1.61
7918.00,1.61
7917.00,1.61
7916.00,1.61
7915.00,1.61
7914.00,1.61
7913.00,1.61
7912.00,1.61
7911.00,1.61
7910.00,1.61
7909.00,1.61
7908.00,1.61
7907.00,1.61
7906.00,1.61
7905.00,1.61
7904.00,1.61
7903.00,1.61
7902.00,1.61
7901.00,1.61
7900.00,1.61
7899.00,1.61
7898.00,1.61
7897.00,1.61
7896.00,1.61
7895.00,1.61
7894.00,1.61
7893.00,1.61
7892.00,1.61
7891.00,1.61
7890.00,1.61
7889.00,1.61
7888.00,1.61
7887.00,1.61
7886.00,1.61
7885.00,1.61
7884.00,1.61
7883.00,1.61
7882.00,1.61
7881.00,1.61
7880.00,1.61
7879.00,1.61
7878.00,1.61
7877.00,1.61
7876.00,1.61
7875.00,1.61
7874.00,1.61
7873.00,1.61
7872.00,1.61
7871.00,1.61
7870.00,1.61
7869.00,1.61
7868.00,1.61
7867.00,1.61
7866.00,1.61
7865.00,1.62
7864.00,1.62
7863.00,1.62
7862.00,1.62
7861.00,1.62
7860.00,1.62
7859.00,1.62
7858.00,1.62
7857.00,1.62
7856.00,1.62
7855.00,1.62
7854.00,1.62
7853.00,1.62
7852.00,1.62
7851.00,1.62
7850.00,1.62
7849.00,1.62
7848.00,1.62
7847.00,1.62
7846.00,1.62
7845.00,1.62
7844.00,1.62
7843.00,1.62
7842.00,1.62
7841.00,1.62
7840.00,1.62
7839.00,1.62
7838.00,1.62
7837.00,1.62
7836.00,1.62
7835.00,1.62
7834.00,1.62
7833.00,1.62
7832.00,1.62
7831.00,1.62
7830.00,1.62
7829.00,1.62
7828.00,1.62
7827.00,1.62
7826.00,1.62
7825.00,1.62
7824.00,1.62
7823.00,1.62
7822.00,1.62
7821.00,1.62
7820.00,1.62
7819.00,1.62
7818.00,1.62
7817.00,1.62
7816.00,1.62
7815.00,1.62
7814.00,1.62
7813.00,1.62
7812.00,1.62
7811.00,1.62
7810.00,1.62
7809.00,1.62
7808.00,1.62
7807.00,1.62
7806.00,1.62
7805.00,1.62
7804.00,1.62
7803.00,1.62
7802.00,1.62
7801.00,1.62
7800.00,1.62
7799.00,1.62
7798.00,1.62
7797.00,1.62
7796.00,1.62
7795.00,1.62
7794.00,1.62
7793.00,1.62
7792.00,1.62
7791.00,1.62
7790.00,1.62
7789.00,1.62
7788.00,1.62
7787.00,1.62
7786.00,1.63
7785.00,1.63
7784.00,1.63
7783.00,1.63
7782.00,1.63
7781.00,1.63
7780.00,1.63
7779.00,1.63
7778.00,1.63
7777.00,1.63
7776.00,1.63
7775.00,1.63
7774.00,1.63
7773.00,1.63
7772.00,1.63
7771.00,1.63
7770.00,1.63
7769.00,1.63
7768.00,1.63
7767.00,1.63
7766.00,1.63
7765.00,1.63
7764.00,1.63
7763.00,1.63
7762.00,1.63
7761.00,1.63
7760.00,1.63
7759.00,1.63
7758.00,1.62
7757.00,1.62
7756.00,1.62
7755.00,1.62
7754.00,1.62
7753.00,1.62
7752.00,1.62
7751.00,1.62
7750.00,1.62
7749.00,1.62
7748.00,1.62
7747.00,1.62
7746.00,1.62
7745.00,1.62
7744.00,1.62
7743.00,1.62
7742.00,1.62
7741.00,1.62
7740.00,1.62
7739.00,1.62
7738.00,1.62
7737.00,1.62
7736.00,1.62
7735.00,1.62
7734.00,1.62
7733.00,1.62
7732.00,1.62
7731.00,1.62
7730.00,1.62
7729.00,1.62
7728.00,1.62
7727.00,1.63
7726.00,1.63
7725.00,1.63
7724.00,1.63
7723.00,1.63
7722.00,1.63
7721.00,1.63
7720.00,1.63
7719.00,1.63
7718.00,1.63
7717.00,1.63
7716.00,1.63
7715.00,1.64
7714.00,1.64
7713.00,1.64
7712.00,1.64
7711.00,1.64
7710.00,1.64
7709.00,1.64
7708.00,1.64
7707.00,1.64
7706.00,1.64
7705.00,1.64
7704.00,1.64
7703.00,1.64
7702.00,1.64
7701.00,1.64
7700.00,1.64
7699.00,1.64
7698.00,1.64
7697.00,1.64
7696.00,1.64
7695.00,1.64
7694.00,1.64
7693.00,1.64
7692.00,1.64
7691.00,1.64
7690.00,1.64
7689.00,1.64
7688.00,1.64
7687.00,1.64
7686.00,1.64
7685.00,1.64
7684.00,1.64
7683.00,1.64
7682.00,1.64
7681.00,1.64
7680.00,1.64
7679.00,1.64
7678.00,1.64
7677.00,1.64
7676.00,1.64
7675.00,1.64
7674.00,1.64
7673.00,1.64
7672.00,1.64
7671.00,1.64
7670.00,1.64
7669.00,1.64
7668.00,1.64
7667.00,1.64
7666.00,1.64
7665.00,1.64
7664.00,1.64
7663.00,1.64
7662.00,1.64
7661.00,1.64
7660.00,1.64
7659.00,1.64
7658.00,1.64
7657.00,1.64
7656.00,1.64
7655.00,1.64
7654.00,1.64
7653.00,1.64
7652.00,1.63
7651.00,1.63
7650.00,1.63
7649.00,1.63
7648.00,1.63
7647.00,1.63
7646.00,1.63
7645.00,1.63
7644.00,1.63
7643.00,1.63
7642.00,1.63
7641.00,1.63
7640.00,1.63
7639.00,1.63
7638.00,1.63
7637.00,1.63
7636.00,1.63
7635.00,1.64
7634.00,1.64
7633.00,1.64
7632.00,1.64
7631.00,1.64
7630.00,1.64
7629.00,1.64
7628.00,1.64
7627.00,1.64
7626.00,1.64
7625.00,1.64
7624.00,1.64
7623.00,1.64
7622.00,1.64
7621.00,1.64
7620.00,1.64
7619.00,1.63
7618.00,1.63
7617.00,1.63
7616.00,1.63
7615.00,1.63
7614.00,1.63
7613.00,1.63
7612.00,1.63
7611.00,1.63
7610.00,1.63
7609.00,1.63
7608.00,1.63
7607.00,1.63
7606.00,1.63
7605.00,1.63
7604.00,1.63
7603.00,1.63
7602.00,1.63
7601.00,1.63
7600.00,1.63
7599.00,1.63
7598.00,1.63
7597.00,1.63
7596.00,1.63
7595.00,1.63
7594.00,1.63
7593.00,1.63
7592.00,1.63
7591.00,1.63
7590.00,1.63
7589.00,1.63
7588.00,1.63
7587.00,1.63
7586.00,1.63
7585.00,1.63
7584.00,1.63
7583.00,1.63
7582.00,1.63
7581.00,1.63
7580.00,1.63
7579.00,1.63
7578.00,1.63
7577.00,1.64
7576.00,1.64
7575.00,1.64
7574.00,1.64
7573.00,1.64
7572.00,1.64
7571.00,1.64
7570.00,1.64
7569.00,1.64
7568.00,1.64
7567.00,1.64
7566.00,1.64
7565.00,1.64
7564.00,1.64
7563.00,1.64
7562.00,1.64
7561.00,1.64
7560.00,1.64
7559.00,1.64
7558.00,1.64
7557.00,1.64
7556.00,1.64
7555.00,1.64
7554.00,1.64
7553.00,1.64
7552.00,1.64
7551.00,1.64
7550.00,1.64
7549.00,1.64
7548.00,1.63
7547.00,1.63
7546.00,1.63
7545.00,1.63
7544.00,1.63
7543.00,1.63
7542.00,1.63
7541.00,1.63
7540.00,1.63
7539.00,1.63
7538.00,1.63
7537.00,1.63
7536.00,1.63
7535.00,1.63
7534.00,1.63
7533.00,1.63
7532.00,1.63
7531.00,1.63
7530.00,1.63
7529.00,1.63
7528.00,1.63
7527.00,1.63
7526.00,1.63
7525.00,1.63
7524.00,1.63
7523.00,1.63
7522.00,1.63
7521.00,1.63
7520.00,1.63
7519.00,1.63
7518.00,1.62
7517.00,1.62
7516.00,1.62
7515.00,1.62
7514.00,1.62
7513.00,1.62
7512.00,1.62
7511.00,1.62
7510.00,1.62
7509.00,1.62
7508.00,1.62
7507.00,1.62
7506.00,1.61
7505.00,1.61
7504.00,1.61
7503.00,1.61
7502.00,1.61
7501.00,1.61
7500.00,1.61
7499.00,1.61
7498.00,1.61
7497.00,1.61
7496.00,1.60
7495.00,1.60
7494.00,1.60
7493.00,1.60
7492.00,1.60
7491.00,1.60
7490.00,1.60
7489.00,1.60
7488.00,1.60
7487.00,1.60
7486.00,1.60
7485.00,1.59
7484.00,1.59
7483.00,1.59
7482.00,1.59
7481.00,1.59
7480.00,1.59
7479.00,1.59
7478.00,1.59
7477.00,1.59
7476.00,1.59
7475.00,1.59
7474.00,1.59
7473.00,1.59
7472.00,1.58
7471.00,1.58
7470.00,1.58
7469.00,1.58
7468.00,1.58
7467.00,1.58
7466.00,1.58
7465.00,1.58
7464.00,1.57
7463.00,1.57
7462.00,1.57
7461.00,1.57
7460.00,1.57
7459.00,1.57
7458.00,1.57
7457.00,1.57
7456.00,1.57
7455.00,1.57
7454.00,1.57
7453.00,1.57
7452.00,1.56
7451.00,1.56
7450.00,1.56
7449.00,1.56
7448.00,1.56
7447.00,1.56
7446.00,1.56
7445.00,1.56
7444.00,1.57
7443.00,1.57
7442.00,1.57
7441.00,1.57
7440.00,1.57
7439.00,1.57
7438.00,1.57
7437.00,1.57
7436.00,1.57
7435.00,1.57
7434.00,1.57
7433.00,1.57
7432.00,1.57
7431.00,1.57
7430.00,1.57
7429.00,1.57
7428.00,1.57
7427.00,1.57
7426.00,1.56
7425.00,1.56
7424.00,1.56
7423.00,1.56
7422.00,1.56
7421.00,1.56
7420.00,1.56
7419.00,1.56
7418.00,1.56
7417.00,1.55
7416.00,1.55
7415.00,1.55
7414.00,1.55
7413.00,1.55
7412.00,1.55
7411.00,1.55
7410.00,1.54
7409.00,1.54
7408.00,1.54
7407.00,1.54
7406.00,1.54
7405.00,1.54
7404.00,1.54
7403.00,1.54
7402.00,1.53
7401.00,1.53
7400.00,1.53
7399.00,1.53
7398.00,1.53
7397.00,1.53
7396.00,1.53
7395.00,1.52
7394.00,1.52
7393.00,1.52
7392.00,1.52
7391.00,1.52
7390.00,1.52
7389.00,1.51
7388.00,1.51
7387.00,1.51
7386.00,1.51
7385.00,1.51
7384.00,1.51
7383.00,1.51
7382.00,1.50
7381.00,1.50
7380.00,1.50
7379.00,1.50
7378.00,1.50
7377.00,1.50
7376.00,1.50
7375.00,1.50
7374.00,1.50
7373.00,1.50
7372.00,1.50
7371.00,1.50
7370.00,1.50
7369.00,1.50
7368.00,1.50
7367.00,1.50
7366.00,1.50
7365.00,1.50
7364.00,1.50
7363.00,1.50
7362.00,1.50
7361.00,1.50
7360.00,1.50
7359.00,1.50
7358.00,1.50
7357.00,1.50
7356.00,1.50
7355.00,1.50
7354.00,1.50
7353.00,1.50
7352.00,1.49
7351.00,1.49
7350.00,1.49
7349.00,1.49
7348.00,1.49
7347.00,1.49
7346.00,1.49
7345.00,1.49
7344.00,1.49
7343.00,1.48
7342.00,1.48
7341.00,1.48
7340.00,1.48
7339.00,1.48
7338.00,1.48
7337.00,1.48
7336.00,1.47
7335.00,1.47
7334.00,1.47
7333.00,1.47
7332.00,1.47
7331.00,1.47
7330.00,1.47
7329.00,1.47
7328.00,1.47
7327.00,1.47
7326.00,1.47
7325.00,1.47
7324.00,1.47
7323.00,1.47
7322.00,1.47
7321.00,1.47
7320.00,1.47
7319.00,1.47
7318.00,1.47
7317.00,1.47
7316.00,1.47
7315.00,1.47
7314.00,1.46
7313.00,1.46
7312.00,1.46
7311.00,1.46
7310.00,1.46
7309.00,1.46
7308.00,1.45
7307.00,1.45
7306.00,1.45
7305.00,1.45
7304.00,1.45
7303.00,1.45
7302.00,1.44
7301.00,1.44
7300.00,1.44
7299.00,1.44
7298.00,1.44
7297.00,1.44
7296.00,1.44
7295.00,1.43
7294.00,1.43
7293.00,1.43
7292.00,1.43
7291.00,1.43
7290.00,1.43
7289.00,1.42
7288.00,1.42
7287.00,1.42
7286.00,1.42
7285.00,1.42
7284.00,1.41
7283.00,1.41
7282.00,1.41
7281.00,1.41
7280.00,1.41
7279.00,1.40
7278.00,1.40
7277.00,1.40
7276.00,1.40
7275.00,1.40
7274.00,1.40
7273.00,1.39
7272.00,1.39
7271.00,1.39
7270.00,1.39
7269.00,1.39
7268.00,1.39
7267.00,1.39
7266.00,1.39
7265.00,1.39
7264.00,1.39
7263.00,1.38
7262.00,1.38
7261.00,1.38
7260.00,1.38
7259.00,1.38
7258.00,1.38
7257.00,1.38
7256.00,1.38
7255.00,1.37
7254.00,1.37
7253.00,1.37
7252.00,1.37
7251.00,1.36
7250.00,1.36
7249.00,1.36
7248.00,1.36
7247.00,1.35
7246.00,1.35
7245.00,1.35
7244.00,1.34
7243.00,1.34
7242.00,1.34
7241.00,1.33
7240.00,1.33
7239.00,1.32
7238.00,1.32
7237.00,1.32
7236.00,1.31
7235.00,1.31
7234.00,1.30
7233.00,1.30
7232.00,1.30
7231.00,1.29
7230.00,1.29
7229.00,1.28
7228.00,1.28
7227.00,1.28
7226.00,1.27
7225.00,1.27
7224.00,1.27
7223.00,1.26
7222.00,1.26
7221.00,1.25
7220.00,1.25
7219.00,1.25
7218.00,1.24
7217.00,1.24
7216.00,1.24
7215.00,1.23
7214.00,1.23
7213.00,1.22
7212.00,1.22
7211.00,1.21
7210.00,1.21
7209.00,1.20
7208.00,1.20
7207.00,1.19
7206.00,1.19
7205.00,1.18
7204.00,1.18
7203.00,1.17
7202.00,1.17
7201.00,1.16
7200.00,1.16
7199.00,1.15
7198.00,1.15
7197.00,1.14
7196.00,1.14
7195.00,1.13
7194.00,1.13
7193.00,1.13
7192.00,1.12
7191.00,1.12
7190.00,1.12
7189.00,1.12
7188.00,1.11
7187.00,1.11
7186.00,1.11
7185.00,1.11
7184.00,1.10
7183.00,1.10
7182.00,1.10
7181.00,1.09
7180.00,1.09
7179.00,1.09
7178.00,1.09
7177.00,1.08
7176.00,1.08
7175.00,1.08
7174.00,1.07
7173.00,1.07
7172.00,1.07
7171.00,1.06
7170.00,1.06
7169.00,1.06
7168.00,1.05
7167.00,1.05
7166.00,1.05
7165.00,1.04
7164.00,1.04
7163.00,1.04
7162.00,1.03
7161.00,1.03
7160.00,1.03
7159.00,1.02
7158.00,1.02
7157.00,1.02
7156.00,1.01
7155.00,1.01
7154.00,1.00
7153.00,1.00
7152.00,1.00
7151.00,0.99
7150.00,0.99
7149.00,0.99
7148.00,0.98
7147.00,0.98
7146.00,0.97
7145.00,0.97
7144.00,0.97
7143.00,0.96
7142.00,0.96
7141.00,0.95
7140.00,0.95
7139.00,0.95
7138.00,0.94
7137.00,0.94
7136.00,0.94
7135.00,0.93
7134.00,0.93
7133.00,0.93
7132.00,0.92
7131.00,0.92
7130.00,0.92
7129.00,0.92
7128.00,0.91
7127.00,0.91
7126.00,0.90
7125.00,0.90
7124.00,0.90
7123.00,0.89
7122.00,0.89
7121.00,0.89
7120.00,0.88
7119.00,0.88
7118.00,0.88
7117.00,0.87
7116.00,0.87
7115.00,0.87
7114.00,0.87
7113.00,0.86
7112.00,0.86
7111.00,0.86
7110.00,0.85
7109.00,0.85
7108.00,0.85
7107.00,0.85
7106.00,0.84
7105.00,0.84
7104.00,0.84
7103.00,0.84
7102.00,0.83
7101.00,0.83
7100.00,0.83
7099.00,0.82
7098.00,0.82
7097.00,0.82
7096.00,0.82
7095.00,0.81
7094.00,0.81
7093.00,0.81
7092.00,0.81
7091.00,0.80
7090.00,0.80
7089.00,0.80
7088.00,0.80
7087.00,0.79
7086.00,0.79
7085.00,0.79
7084.00,0.79
7083.00,0.78
7082.00,0.78
7081.00,0.78
7080.00,0.78
7079.00,0.77
7078.00,0.77
7077.00,0.77
7076.00,0.76
7075.00,0.76
7074.00,0.76
7073.00,0.76
7072.00,0.76
7071.00,0.75
7070.00,0.75
7069.00,0.75
7068.00,0.75
7067.00,0.75
7066.00,0.75
7065.00,0.74
7064.00,0.74
7063.00,0.74
7062.00,0.74
7061.00,0.74
7060.00,0.74
7059.00,0.74
7058.00,0.73
7057.00,0.73
7056.00,0.73
7055.00,0.73
7054.00,0.73
7053.00,0.73
7052.00,0.72
7051.00,0.72
7050.00,0.72
7049.00,0.72
7048.00,0.72
7047.00,0.72
7046.00,0.72
7045.00,0.72
7044.00,0.72
7043.00,0.71
7042.00,0.71
7041.00,0.71
7040.00,0.71
7039.00,0.71
7038.00,0.71
7037.00,0.71
7036.00,0.70
7035.00,0.70
7034.00,0.70
7033.00,0.70
7032.00,0.70
7031.00,0.70
7030.00,0.69
7029.00,0.69
7028.00,0.69
7027.00,0.69
7026.00,0.69
7025.00,0.69
7024.00,0.68
7023.00,0.68
7022.00,0.68
7021.00,0.68
7020.00,0.68
7019.00,0.67
7018.00,0.67
7017.00,0.67
7016.00,0.67
7015.00,0.67
7014.00,0.67
7013.00,0.67
7012.00,0.66
7011.00,0.66
7010.00,0.66
7009.00,0.66
7008.00,0.66
7007.00,0.66
7006.00,0.66
7005.00,0.66
7004.00,0.66
7003.00,0.66
7002.00,0.66
7001.00,0.66
7000.00,0.66
6999.00,0.66
6998.00,0.65
6997.00,0.65
6996.00,0.65
6995.00,0.65
6994.00,0.65
6993.00,0.65
6992.00,0.65
6991.00,0.65
6990.00,0.65
6989.00,0.65
6988.00,0.64
6987.00,0.64
6986.00,0.64
6985.00,0.64
6984.00,0.64
6983.00,0.64
6982.00,0.64
6981.00,0.64
6980.00,0.63
6979.00,0.63
6978.00,0.63
6977.00,0.63
6976.00,0.63
6975.00,0.63
6974.00,0.63
6973.00,0.63
6972.00,0.63
6971.00,0.63
6970.00,0.63
6969.00,0.63
6968.00,0.63
6967.00,0.63
6966.00,0.63
6965.00,0.63
6964.00,0.63
6963.00,0.63
6962.00,0.63
6961.00,0.62
6960.00,0.62
6959.00,0.62
6958.00,0.62
6957.00,0.62
6956.00,0.62
6955.00,0.62
6954.00,0.62
6953.00,0.62
6952.00,0.62
6951.00,0.62
6950.00,0.62
6949.00,0.62
6948.00,0.62
6947.00,0.62
6946.00,0.62
6945.00,0.62
6944.00,0.62
6943.00,0.61
6942.00,0.61
6941.00,0.61
6940.00,0.61
6939.00,0.61
6938.00,0.61
6937.00,0.61
6936.00,0.61
6935.00,0.61
6934.00,0.61
6933.00,0.61
6932.00,0.61
6931.00,0.61
6930.00,0.61
6929.00,0.61
6928.00,0.61
6927.00,0.60
6926.00,0.60
6925.00,0.60
6924.00,0.60
6923.00,0.60
6922.00,0.60
6921.00,0.60
6920.00,0.60
6919.00,0.60
6918.00,0.60
6917.00,0.60
6916.00,0.60
6915.00,0.60
6914.00,0.60
6913.00,0.60
6912.00,0.60
6911.00,0.60
6910.00,0.60
6909.00,0.60
6908.00,0.60
6907.00,0.60
6906.00,0.60
6905.00,0.60
6904.00,0.60
6903.00,0.60
6902.00,0.60
6901.00,0.60
6900.00,0.60
6899.00,0.60
6898.00,0.60
6897.00,0.60
6896.00,0.60
6895.00,0.60
6894.00,0.60
6893.00,0.60
6892.00,0.60
6891.00,0.60
6890.00,0.60
6889.00,0.60
6888.00,0.60
6887.00,0.60
6886.00,0.60
6885.00,0.60
6884.00,0.60
6883.00,0.60
6882.00,0.60
6881.00,0.60
6880.00,0.60
6879.00,0.60
6878.00,0.60
6877.00,0.60
6876.00,0.59
6875.00,0.59
6874.00,0.59
6873.00,0.59
6872.00,0.59
6871.00,0.59
6870.00,0.59
6869.00,0.59
6868.00,0.59
6867.00,0.59
6866.00,0.59
6865.00,0.59
6864.00,0.59
6863.00,0.59
6862.00,0.59
6861.00,0.60
6860.00,0.60
6859.00,0.60
6858.00,0.60
6857.00,0.60
6856.00,0.60
6855.00,0.60
6854.00,0.60
6853.00,0.60
6852.00,0.60
6851.00,0.60
6850.00,0.60
6849.00,0.60
6848.00,0.60
6847.00,0.60
6846.00,0.60
6845.00,0.60
6844.00,0.60
6843.00,0.60
6842.00,0.60
6841.00,0.60
6840.00,0.60
6839.00,0.60
6838.00,0.60
6837.00,0.60
6836.00,0.60
6835.00,0.60
6834.00,0.60
6833.00,0.60
6832.00,0.60
6831.00,0.60
6830.00,0.60
6829.00,0.61
6828.00,0.61
6827.00,0.61
6826.00,0.61
6825.00,0.61
6824.00,0.61
6823.00,0.61
6822.00,0.61
6821.00,0.61
6820.00,0.61
6819.00,0.61
6818.00,0.61
6817.00,0.61
6816.00,0.61
6815.00,0.61
6814.00,0.61
6813.00,0.61
6812.00,0.61
6811.00,0.61
6810.00,0.61
6809.00,0.61
6808.00,0.61
6807.00,0.61
6806.00,0.61
6805.00,0.61
6804.00,0.61
6803.00,0.61
6802.00,0.61
6801.00,0.61
6800.00,0.61
6799.00,0.61
6798.00,0.61
6797.00,0.61
6796.00,0.62
6795.00,0.62
6794.00,0.62
6793.00,0.62
6792.00,0.62
6791.00,0.62
6790.00,0.62
6789.00,0.62
6788.00,0.62
6787.00,0.62
6786.00,0.62
6785.00,0.62
6784.00,0.62
6783.00,0.62
6782.00,0.63
6781.00,0.63
6780.00,0.63
6779.00,0.63
6778.00,0.63
6777.00,0.63
6776.00,0.63
6775.00,0.63
6774.00,0.63
6773.00,0.63
6772.00,0.63
6771.00,0.63
6770.00,0.63
6769.00,0.63
6768.00,0.63
6767.00,0.63
6766.00,0.63
6765.00,0.63
6764.00,0.63
6763.00,0.63
6762.00,0.63
6761.00,0.63
6760.00,0.63
6759.00,0.63
6758.00,0.63
6757.00,0.63
6756.00,0.63
6755.00,0.63
6754.00,0.63
6753.00,0.63
6752.00,0.63
6751.00,0.63
6750.00,0.64
6749.00,0.64
6748.00,0.64
6747.00,0.64
6746.00,0.64
6745.00,0.64
6744.00,0.64
6743.00,0.64
6742.00,0.64
6741.00,0.64
6740.00,0.65
6739.00,0.65
6738.00,0.65
6737.00,0.65
6736.00,0.65
6735.00,0.65
6734.00,0.65
6733.00,0.65
6732.00,0.65
6731.00,0.65
6730.00,0.65
6729.00,0.65
6728.00,0.65
6727.00,0.65
6726.00,0.65
6725.00,0.66
6724.00,0.66
6723.00,0.66
6722.00,0.66
6721.00,0.66
6720.00,0.66
6719.00,0.66
6718.00,0.66
6717.00,0.67
6716.00,0.67
6715.00,0.67
6714.00,0.67
6713.00,0.67
6712.00,0.67
6711.00,0.67
6710.00,0.67
6709.00,0.67
6708.00,0.68
6707.00,0.68
6706.00,0.68
6705.00,0.68
6704.00,0.68
6703.00,0.68
6702.00,0.68
6701.00,0.68
6700.00,0.68
6699.00,0.68
6698.00,0.68
6697.00,0.68
6696.00,0.68
6695.00,0.69
6694.00,0.69
6693.00,0.69
6692.00,0.69
6691.00,0.69
6690.00,0.69
6689.00,0.69
6688.00,0.69
6687.00,0.69
6686.00,0.69
6685.00,0.69
6684.00,0.70
6683.00,0.70
6682.00,0.70
6681.00,0.70
6680.00,0.70
6679.00,0.70
6678.00,0.70
6677.00,0.70
6676.00,0.70
6675.00,0.70
6674.00,0.70
6673.00,0.70
6672.00,0.71
6671.00,0.71
6670.00,0.71
6669.00,0.71
6668.00,0.71
6667.00,0.71
6666.00,0.72
6665.00,0.72
6664.00,0.72
6663.00,0.72
6662.00,0.72
6661.00,0.73
6660.00,0.73
6659.00,0.73
6658.00,0.73
6657.00,0.73
6656.00,0.73
6655.00,0.73
6654.00,0.73
6653.00,0.73
6652.00,0.73
6651.00,0.74
6650.00,0.74
6649.00,0.74
6648.00,0.74
6647.00,0.74
6646.00,0.74
6645.00,0.74
6644.00,0.74
6643.00,0.74
6642.00,0.75
6641.00,0.75
6640.00,0.75
6639.00,0.75
6638.00,0.75
6637.00,0.75
6636.00,0.75
6635.00,0.76
6634.00,0.76
6633.00,0.76
6632.00,0.76
6631.00,0.76
6630.00,0.76
6629.00,0.76
6628.00,0.76
6627.00,0.77
6626.00,0.77
6625.00,0.77
6624.00,0.77
6623.00,0.77
6622.00,0.77
6621.00,0.77
6620.00,0.77
6619.00,0.77
6618.00,0.77
6617.00,0.77
6616.00,0.77
6615.00,0.77
6614.00,0.77
6613.00,0.77
6612.00,0.77
6611.00,0.78
6610.00,0.78
6609.00,0.78
6608.00,0.78
6607.00,0.78
6606.00,0.78
6605.00,0.78
6604.00,0.78
6603.00,0.78
6602.00,0.78
6601.00,0.78
6600.00,0.78
6599.00,0.78
6598.00,0.79
6597.00,0.79
6596.00,0.79
6595.00,0.79
6594.00,0.79
6593.00,0.79
6592.00,0.79
6591.00,0.79
6590.00,0.80
6589.00,0.80
6588.00,0.80
6587.00,0.80
6586.00,0.80
6585.00,0.80
6584.00,0.81
6583.00,0.81
6582.00,0.81
6581.00,0.81
6580.00,0.81
6579.00,0.82
6578.00,0.82
6577.00,0.82
6576.00,0.82
6575.00,0.82
6574.00,0.82
6573.00,0.82
6572.00,0.83
6571.00,0.83
6570.00,0.83
6569.00,0.83
6568.00,0.83
6567.00,0.83
6566.00,0.83
6565.00,0.83
6564.00,0.83
6563.00,0.83
6562.00,0.83
6561.00,0.84
6560.00,0.84
6559.00,0.84
6558.00,0.84
6557.00,0.84
6556.00,0.84
6555.00,0.84
6554.00,0.84
6553.00,0.84
6552.00,0.84
6551.00,0.84
6550.00,0.84
6549.00,0.84
6548.00,0.84
6547.00,0.84
6546.00,0.85
6545.00,0.85
6544.00,0.85
6543.00,0.85
6542.00,0.85
6541.00,0.85
6540.00,0.85
6539.00,0.86
6538.00,0.86
6537.00,0.86
6536.00,0.86
6535.00,0.86
6534.00,0.86
6533.00,0.86
6532.00,0.86
6531.00,0.87
6530.00,0.87
6529.00,0.87
6528.00,0.87
6527.00,0.87
6526.00,0.87
6525.00,0.87
6524.00,0.87
6523.00,0.87
6522.00,0.87
6521.00,0.87
6520.00,0.87
6519.00,0.87
6518.00,0.87
6517.00,0.87
6516.00,0.87
6515.00,0.87
6514.00,0.87
6513.00,0.88
6512.00,0.88
6511.00,0.88
6510.00,0.88
6509.00,0.88
6508.00,0.88
6507.00,0.88
6506.00,0.89
6505.00,0.89
6504.00,0.89
6503.00,0.89
6502.00,0.89
6501.00,0.89
6500.00,0.89
6499.00,0.89
6498.00,0.89
6497.00,0.89
6496.00,0.89
6495.00,0.89
6494.00,0.89
6493.00,0.89
6492.00,0.89
6491.00,0.90
6490.00,0.90
6489.00,0.90
6488.00,0.90
6487.00,0.90
6486.00,0.90
6485.00,0.90
6484.00,0.90
6483.00,0.90
6482.00,0.91
6481.00,0.91
6480.00,0.91
6479.00,0.91
6478.00,0.91
6477.00,0.91
6476.00,0.91
6475.00,0.91
6474.00,0.91
6473.00,0.92
6472.00,0.92
6471.00,0.92
6470.00,0.92
6469.00,0.92
6468.00,0.92
6467.00,0.92
6466.00,0.92
6465.00,0.93
6464.00,0.93
6463.00,0.93
6462.00,0.93
6461.00,0.93
6460.00,0.93
6459.00,0.93
6458.00,0.93
6457.00,0.93
6456.00,0.93
6455.00,0.93
6454.00,0.94
6453.00,0.94
6452.00,0.94
6451.00,0.94
6450.00,0.94
6449.00,0.94
6448.00,0.94
6447.00,0.94
6446.00,0.94
6445.00,0.94
6444.00,0.94
6443.00,0.94
6442.00,0.94
6441.00,0.94
6440.00,0.94
6439.00,0.94
6438.00,0.94
6437.00,0.94
6436.00,0.94
6435.00,0.94
6434.00,0.94
6433.00,0.94
6432.00,0.94
6431.00,0.94
6430.00,0.94
6429.00,0.94
6428.00,0.94
6427.00,0.94
6426.00,0.94
6425.00,0.94
6424.00,0.95
6423.00,0.95
6422.00,0.95
6421.00,0.95
6420.00,0.95
6419.00,0.95
6418.00,0.95
6417.00,0.95
6416.00,0.95
6415.00,0.95
6414.00,0.95
6413.00,0.95
6412.00,0.96
6411.00,0.96
6410.00,0.96
6409.00,0.96
6408.00,0.96
6407.00,0.96
6406.00,0.96
6405.00,0.96
6404.00,0.96
6403.00,0.96
6402.00,0.96
6401.00,0.97
6400.00,0.97
6399.00,0.97
6398.00,0.97
6397.00,0.97
6396.00,0.97
6395.00,0.97
6394.00,0.97
6393.00,0.97
6392.00,0.97
6391.00,0.97
6390.00,0.97
6389.00,0.97
6388.00,0.97
6387.00,0.97
6386.00,0.97
6385.00,0.97
6384.00,0.97
6383.00,0.98
6382.00,0.98
6381.00,0.98
6380.00,0.98
6379.00,0.98
6378.00,0.98
6377.00,0.98
6376.00,0.98
6375.00,0.98
6374.00,0.98
6373.00,0.98
6372.00,0.98
6371.00,0.99
6370.00,0.99
6369.00,0.99
6368.00,0.99
6367.00,0.99
6366.00,0.99
6365.00,0.99
6364.00,0.99
6363.00,0.99
6362.00,1.00
6361.00,1.00
6360.00,1.00
6359.00,1.00
6358.00,1.00
6357.00,1.00
6356.00,1.00
6355.00,1.00
6354.00,1.00
6353.00,1.00
6352.00,1.00
6351.00,1.01
6350.00,1.01
6349.00,1.01
6348.00,1.01
6347.00,1.01
6346.00,1.01
6345.00,1.01
6344.00,1.01
6343.00,1.01
6342.00,1.01
6341.00,1.02
6340.00,1.02
6339.00,1.02
6338.00,1.02
6337.00,1.02
6336.00,1.02
6335.00,1.02
6334.00,1.02
6333.00,1.02
6332.00,1.03
6331.00,1.03
6330.00,1.03
6329.00,1.03
6328.00,1.03
6327.00,1.03
6326.00,1.03
6325.00,1.03
6324.00,1.03
6323.00,1.03
6322.00,1.03
6321.00,1.03
6320.00,1.03
6319.00,1.03
6318.00,1.03
6317.00,1.04
6316.00,1.04
6315.00,1.04
6314.00,1.04
6313.00,1.04
6312.00,1.04
6311.00,1.04
6310.00,1.04
6309.00,1.05
6308.00,1.05
6307.00,1.05
6306.00,1.05
6305.00,1.05
6304.00,1.06
6303.00,1.06
6302.00,1.06
6301.00,1.06
6300.00,1.06
6299.00,1.06
6298.00,1.07
6297.00,1.07
6296.00,1.07
6295.00,1.07
6294.00,1.07
6293.00,1.07
6292.00,1.08
6291.00,1.08
6290.00,1.08
6289.00,1.08
6288.00,1.08
6287.00,1.08
6286.00,1.08
6285.00,1.08
6284.00,1.08
6283.00,1.09
6282.00,1.09
6281.00,1.09
6280.00,1.09
6279.00,1.09
6278.00,1.09
6277.00,1.09
6276.00,1.10
6275.00,1.10
6274.00,1.10
6273.00,1.10
6272.00,1.10
6271.00,1.10
6270.00,1.10
6269.00,1.11
6268.00,1.11
6267.00,1.11
6266.00,1.11
6265.00,1.11
6264.00,1.11
6263.00,1.11
6262.00,1.11
6261.00,1.11
6260.00,1.11
6259.00,1.12
6258.00,1.12
6257.00,1.12
6256.00,1.12
6255.00,1.12
6254.00,1.12
6253.00,1.12
6252.00,1.12
6251.00,1.13
6250.00,1.13
6249.00,1.13
6248.00,1.13
6247.00,1.13
6246.00,1.14
6245.00,1.14
6244.00,1.14
6243.00,1.14
6242.00,1.14
6241.00,1.15
6240.00,1.15
6239.00,1.15
6238.00,1.15
6237.00,1.15
6236.00,1.16
6235.00,1.16
6234.00,1.16
6233.00,1.16
6232.00,1.16
6231.00,1.17
6230.00,1.17
6229.00,1.17
6228.00,1.17
6227.00,1.17
6226.00,1.17
6225.00,1.17
6224.00,1.17
6223.00,1.17
6222.00,1.17
6221.00,1.17
6220.00,1.18
6219.00,1.18
6218.00,1.18
6217.00,1.18
6216.00,1.18
6215.00,1.18
6214.00,1.18
6213.00,1.18
6212.00,1.18
6211.00,1.19
6210.00,1.19
6209.00,1.19
6208.00,1.19
6207.00,1.19
6206.00,1.20
6205.00,1.20
6204.00,1.20
6203.00,1.20
6202.00,1.20
6201.00,1.21
6200.00,1.21
6199.00,1.21
6198.00,1.21
6197.00,1.21
6196.00,1.21
6195.00,1.22
6194.00,1.22
6193.00,1.22
6192.00,1.22
6191.00,1.22
6190.00,1.22
6189.00,1.23
6188.00,1.23
6187.00,1.23
6186.00,1.23
6185.00,1.23
6184.00,1.23
6183.00,1.24
6182.00,1.24
6181.00,1.24
6180.00,1.24
6179.00,1.25
6178.00,1.25
6177.00,1.25
6176.00,1.25
6175.00,1.25
6174.00,1.26
6173.00,1.26
6172.00,1.26
6171.00,1.26
6170.00,1.26
6169.00,1.27
6168.00,1.27
6167.00,1.27
6166.00,1.27
6165.00,1.27
6164.00,1.28
6163.00,1.28
6162.00,1.28
6161.00,1.28
6160.00,1.28
6159.00,1.28
6158.00,1.29
6157.00,1.29
6156.00,1.29
6155.00,1.29
6154.00,1.29
6153.00,1.29
6152.00,1.30
6151.00,1.30
6150.00,1.30
6149.00,1.30
6148.00,1.30
6147.00,1.31
6146.00,1.31
6145.00,1.31
6144.00,1.31
6143.00,1.31
6142.00,1.32
6141.00,1.32
6140.00,1.32
6139.00,1.32
6138.00,1.32
6137.00,1.33
6136.00,1.33
6135.00,1.33
6134.00,1.33
6133.00,1.33
6132.00,1.33
6131.00,1.34
6130.00,1.34
6129.00,1.34
6128.00,1.34
6127.00,1.34
6126.00,1.34
6125.00,1.34
6124.00,1.35
6123.00,1.35
6122.00,1.35
6121.00,1.35
6120.00,1.35
6119.00,1.36
6118.00,1.36
6117.00,1.36
6116.00,1.36
6115.00,1.36
6114.00,1.36
6113.00,1.37
6112.00,1.37
6111.00,1.37
6110.00,1.37
6109.00,1.37
6108.00,1.38
6107.00,1.38
6106.00,1.38
6105.00,1.38
6104.00,1.38
6103.00,1.39
6102.00,1.39
6101.00,1.39
6100.00,1.39
6099.00,1.39
6098.00,1.40
6097.00,1.40
6096.00,1.40
6095.00,1.40
6094.00,1.40
6093.00,1.41
6092.00,1.41
6091.00,1.41
6090.00,1.41
6089.00,1.41
6088.00,1.42
6087.00,1.42
6086.00,1.42
6085.00,1.42
6084.00,1.42
6083.00,1.43
6082.00,1.43
6081.00,1.43
6080.00,1.43
6079.00,1.43
6078.00,1.43
6077.00,1.43
6076.00,1.43
6075.00,1.44
6074.00,1.44
6073.00,1.44
6072.00,1.44
6071.00,1.44
6070.00,1.44
6069.00,1.44
6068.00,1.45
6067.00,1.45
6066.00,1.45
6065.00,1.45
6064.00,1.45
6063.00,1.45
6062.00,1.46
6061.00,1.46
6060.00,1.46
6059.00,1.46
6058.00,1.46
6057.00,1.46
6056.00,1.46
6055.00,1.47
6054.00,1.47
6053.00,1.47
6052.00,1.47
6051.00,1.47
6050.00,1.47
6049.00,1.47
6048.00,1.47
6047.00,1.47
6046.00,1.47
6045.00,1.47
6044.00,1.48
6043.00,1.48
6042.00,1.48
6041.00,1.48
6040.00,1.48
6039.00,1.48
6038.00,1.48
6037.00,1.48
6036.00,1.48
6035.00,1.49
6034.00,1.49
6033.00,1.49
6032.00,1.49
6031.00,1.49
6030.00,1.49
6029.00,1.49
6028.00,1.49
6027.00,1.49
6026.00,1.49
6025.00,1.49
6024.00,1.49
6023.00,1.49
6022.00,1.49
6021.00,1.49
6020.00,1.49
6019.00,1.49
6018.00,1.49
6017.00,1.49
6016.00,1.49
6015.00,1.49
6014.00,1.49
6013.00,1.49
6012.00,1.49
6011.00,1.49
6010.00,1.49
6009.00,1.49
6008.00,1.49
6007.00,1.49
6006.00,1.49
6005.00,1.49
6004.00,1.49
6003.00,1.49
6002.00,1.49
6001.00,1.48
6000.00,1.48
5999.00,1.48
5998.00,1.48
5997.00,1.48
5996.00,1.48
5995.00,1.48
5994.00,1.48
5993.00,1.48
5992.00,1.47
5991.00,1.47
5990.00,1.47
5989.00,1.47
5988.00,1.47
5987.00,1.47
5986.00,1.46
5985.00,1.46
5984.00,1.46
5983.00,1.46
5982.00,1.45
5981.00,1.45
5980.00,1.44
5979.00,1.44
5978.00,1.44
5977.00,1.43
5976.00,1.43
5975.00,1.42
5974.00,1.41
5973.00,1.41
5972.00,1.40
5971.00,1.39
5970.00,1.38
5969.00,1.38
5968.00,1.37
5967.00,1.36
5966.00,1.35
5965.00,1.34
5964.00,1.33
5963.00,1.33
5962.00,1.32
5961.00,1.31
5960.00,1.30
5959.00,1.29
5958.00,1.28
5957.00,1.27
5956.00,1.26
5955.00,1.26
5954.00,1.25
5953.00,1.24
5952.00,1.23
5951.00,1.23
5950.00,1.22
5949.00,1.21
5948.00,1.21
5947.00,1.20
5946.00,1.19
5945.00,1.19
5944.00,1.19
5943.00,1.18
5942.00,1.18
5941.00,1.17
5940.00,1.17
5939.00,1.17
5938.00,1.17
5937.00,1.17
5936.00,1.16
5935.00,1.16
5934.00,1.16
5933.00,1.16
5932.00,1.16
5931.00,1.16
5930.00,1.15
5929.00,1.15
5928.00,1.15
5927.00,1.15
5926.00,1.15
5925.00,1.14
5924.00,1.14
5923.00,1.14
5922.00,1.13
5921.00,1.13
5920.00,1.13
5919.00,1.12
5918.00,1.12
5917.00,1.12
5916.00,1.11
5915.00,1.11
5914.00,1.10
5913.00,1.10
5912.00,1.10
5911.00,1.09
5910.00,1.09
5909.00,1.09
5908.00,1.09
5907.00,1.08
5906.00,1.08
5905.00,1.08
5904.00,1.08
5903.00,1.08
5902.00,1.08
5901.00,1.08
5900.00,1.08
5899.00,1.08
5898.00,1.08
5897.00,1.08
5896.00,1.08
5895.00,1.09
5894.00,1.09
5893.00,1.09
5892.00,1.09
5891.00,1.09
5890.00,1.10
5889.00,1.10
5888.00,1.10
5887.00,1.11
5886.00,1.11
5885.00,1.11
5884.00,1.12
5883.00,1.12
5882.00,1.12
5881.00,1.13
5880.00,1.13
5879.00,1.13
5878.00,1.14
5877.00,1.14
5876.00,1.15
5875.00,1.15
5874.00,1.15
5873.00,1.16
5872.00,1.16
5871.00,1.16
5870.00,1.17
5869.00,1.17
5868.00,1.17
5867.00,1.18
5866.00,1.18
5865.00,1.18
5864.00,1.18
5863.00,1.19
5862.00,1.19
5861.00,1.19
5860.00,1.19
5859.00,1.19
5858.00,1.20
5857.00,1.20
5856.00,1.20
5855.00,1.20
5854.00,1.20
5853.00,1.20
5852.00,1.20
5851.00,1.20
5850.00,1.20
5849.00,1.20
5848.00,1.20
5847.00,1.20
5846.00,1.20
5845.00,1.20
5844.00,1.20
5843.00,1.20
5842.00,1.20
5841.00,1.20
5840.00,1.20
5839.00,1.20
5838.00,1.20
5837.00,1.20
5836.00,1.20
5835.00,1.20
5834.00,1.20
5833.00,1.20
5832.00,1.20
5831.00,1.20
5830.00,1.20
5829.00,1.20
5828.00,1.20
5827.00,1.20
5826.00,1.20
5825.00,1.20
5824.00,1.20
5823.00,1.20
5822.00,1.20
5821.00,1.20
5820.00,1.20
5819.00,1.20
5818.00,1.20
5817.00,1.20
5816.00,1.20
5815.00,1.20
5814.00,1.20
5813.00,1.20
5812.00,1.20
5811.00,1.20
5810.00,1.20
5809.00,1.20
5808.00,1.20
5807.00,1.20
5806.00,1.20
5805.00,1.20
5804.00,1.20
5803.00,1.20
5802.00,1.19
5801.00,1.19
5800.00,1.19
5799.00,1.19
5798.00,1.19
5797.00,1.19
5796.00,1.18
5795.00,1.18
5794.00,1.18
5793.00,1.18
5792.00,1.18
5791.00,1.17
5790.00,1.17
5789.00,1.17
5788.00,1.17
5787.00,1.16
5786.00,1.16
5785.00,1.16
5784.00,1.16
5783.00,1.16
5782.00,1.15
5781.00,1.15
5780.00,1.15
5779.00,1.15
5778.00,1.15
5777.00,1.15
5776.00,1.14
5775.00,1.14
5774.00,1.14
5773.00,1.14
5772.00,1.14
5771.00,1.14
5770.00,1.14
5769.00,1.14
5768.00,1.15
5767.00,1.15
5766.00,1.15
5765.00,1.15
5764.00,1.15
5763.00,1.16
5762.00,1.16
5761.00,1.16
5760.00,1.16
5759.00,1.17
5758.00,1.17
5757.00,1.17
5756.00,1.18
5755.00,1.18
5754.00,1.19
5753.00,1.19
5752.00,1.20
5751.00,1.20
5750.00,1.20
5749.00,1.21
5748.00,1.21
5747.00,1.22
5746.00,1.22
5745.00,1.23
5744.00,1.23
5743.00,1.24
5742.00,1.24
5741.00,1.24
5740.00,1.25
5739.00,1.25
5738.00,1.25
5737.00,1.26
5736.00,1.26
5735.00,1.26
5734.00,1.26
5733.00,1.27
5732.00,1.27
5731.00,1.27
5730.00,1.27
5729.00,1.27
5728.00,1.27
5727.00,1.27
5726.00,1.27
5725.00,1.28
5724.00,1.28
5723.00,1.28
5722.00,1.28
5721.00,1.28
5720.00,1.28
5719.00,1.28
5718.00,1.28
5717.00,1.28
5716.00,1.28
5715.00,1.28
5714.00,1.28
5713.00,1.28
5712.00,1.28
5711.00,1.28
5710.00,1.28
5709.00,1.28
5708.00,1.28
5707.00,1.28
5706.00,1.28
5705.00,1.28
5704.00,1.27
5703.00,1.27
5702.00,1.27
5701.00,1.27
5700.00,1.27
5699.00,1.27
5698.00,1.26
5697.00,1.26
5696.00,1.26
5695.00,1.26
5694.00,1.26
5693.00,1.25
5692.00,1.25
5691.00,1.25
5690.00,1.25
5689.00,1.25
5688.00,1.24
5687.00,1.24
5686.00,1.24
5685.00,1.24
5684.00,1.24
5683.00,1.24
5682.00,1.23
5681.00,1.23
5680.00,1.23
5679.00,1.23
5678.00,1.23
5677.00,1.23
5676.00,1.23
5675.00,1.23
5674.00,1.23
5673.00,1.23
5672.00,1.23
5671.00,1.23
5670.00,1.23
5669.00,1.24
5668.00,1.24
5667.00,1.24
5666.00,1.24
5665.00,1.24
5664.00,1.24
5663.00,1.25
5662.00,1.25
5661.00,1.25
5660.00,1.25
5659.00,1.25
5658.00,1.26
5657.00,1.26
5656.00,1.26
5655.00,1.26
5654.00,1.26
5653.00,1.27
5652.00,1.27
5651.00,1.27
5650.00,1.27
5649.00,1.27
5648.00,1.28
5647.00,1.28
5646.00,1.28
5645.00,1.28
5644.00,1.29
5643.00,1.29
5642.00,1.29
5641.00,1.29
5640.00,1.29
5639.00,1.30
5638.00,1.30
5637.00,1.30
5636.00,1.31
5635.00,1.31
5634.00,1.31
5633.00,1.31
5632.00,1.32
5631.00,1.32
5630.00,1.32
5629.00,1.32
5628.00,1.33
5627.00,1.33
5626.00,1.33
5625.00,1.33
5624.00,1.33
5623.00,1.34
5622.00,1.34
5621.00,1.34
5620.00,1.34
5619.00,1.34
5618.00,1.35
5617.00,1.35
5616.00,1.35
5615.00,1.35
5614.00,1.35
5613.00,1.36
5612.00,1.36
5611.00,1.36
5610.00,1.36
5609.00,1.36
5608.00,1.37
5607.00,1.37
5606.00,1.37
5605.00,1.37
5604.00,1.37
5603.00,1.38
5602.00,1.38
5601.00,1.38
5600.00,1.38
5599.00,1.39
5598.00,1.39
5597.00,1.39
5596.00,1.39
5595.00,1.40
5594.00,1.40
5593.00,1.40
5592.00,1.40
5591.00,1.40
5590.00,1.41
5589.00,1.41
5588.00,1.41
5587.00,1.41
5586.00,1.42
5585.00,1.42
5584.00,1.42
5583.00,1.42
5582.00,1.42
5581.00,1.43
5580.00,1.43
5579.00,1.43
5578.00,1.43
5577.00,1.43
5576.00,1.43
5575.00,1.44
5574.00,1.44
5573.00,1.44
5572.00,1.44
5571.00,1.44
5570.00,1.45
5569.00,1.45
5568.00,1.45
5567.00,1.45
5566.00,1.45
5565.00,1.46
5564.00,1.46
5563.00,1.46
5562.00,1.46
5561.00,1.46
5560.00,1.47
5559.00,1.47
5558.00,1.47
5557.00,1.47
5556.00,1.48
5555.00,1.48
5554.00,1.48
5553.00,1.48
5552.00,1.48
5551.00,1.49
5550.00,1.49
5549.00,1.49
5548.00,1.49
5547.00,1.49
5546.00,1.49
5545.00,1.50
5544.00,1.50
5543.00,1.50
5542.00,1.50
5541.00,1.50
5540.00,1.50
5539.00,1.51
5538.00,1.51
5537.00,1.51
5536.00,1.51
5535.00,1.51
5534.00,1.51
5533.00,1.52
5532.00,1.52
5531.00,1.52
5530.00,1.52
5529.00,1.52
5528.00,1.52
5527.00,1.52
5526.00,1.53
5525.00,1.53
5524.00,1.53
5523.00,1.53
5522.00,1.53
5521.00,1.53
5520.00,1.53
5519.00,1.53
5518.00,1.53
5517.00,1.53
5516.00,1.54
5515.00,1.54
5514.00,1.54
5513.00,1.54
5512.00,1.54
5511.00,1.54
5510.00,1.54
5509.00,1.54
5508.00,1.54
5507.00,1.54
5506.00,1.54
5505.00,1.54
5504.00,1.54
5503.00,1.54
5502.00,1.54
5501.00,1.54
5500.00,1.54
5499.00,1.54
5498.00,1.54
5497.00,1.55
5496.00,1.55
5495.00,1.55
5494.00,1.55
5493.00,1.55
5492.00,1.55
5491.00,1.55
5490.00,1.55
5489.00,1.55
5488.00,1.56
5487.00,1.56
5486.00,1.56
5485.00,1.56
5484.00,1.57
5483.00,1.57
5482.00,1.57
5481.00,1.57
5480.00,1.57
5479.00,1.58
5478.00,1.58
5477.00,1.58
5476.00,1.58
5475.00,1.59
5474.00,1.59
5473.00,1.59
5472.00,1.59
5471.00,1.59
5470.00,1.60
5469.00,1.60
5468.00,1.60
5467.00,1.60
5466.00,1.60
5465.00,1.60
5464.00,1.61
5463.00,1.61
5462.00,1.61
5461.00,1.61
5460.00,1.61
5459.00,1.61
5458.00,1.62
5457.00,1.62
5456.00,1.62
5455.00,1.62
5454.00,1.62
5453.00,1.62
5452.00,1.62
5451.00,1.62
5450.00,1.62
5449.00,1.63
5448.00,1.63
5447.00,1.63
5446.00,1.63
5445.00,1.63
5444.00,1.63
5443.00,1.63
5442.00,1.63
5441.00,1.63
5440.00,1.63
5439.00,1.63
5438.00,1.63
5437.00,1.63
5436.00,1.63
5435.00,1.63
5434.00,1.63
5433.00,1.63
5432.00,1.63
5431.00,1.63
5430.00,1.63
5429.00,1.64
5428.00,1.64
5427.00,1.64
5426.00,1.64
5425.00,1.64
5424.00,1.64
5423.00,1.64
5422.00,1.64
5421.00,1.64
5420.00,1.64
5419.00,1.64
5418.00,1.64
5417.00,1.64
5416.00,1.64
5415.00,1.64
5414.00,1.64
5413.00,1.64
5412.00,1.64
5411.00,1.64
5410.00,1.64
5409.00,1.64
5408.00,1.64
5407.00,1.64
5406.00,1.64
5405.00,1.64
5404.00,1.64
5403.00,1.64
5402.00,1.64
5401.00,1.64
5400.00,1.64
5399.00,1.64
5398.00,1.64
5397.00,1.63
5396.00,1.63
5395.00,1.63
5394.00,1.63
5393.00,1.63
5392.00,1.63
5391.00,1.63
5390.00,1.62
5389.00,1.62
5388.00,1.62
5387.00,1.62
5386.00,1.61
5385.00,1.61
5384.00,1.61
5383.00,1.60
5382.00,1.60
5381.00,1.60
5380.00,1.59
5379.00,1.59
5378.00,1.59
5377.00,1.58
5376.00,1.58
5375.00,1.57
5374.00,1.57
5373.00,1.56
5372.00,1.56
5371.00,1.55
5370.00,1.54
5369.00,1.54
5368.00,1.53
5367.00,1.53
5366.00,1.52
5365.00,1.51
5364.00,1.51
5363.00,1.50
5362.00,1.49
5361.00,1.48
5360.00,1.47
5359.00,1.47
5358.00,1.46
5357.00,1.45
5356.00,1.44
5355.00,1.43
5354.00,1.42
5353.00,1.41
5352.00,1.40
5351.00,1.39
5350.00,1.38
5349.00,1.37
5348.00,1.35
5347.00,1.34
5346.00,1.33
5345.00,1.32
5344.00,1.31
5343.00,1.30
5342.00,1.28
5341.00,1.27
5340.00,1.26
5339.00,1.25
5338.00,1.23
5337.00,1.22
5336.00,1.21
5335.00,1.20
5334.00,1.18
5333.00,1.17
5332.00,1.16
5331.00,1.14
5330.00,1.13
5329.00,1.12
5328.00,1.10
5327.00,1.09
5326.00,1.08
5325.00,1.06
5324.00,1.05
5323.00,1.04
5322.00,1.02
5321.00,1.01
5320.00,1.00
5319.00,0.99
5318.00,0.97
5317.00,0.96
5316.00,0.95
5315.00,0.93
5314.00,0.92
5313.00,0.91
5312.00,0.90
5311.00,0.89
5310.00,0.88
5309.00,0.87
5308.00,0.86
5307.00,0.85
5306.00,0.84
5305.00,0.83
5304.00,0.82
5303.00,0.81
5302.00,0.80
5301.00,0.79
5300.00,0.79
5299.00,0.78
5298.00,0.77
5297.00,0.77
5296.00,0.76
5295.00,0.76
5294.00,0.75
5293.00,0.75
5292.00,0.75
5291.00,0.74
5290.00,0.74
5289.00,0.74
5288.00,0.73
5287.00,0.73
5286.00,0.73
5285.00,0.72
5284.00,0.72
5283.00,0.72
5282.00,0.72
5281.00,0.72
5280.00,0.71
5279.00,0.71
5278.00,0.71
5277.00,0.71
5276.00,0.71
5275.00,0.71
5274.00,0.71
5273.00,0.70
5272.00,0.70
5271.00,0.70
5270.00,0.70
5269.00,0.70
5268.00,0.70
5267.00,0.70
5266.00,0.70
5265.00,0.70
5264.00,0.70
5263.00,0.69
5262.00,0.69
5261.00,0.69
5260.00,0.69
5259.00,0.69
5258.00,0.69
5257.00,0.69
5256.00,0.69
5255.00,0.69
5254.00,0.69
5253.00,0.69
5252.00,0.69
5251.00,0.69
5250.00,0.69
5249.00,0.69
5248.00,0.69
5247.00,0.69
5246.00,0.69
5245.00,0.69
5244.00,0.69
5243.00,0.69
5242.00,0.69
5241.00,0.69
5240.00,0.69
5239.00,0.69
5238.00,0.69
5237.00,0.69
5236.00,0.69
5235.00,0.69
5234.00,0.69
5233.00,0.69
5232.00,0.69
5231.00,0.69
5230.00,0.69
5229.00,0.69
5228.00,0.69
5227.00,0.70
5226.00,0.70
5225.00,0.70
5224.00,0.70
5223.00,0.70
5222.00,0.70
5221.00,0.70
5220.00,0.70
5219.00,0.70
5218.00,0.70
5217.00,0.70
5216.00,0.70
5215.00,0.70
5214.00,0.70
5213.00,0.70
5212.00,0.70
5211.00,0.70
5210.00,0.70
5209.00,0.70
5208.00,0.70
5207.00,0.70
5206.00,0.70
5205.00,0.70
5204.00,0.70
5203.00,0.70
5202.00,0.70
5201.00,0.70
5200.00,0.70
5199.00,0.70
5198.00,0.70
5197.00,0.70
5196.00,0.70
5195.00,0.70
5194.00,0.70
5193.00,0.70
5192.00,0.71
5191.00,0.71
5190.00,0.71
5189.00,0.71
5188.00,0.71
5187.00,0.71
5186.00,0.71
5185.00,0.71
5184.00,0.71
5183.00,0.71
5182.00,0.71
5181.00,0.71
5180.00,0.71
5179.00,0.71
5178.00,0.71
5177.00,0.71
5176.00,0.71
5175.00,0.71
5174.00,0.71
5173.00,0.71
5172.00,0.71
5171.00,0.71
5170.00,0.71
5169.00,0.71
5168.00,0.71
5167.00,0.72
5166.00,0.72
5165.00,0.72
5164.00,0.72
5163.00,0.72
5162.00,0.72
5161.00,0.72
5160.00,0.72
5159.00,0.72
5158.00,0.72
5157.00,0.72
5156.00,0.72
5155.00,0.72
5154.00,0.72
5153.00,0.72
5152.00,0.72
5151.00,0.72
5150.00,0.72
5149.00,0.72
5148.00,0.73
5147.00,0.73
5146.00,0.73
5145.00,0.73
5144.00,0.73
5143.00,0.73
5142.00,0.73
5141.00,0.73
5140.00,0.73
5139.00,0.73
5138.00,0.73
5137.00,0.73
5136.00,0.73
5135.00,0.73
5134.00,0.73
5133.00,0.74
5132.00,0.74
5131.00,0.74
5130.00,0.74
5129.00,0.74
5128.00,0.74
5127.00,0.74
5126.00,0.74
5125.00,0.74
5124.00,0.74
5123.00,0.74
5122.00,0.74
5121.00,0.75
5120.00,0.75
5119.00,0.75
5118.00,0.75
5117.00,0.75
5116.00,0.75
5115.00,0.75
5114.00,0.75
5113.00,0.75
5112.00,0.75
5111.00,0.75
5110.00,0.75
5109.00,0.75
5108.00,0.75
5107.00,0.75
5106.00,0.75
5105.00,0.76
5104.00,0.76
5103.00,0.76
5102.00,0.76
5101.00,0.76
5100.00,0.76
5099.00,0.76
5098.00,0.76
5097.00,0.76
5096.00,0.76
5095.00,0.76
5094.00,0.76
5093.00,0.76
5092.00,0.76
5091.00,0.76
5090.00,0.76
5089.00,0.76
5088.00,0.76
5087.00,0.76
5086.00,0.76
5085.00,0.76
5084.00,0.76
5083.00,0.76
5082.00,0.77
5081.00,0.77
5080.00,0.77
5079.00,0.77
5078.00,0.77
5077.00,0.77
5076.00,0.77
5075.00,0.77
5074.00,0.77
5073.00,0.77
5072.00,0.77
5071.00,0.78
5070.00,0.78
5069.00,0.78
5068.00,0.78
5067.00,0.78
5066.00,0.78
5065.00,0.78
5064.00,0.78
5063.00,0.78
5062.00,0.79
5061.00,0.79
5060.00,0.79
5059.00,0.79
5058.00,0.79
5057.00,0.79
5056.00,0.79
5055.00,0.79
5054.00,0.79
5053.00,0.79
5052.00,0.79
5051.00,0.79
5050.00,0.79
5049.00,0.79
5048.00,0.79
5047.00,0.80
5046.00,0.80
5045.00,0.80
5044.00,0.80
5043.00,0.80
5042.00,0.80
5041.00,0.80
5040.00,0.80
5039.00,0.80
5038.00,0.80
5037.00,0.80
5036.00,0.81
5035.00,0.81
5034.00,0.81
5033.00,0.81
5032.00,0.81
5031.00,0.81
5030.00,0.81
5029.00,0.81
5028.00,0.81
5027.00,0.81
5026.00,0.81
5025.00,0.81
5024.00,0.81
5023.00,0.82
5022.00,0.82
5021.00,0.82
5020.00,0.82
5019.00,0.82
5018.00,0.82
5017.00,0.82
5016.00,0.82
5015.00,0.83
5014.00,0.83
5013.00,0.83
5012.00,0.83
5011.00,0.83
5010.00,0.83
5009.00,0.83
5008.00,0.84
5007.00,0.84
5006.00,0.84
5005.00,0.84
5004.00,0.84
5003.00,0.84
5002.00,0.84
5001.00,0.84
5000.00,0.84
4999.00,0.84
4998.00,0.85
4997.00,0.85
4996.00,0.85
4995.00,0.85
4994.00,0.85
4993.00,0.85
4992.00,0.85
4991.00,0.85
4990.00,0.85
4989.00,0.85
4988.00,0.85
4987.00,0.86
4986.00,0.86
4985.00,0.86
4984.00,0.86
4983.00,0.86
4982.00,0.86
4981.00,0.86
4980.00,0.86
4979.00,0.86
4978.00,0.86
4977.00,0.87
4976.00,0.87
4975.00,0.87
4974.00,0.87
4973.00,0.87
4972.00,0.87
4971.00,0.87
4970.00,0.87
4969.00,0.87
4968.00,0.87
4967.00,0.88
4966.00,0.88
4965.00,0.88
4964.00,0.88
4963.00,0.88
4962.00,0.88
4961.00,0.88
4960.00,0.88
4959.00,0.89
4958.00,0.89
4957.00,0.89
4956.00,0.89
4955.00,0.89
4954.00,0.89
4953.00,0.89
4952.00,0.89
4951.00,0.89
4950.00,0.89
4949.00,0.89
4948.00,0.89
4947.00,0.90
4946.00,0.90
4945.00,0.90
4944.00,0.90
4943.00,0.90
4942.00,0.90
4941.00,0.90
4940.00,0.90
4939.00,0.90
4938.00,0.90
4937.00,0.90
4936.00,0.90
4935.00,0.90
4934.00,0.91
4933.00,0.91
4932.00,0.91
4931.00,0.91
4930.00,0.91
4929.00,0.91
4928.00,0.91
4927.00,0.91
4926.00,0.91
4925.00,0.91
4924.00,0.91
4923.00,0.91
4922.00,0.92
4921.00,0.92
4920.00,0.92
4919.00,0.92
4918.00,0.92
4917.00,0.92
4916.00,0.92
4915.00,0.92
4914.00,0.92
4913.00,0.92
4912.00,0.92
4911.00,0.92
4910.00,0.92
4909.00,0.92
4908.00,0.93
4907.00,0.93
4906.00,0.93
4905.00,0.93
4904.00,0.93
4903.00,0.93
4902.00,0.93
4901.00,0.93
4900.00,0.93
4899.00,0.93
4898.00,0.93
4897.00,0.94
4896.00,0.94
4895.00,0.94
4894.00,0.94
4893.00,0.94
4892.00,0.94
4891.00,0.95
4890.00,0.95
4889.00,0.95
4888.00,0.95
4887.00,0.95
4886.00,0.95
4885.00,0.96
4884.00,0.96
4883.00,0.96
4882.00,0.96
4881.00,0.96
4880.00,0.96
4879.00,0.96
4878.00,0.96
4877.00,0.96
4876.00,0.96
4875.00,0.96
4874.00,0.96
4873.00,0.96
4872.00,0.96
4871.00,0.96
4870.00,0.96
4869.00,0.96
4868.00,0.96
4867.00,0.96
4866.00,0.96
4865.00,0.96
4864.00,0.96
4863.00,0.96
4862.00,0.96
4861.00,0.97
4860.00,0.97
4859.00,0.97
4858.00,0.97
4857.00,0.97
4856.00,0.97
4855.00,0.97
4854.00,0.97
4853.00,0.97
4852.00,0.97
4851.00,0.98
4850.00,0.98
4849.00,0.98
4848.00,0.98
4847.00,0.98
4846.00,0.98
4845.00,0.98
4844.00,0.99
4843.00,0.99
4842.00,0.99
4841.00,0.99
4840.00,0.99
4839.00,0.99
4838.00,0.99
4837.00,0.99
4836.00,0.99
4835.00,0.99
4834.00,0.99
4833.00,0.99
4832.00,0.99
4831.00,0.99
4830.00,1.00
4829.00,1.00
4828.00,1.00
4827.00,1.00
4826.00,1.00
4825.00,1.00
4824.00,1.00
4823.00,1.00
4822.00,1.01
4821.00,1.01
4820.00,1.01
4819.00,1.01
4818.00,1.01
4817.00,1.01
4816.00,1.02
4815.00,1.02
4814.00,1.02
4813.00,1.02
4812.00,1.02
4811.00,1.02
4810.00,1.02
4809.00,1.03
4808.00,1.03
4807.00,1.03
4806.00,1.03
4805.00,1.03
4804.00,1.03
4803.00,1.03
4802.00,1.03
4801.00,1.03
4800.00,1.03
4799.00,1.04
4798.00,1.04
4797.00,1.04
4796.00,1.04
4795.00,1.04
4794.00,1.04
4793.00,1.04
4792.00,1.04
4791.00,1.04
4790.00,1.04
4789.00,1.04
4788.00,1.05
4787.00,1.05
4786.00,1.05
4785.00,1.05
4784.00,1.05
4783.00,1.05
4782.00,1.06
4781.00,1.06
4780.00,1.06
4779.00,1.06
4778.00,1.06
4777.00,1.06
4776.00,1.07
4775.00,1.07
4774.00,1.07
4773.00,1.07
4772.00,1.07
4771.00,1.07
4770.00,1.07
4769.00,1.07
4768.00,1.07
4767.00,1.08
4766.00,1.08
4765.00,1.08
4764.00,1.08
4763.00,1.08
4762.00,1.08
4761.00,1.08
4760.00,1.08
4759.00,1.09
4758.00,1.09
4757.00,1.09
4756.00,1.09
4755.00,1.09
4754.00,1.09
4753.00,1.09
4752.00,1.10
4751.00,1.10
4750.00,1.10
4749.00,1.10
4748.00,1.10
4747.00,1.10
4746.00,1.11
4745.00,1.11
4744.00,1.11
4743.00,1.11
4742.00,1.11
4741.00,1.12
4740.00,1.12
4739.00,1.12
4738.00,1.12
4737.00,1.12
4736.00,1.13
4735.00,1.13
4734.00,1.13
4733.00,1.13
4732.00,1.13
4731.00,1.14
4730.00,1.14
4729.00,1.14
4728.00,1.14
4727.00,1.15
4726.00,1.15
4725.00,1.15
4724.00,1.15
4723.00,1.16
4722.00,1.16
4721.00,1.16
4720.00,1.17
4719.00,1.17
4718.00,1.17
4717.00,1.17
4716.00,1.18
4715.00,1.18
4714.00,1.18
4713.00,1.18
4712.00,1.19
4711.00,1.19
4710.00,1.19
4709.00,1.19
4708.00,1.20
4707.00,1.20
4706.00,1.20
4705.00,1.20
4704.00,1.20
4703.00,1.21
4702.00,1.21
4701.00,1.21
4700.00,1.21
4699.00,1.21
4698.00,1.22
4697.00,1.22
4696.00,1.22
4695.00,1.22
4694.00,1.22
4693.00,1.23
4692.00,1.23
4691.00,1.23
4690.00,1.23
4689.00,1.23
4688.00,1.23
4687.00,1.23
4686.00,1.24
4685.00,1.24
4684.00,1.24
4683.00,1.24
4682.00,1.24
4681.00,1.24
4680.00,1.24
4679.00,1.24
4678.00,1.25
4677.00,1.25
4676.00,1.25
4675.00,1.25
4674.00,1.25
4673.00,1.25
4672.00,1.26
4671.00,1.26
4670.00,1.26
4669.00,1.26
4668.00,1.26
4667.00,1.27
4666.00,1.27
4665.00,1.27
4664.00,1.27
4663.00,1.28
4662.00,1.28
4661.00,1.28
4660.00,1.28
4659.00,1.29
4658.00,1.29
4657.00,1.29
4656.00,1.29
4655.00,1.30
4654.00,1.30
4653.00,1.30
4652.00,1.31
4651.00,1.31
4650.00,1.31
4649.00,1.31
4648.00,1.31
4647.00,1.32
4646.00,1.32
4645.00,1.32
4644.00,1.32
4643.00,1.32
4642.00,1.32
4641.00,1.33
4640.00,1.33
4639.00,1.33
4638.00,1.33
4637.00,1.33
4636.00,1.33
4635.00,1.33
4634.00,1.33
4633.00,1.33
4632.00,1.33
4631.00,1.33
4630.00,1.34
4629.00,1.34
4628.00,1.34
4627.00,1.34
4626.00,1.34
4625.00,1.34
4624.00,1.34
4623.00,1.34
4622.00,1.34
4621.00,1.35
4620.00,1.35
4619.00,1.35
4618.00,1.35
4617.00,1.35
4616.00,1.35
4615.00,1.35
4614.00,1.35
4613.00,1.36
4612.00,1.36
4611.00,1.36
4610.00,1.36
4609.00,1.36
4608.00,1.36
4607.00,1.36
4606.00,1.36
4605.00,1.37
4604.00,1.37
4603.00,1.37
4602.00,1.37
4601.00,1.37
4600.00,1.37
4599.00,1.37
4598.00,1.37
4597.00,1.38
4596.00,1.38
4595.00,1.38
4594.00,1.38
4593.00,1.38
4592.00,1.38
4591.00,1.38
4590.00,1.39
4589.00,1.39
4588.00,1.39
4587.00,1.39
4586.00,1.39
4585.00,1.39
4584.00,1.39
4583.00,1.40
4582.00,1.40
4581.00,1.40
4580.00,1.40
4579.00,1.40
4578.00,1.40
4577.00,1.40
4576.00,1.40
4575.00,1.41
4574.00,1.41
4573.00,1.41
4572.00,1.41
4571.00,1.41
4570.00,1.41
4569.00,1.41
4568.00,1.42
4567.00,1.42
4566.00,1.42
4565.00,1.42
4564.00,1.42
4563.00,1.43
4562.00,1.43
4561.00,1.43
4560.00,1.43
4559.00,1.44
4558.00,1.44
4557.00,1.44
4556.00,1.44
4555.00,1.45
4554.00,1.45
4553.00,1.45
4552.00,1.45
4551.00,1.45
4550.00,1.45
4549.00,1.45
4548.00,1.45
4547.00,1.45
4546.00,1.46
4545.00,1.46
4544.00,1.46
4543.00,1.46
4542.00,1.46
4541.00,1.46
4540.00,1.46
4539.00,1.46
4538.00,1.46
4537.00,1.46
4536.00,1.46
4535.00,1.46
4534.00,1.46
4533.00,1.46
4532.00,1.46
4531.00,1.46
4530.00,1.46
4529.00,1.46
4528.00,1.46
4527.00,1.46
4526.00,1.46
4525.00,1.46
4524.00,1.46
4523.00,1.47
4522.00,1.47
4521.00,1.47
4520.00,1.47
4519.00,1.47
4518.00,1.47
4517.00,1.47
4516.00,1.47
4515.00,1.47
4514.00,1.47
4513.00,1.47
4512.00,1.47
4511.00,1.48
4510.00,1.48
4509.00,1.48
4508.00,1.48
4507.00,1.48
4506.00,1.48
4505.00,1.48
4504.00,1.48
4503.00,1.48
4502.00,1.48
4501.00,1.48
4500.00,1.48
4499.00,1.48
4498.00,1.48
4497.00,1.47
4496.00,1.47
4495.00,1.47
4494.00,1.47
4493.00,1.47
4492.00,1.47
4491.00,1.47
4490.00,1.47
4489.00,1.47
4488.00,1.46
4487.00,1.46
4486.00,1.46
4485.00,1.46
4484.00,1.46
4483.00,1.45
4482.00,1.45
4481.00,1.45
4480.00,1.45
4479.00,1.45
4478.00,1.44
4477.00,1.44
4476.00,1.44
4475.00,1.43
4474.00,1.43
4473.00,1.43
4472.00,1.42
4471.00,1.42
4470.00,1.42
4469.00,1.41
4468.00,1.41
4467.00,1.41
4466.00,1.40
4465.00,1.40
4464.00,1.40
4463.00,1.39
4462.00,1.39
4461.00,1.39
4460.00,1.38
4459.00,1.38
4458.00,1.38
4457.00,1.37
4456.00,1.37
4455.00,1.36
4454.00,1.36
4453.00,1.36
4452.00,1.35
4451.00,1.35
4450.00,1.35
4449.00,1.34
4448.00,1.34
4447.00,1.33
4446.00,1.33
4445.00,1.32
4444.00,1.32
4443.00,1.31
4442.00,1.31
4441.00,1.31
4440.00,1.30
4439.00,1.30
4438.00,1.29
4437.00,1.29
4436.00,1.28
4435.00,1.28
4434.00,1.28
4433.00,1.27
4432.00,1.27
4431.00,1.27
4430.00,1.26
4429.00,1.26
4428.00,1.26
4427.00,1.26
4426.00,1.25
4425.00,1.25
4424.00,1.25
4423.00,1.25
4422.00,1.25
4421.00,1.25
4420.00,1.25
4419.00,1.25
4418.00,1.25
4417.00,1.25
4416.00,1.25
4415.00,1.25
4414.00,1.25
4413.00,1.24
4412.00,1.24
4411.00,1.24
4410.00,1.24
4409.00,1.24
4408.00,1.24
4407.00,1.24
4406.00,1.24
4405.00,1.24
4404.00,1.24
4403.00,1.24
4402.00,1.24
4401.00,1.24
4400.00,1.24
4399.00,1.24
4398.00,1.24
4397.00,1.24
4396.00,1.24
4395.00,1.24
4394.00,1.24
4393.00,1.24
4392.00,1.24
4391.00,1.25
4390.00,1.25
4389.00,1.25
4388.00,1.25
4387.00,1.26
4386.00,1.26
4385.00,1.26
4384.00,1.26
4383.00,1.27
4382.00,1.27
4381.00,1.27
4380.00,1.27
4379.00,1.27
4378.00,1.28
4377.00,1.28
4376.00,1.28
4375.00,1.28
4374.00,1.28
4373.00,1.28
4372.00,1.28
4371.00,1.28
4370.00,1.28
4369.00,1.28
4368.00,1.28
4367.00,1.28
4366.00,1.28
4365.00,1.28
4364.00,1.28
4363.00,1.29
4362.00,1.29
4361.00,1.29
4360.00,1.29
4359.00,1.29
4358.00,1.29
4357.00,1.29
4356.00,1.29
4355.00,1.29
4354.00,1.29
4353.00,1.29
4352.00,1.29
4351.00,1.29
4350.00,1.29
4349.00,1.29
4348.00,1.29
4347.00,1.29
4346.00,1.29
4345.00,1.29
4344.00,1.29
4343.00,1.29
4342.00,1.29
4341.00,1.29
4340.00,1.29
4339.00,1.29
4338.00,1.29
4337.00,1.29
4336.00,1.29
4335.00,1.29
4334.00,1.29
4333.00,1.29
4332.00,1.30
4331.00,1.30
4330.00,1.30
4329.00,1.30
4328.00,1.30
4327.00,1.30
4326.00,1.31
4325.00,1.31
4324.00,1.31
4323.00,1.31
4322.00,1.31
4321.00,1.32
4320.00,1.32
4319.00,1.32
4318.00,1.32
4317.00,1.32
4316.00,1.33
4315.00,1.33
4314.00,1.33
4313.00,1.33
4312.00,1.34
4311.00,1.34
4310.00,1.34
4309.00,1.34
4308.00,1.35
4307.00,1.35
4306.00,1.35
4305.00,1.35
4304.00,1.36
4303.00,1.36
4302.00,1.36
4301.00,1.36
4300.00,1.37
4299.00,1.37
4298.00,1.37
4297.00,1.37
4296.00,1.37
4295.00,1.38
4294.00,1.38
4293.00,1.38
4292.00,1.38
4291.00,1.38
4290.00,1.38
4289.00,1.38
4288.00,1.39
4287.00,1.39
4286.00,1.39
4285.00,1.39
4284.00,1.39
4283.00,1.39
4282.00,1.39
4281.00,1.39
4280.00,1.39
4279.00,1.39
4278.00,1.39
4277.00,1.38
4276.00,1.38
4275.00,1.38
4274.00,1.38
4273.00,1.38
4272.00,1.38
4271.00,1.38
4270.00,1.38
4269.00,1.38
4268.00,1.38
4267.00,1.38
4266.00,1.38
4265.00,1.38
4264.00,1.38
4263.00,1.38
4262.00,1.38
4261.00,1.38
4260.00,1.38
4259.00,1.39
4258.00,1.39
4257.00,1.39
4256.00,1.39
4255.00,1.39
4254.00,1.40
4253.00,1.40
4252.00,1.40
4251.00,1.40
4250.00,1.41
4249.00,1.41
4248.00,1.41
4247.00,1.41
4246.00,1.42
4245.00,1.42
4244.00,1.42
4243.00,1.42
4242.00,1.42
4241.00,1.42
4240.00,1.42
4239.00,1.43
4238.00,1.43
4237.00,1.43
4236.00,1.43
4235.00,1.43
4234.00,1.43
4233.00,1.43
4232.00,1.43
4231.00,1.43
4230.00,1.43
4229.00,1.44
4228.00,1.44
4227.00,1.44
4226.00,1.44
4225.00,1.44
4224.00,1.45
4223.00,1.45
4222.00,1.45
4221.00,1.45
4220.00,1.45
4219.00,1.45
4218.00,1.46
4217.00,1.46
4216.00,1.46
4215.00,1.46
4214.00,1.46
4213.00,1.46
4212.00,1.46
4211.00,1.46
4210.00,1.46
4209.00,1.46
4208.00,1.46
4207.00,1.46
4206.00,1.46
4205.00,1.46
4204.00,1.46
4203.00,1.46
4202.00,1.46
4201.00,1.46
4200.00,1.46
4199.00,1.46
4198.00,1.46
4197.00,1.46
4196.00,1.46
4195.00,1.46
4194.00,1.46
4193.00,1.46
4192.00,1.46
4191.00,1.46
4190.00,1.47
4189.00,1.47
4188.00,1.47
4187.00,1.47
4186.00,1.47
4185.00,1.47
4184.00,1.47
4183.00,1.47
4182.00,1.47
4181.00,1.47
4180.00,1.47
4179.00,1.47
4178.00,1.47
4177.00,1.47
4176.00,1.47
4175.00,1.47
4174.00,1.47
4173.00,1.47
4172.00,1.47
4171.00,1.47
4170.00,1.47
4169.00,1.47
4168.00,1.47
4167.00,1.47
4166.00,1.47
4165.00,1.47
4164.00,1.47
4163.00,1.47
4162.00,1.47
4161.00,1.47
4160.00,1.47
4159.00,1.47
4158.00,1.47
4157.00,1.47
4156.00,1.47
4155.00,1.47
4154.00,1.47
4153.00,1.47
4152.00,1.48
4151.00,1.48
4150.00,1.48
4149.00,1.48
4148.00,1.48
4147.00,1.48
4146.00,1.48
4145.00,1.48
4144.00,1.49
4143.00,1.49
4142.00,1.49
4141.00,1.49
4140.00,1.50
4139.00,1.50
4138.00,1.50
4137.00,1.50
4136.00,1.51
4135.00,1.51
4134.00,1.51
4133.00,1.51
4132.00,1.52
4131.00,1.52
4130.00,1.52
4129.00,1.52
4128.00,1.52
4127.00,1.52
4126.00,1.52
4125.00,1.52
4124.00,1.52
4123.00,1.52
4122.00,1.52
4121.00,1.52
4120.00,1.52
4119.00,1.52
4118.00,1.52
4117.00,1.52
4116.00,1.52
4115.00,1.52
4114.00,1.52
4113.00,1.52
4112.00,1.52
4111.00,1.52
4110.00,1.52
4109.00,1.52
4108.00,1.52
4107.00,1.52
4106.00,1.52
4105.00,1.52
4104.00,1.52
4103.00,1.52
4102.00,1.52
4101.00,1.53
4100.00,1.53
4099.00,1.53
4098.00,1.53
4097.00,1.53
4096.00,1.53
4095.00,1.53
4094.00,1.53
4093.00,1.53
4092.00,1.53
4091.00,1.53
4090.00,1.53
4089.00,1.53
4088.00,1.53
4087.00,1.53
4086.00,1.53
4085.00,1.53
4084.00,1.53
4083.00,1.53
4082.00,1.53
4081.00,1.53
4080.00,1.54
4079.00,1.54
4078.00,1.54
4077.00,1.54
4076.00,1.54
4075.00,1.55
4074.00,1.55
4073.00,1.55
4072.00,1.55
4071.00,1.55
4070.00,1.56
4069.00,1.56
4068.00,1.56
4067.00,1.56
4066.00,1.56
4065.00,1.56
4064.00,1.56
4063.00,1.56
4062.00,1.56
4061.00,1.56
4060.00,1.56
4059.00,1.56
4058.00,1.56
4057.00,1.56
4056.00,1.56
4055.00,1.56
4054.00,1.56
4053.00,1.56
4052.00,1.56
4051.00,1.56
4050.00,1.56
4049.00,1.56
4048.00,1.56
4047.00,1.56
4046.00,1.56
4045.00,1.56
4044.00,1.57
4043.00,1.57
4042.00,1.57
4041.00,1.57
4040.00,1.57
4039.00,1.57
4038.00,1.57
4037.00,1.57
4036.00,1.58
4035.00,1.58
4034.00,1.58
4033.00,1.58
4032.00,1.58
4031.00,1.58
4030.00,1.58
4029.00,1.58
4028.00,1.58
4027.00,1.58
4026.00,1.59
4025.00,1.59
4024.00,1.59
4023.00,1.59
4022.00,1.59
4021.00,1.59
4020.00,1.60
4019.00,1.60
4018.00,1.60
4017.00,1.60
4016.00,1.60
4015.00,1.61
4014.00,1.61
4013.00,1.61
4012.00,1.61
4011.00,1.61
4010.00,1.62
4009.00,1.62
4008.00,1.62
4007.00,1.62
4006.00,1.63
4005.00,1.63
4004.00,1.63
4003.00,1.63
4002.00,1.64
4001.00,1.64
4000.00,1.64
