创建为新数据集,样品 381 用户 Administrator 日期 星期四, 三月 08 2018
cm-1,%T
10000.00,1.06
9999.00,1.06
9998.00,1.06
9997.00,1.05
9996.00,1.05
9995.00,1.05
9994.00,1.05
9993.00,1.04
9992.00,1.04
9991.00,1.04
9990.00,1.04
9989.00,1.04
9988.00,1.04
9987.00,1.04
9986.00,1.04
9985.00,1.03
9984.00,1.03
9983.00,1.03
9982.00,1.03
9981.00,1.03
9980.00,1.03
9979.00,1.03
9978.00,1.03
9977.00,1.03
9976.00,1.03
9975.00,1.03
9974.00,1.03
9973.00,1.03
9972.00,1.04
9971.00,1.04
9970.00,1.04
9969.00,1.04
9968.00,1.04
9967.00,1.04
9966.00,1.04
9965.00,1.05
9964.00,1.05
9963.00,1.05
9962.00,1.05
9961.00,1.05
9960.00,1.05
9959.00,1.05
9958.00,1.05
9957.00,1.05
9956.00,1.05
9955.00,1.04
9954.00,1.04
9953.00,1.04
9952.00,1.04
9951.00,1.04
9950.00,1.04
9949.00,1.04
9948.00,1.04
9947.00,1.04
9946.00,1.04
9945.00,1.04
9944.00,1.04
9943.00,1.03
9942.00,1.03
9941.00,1.03
9940.00,1.03
9939.00,1.03
9938.00,1.03
9937.00,1.03
9936.00,1.03
9935.00,1.03
9934.00,1.03
9933.00,1.03
9932.00,1.03
9931.00,1.03
9930.00,1.03
9929.00,1.03
9928.00,1.03
9927.00,1.03
9926.00,1.03
9925.00,1.03
9924.00,1.03
9923.00,1.03
9922.00,1.03
9921.00,1.03
9920.00,1.03
9919.00,1.03
9918.00,1.03
9917.00,1.03
9916.00,1.03
9915.00,1.04
9914.00,1.04
9913.00,1.04
9912.00,1.04
9911.00,1.04
9910.00,1.04
9909.00,1.05
9908.00,1.05
9907.00,1.05
9906.00,1.05
9905.00,1.05
9904.00,1.05
9903.00,1.05
9902.00,1.06
9901.00,1.06
9900.00,1.06
9899.00,1.06
9898.00,1.06
9897.00,1.06
9896.00,1.05
9895.00,1.05
9894.00,1.05
9893.00,1.05
9892.00,1.05
9891.00,1.05
9890.00,1.05
9889.00,1.04
9888.00,1.04
9887.00,1.04
9886.00,1.04
9885.00,1.04
9884.00,1.04
9883.00,1.04
9882.00,1.04
9881.00,1.04
9880.00,1.04
9879.00,1.04
9878.00,1.04
9877.00,1.04
9876.00,1.03
9875.00,1.03
9874.00,1.03
9873.00,1.03
9872.00,1.03
9871.00,1.03
9870.00,1.03
9869.00,1.03
9868.00,1.03
9867.00,1.03
9866.00,1.03
9865.00,1.02
9864.00,1.02
9863.00,1.02
9862.00,1.02
9861.00,1.02
9860.00,1.02
9859.00,1.02
9858.00,1.01
9857.00,1.01
9856.00,1.01
9855.00,1.01
9854.00,1.01
9853.00,1.01
9852.00,1.01
9851.00,1.01
9850.00,1.01
9849.00,1.01
9848.00,1.01
9847.00,1.01
9846.00,1.01
9845.00,1.01
9844.00,1.01
9843.00,1.01
9842.00,1.01
9841.00,1.01
9840.00,1.01
9839.00,1.01
9838.00,1.02
9837.00,1.02
9836.00,1.02
9835.00,1.02
9834.00,1.02
9833.00,1.02
9832.00,1.02
9831.00,1.02
9830.00,1.02
9829.00,1.03
9828.00,1.03
9827.00,1.03
9826.00,1.03
9825.00,1.03
9824.00,1.03
9823.00,1.03
9822.00,1.03
9821.00,1.03
9820.00,1.03
9819.00,1.03
9818.00,1.03
9817.00,1.03
9816.00,1.03
9815.00,1.03
9814.00,1.03
9813.00,1.03
9812.00,1.03
9811.00,1.03
9810.00,1.03
9809.00,1.02
9808.00,1.02
9807.00,1.03
9806.00,1.03
9805.00,1.03
9804.00,1.03
9803.00,1.03
9802.00,1.03
9801.00,1.03
9800.00,1.03
9799.00,1.03
9798.00,1.03
9797.00,1.03
9796.00,1.03
9795.00,1.03
9794.00,1.02
9793.00,1.02
9792.00,1.02
9791.00,1.02
9790.00,1.01
9789.00,1.01
9788.00,1.01
9787.00,1.01
9786.00,1.01
9785.00,1.00
9784.00,1.00
9783.00,1.00
9782.00,1.00
9781.00,1.00
9780.00,1.00
9779.00,1.00
9778.00,1.01
9777.00,1.01
9776.00,1.01
9775.00,1.01
9774.00,1.01
9773.00,1.02
9772.00,1.02
9771.00,1.02
9770.00,1.02
9769.00,1.02
9768.00,1.03
9767.00,1.03
9766.00,1.03
9765.00,1.03
9764.00,1.03
9763.00,1.03
9762.00,1.03
9761.00,1.03
9760.00,1.03
9759.00,1.03
9758.00,1.03
9757.00,1.03
9756.00,1.03
9755.00,1.03
9754.00,1.03
9753.00,1.03
9752.00,1.03
9751.00,1.03
9750.00,1.03
9749.00,1.03
9748.00,1.03
9747.00,1.03
9746.00,1.03
9745.00,1.03
9744.00,1.03
9743.00,1.03
9742.00,1.03
9741.00,1.03
9740.00,1.03
9739.00,1.03
9738.00,1.03
9737.00,1.03
9736.00,1.03
9735.00,1.03
9734.00,1.03
9733.00,1.03
9732.00,1.03
9731.00,1.03
9730.00,1.02
9729.00,1.02
9728.00,1.02
9727.00,1.02
9726.00,1.02
9725.00,1.02
9724.00,1.02
9723.00,1.02
9722.00,1.02
9721.00,1.03
9720.00,1.03
9719.00,1.03
9718.00,1.03
9717.00,1.03
9716.00,1.03
9715.00,1.04
9714.00,1.04
9713.00,1.04
9712.00,1.04
9711.00,1.04
9710.00,1.04
9709.00,1.04
9708.00,1.04
9707.00,1.04
9706.00,1.04
9705.00,1.04
9704.00,1.04
9703.00,1.04
9702.00,1.04
9701.00,1.04
9700.00,1.04
9699.00,1.04
9698.00,1.04
9697.00,1.04
9696.00,1.04
9695.00,1.04
9694.00,1.04
9693.00,1.04
9692.00,1.04
9691.00,1.04
9690.00,1.04
9689.00,1.04
9688.00,1.04
9687.00,1.04
9686.00,1.03
9685.00,1.03
9684.00,1.03
9683.00,1.03
9682.00,1.03
9681.00,1.03
9680.00,1.02
9679.00,1.02
9678.00,1.02
9677.00,1.02
9676.00,1.02
9675.00,1.02
9674.00,1.01
9673.00,1.01
9672.00,1.01
9671.00,1.01
9670.00,1.01
9669.00,1.01
9668.00,1.01
9667.00,1.01
9666.00,1.01
9665.00,1.01
9664.00,1.01
9663.00,1.02
9662.00,1.02
9661.00,1.02
9660.00,1.02
9659.00,1.02
9658.00,1.02
9657.00,1.03
9656.00,1.03
9655.00,1.03
9654.00,1.03
9653.00,1.03
9652.00,1.03
9651.00,1.04
9650.00,1.04
9649.00,1.04
9648.00,1.04
9647.00,1.04
9646.00,1.04
9645.00,1.04
9644.00,1.04
9643.00,1.04
9642.00,1.04
9641.00,1.03
9640.00,1.03
9639.00,1.03
9638.00,1.03
9637.00,1.03
9636.00,1.03
9635.00,1.03
9634.00,1.03
9633.00,1.03
9632.00,1.03
9631.00,1.03
9630.00,1.03
9629.00,1.04
9628.00,1.04
9627.00,1.04
9626.00,1.04
9625.00,1.04
9624.00,1.04
9623.00,1.04
9622.00,1.04
9621.00,1.05
9620.00,1.05
9619.00,1.05
9618.00,1.04
9617.00,1.04
9616.00,1.04
9615.00,1.04
9614.00,1.04
9613.00,1.04
9612.00,1.04
9611.00,1.04
9610.00,1.04
9609.00,1.04
9608.00,1.04
9607.00,1.04
9606.00,1.03
9605.00,1.03
9604.00,1.03
9603.00,1.03
9602.00,1.03
9601.00,1.03
9600.00,1.03
9599.00,1.03
9598.00,1.03
9597.00,1.03
9596.00,1.02
9595.00,1.02
9594.00,1.02
9593.00,1.02
9592.00,1.02
9591.00,1.02
9590.00,1.02
9589.00,1.02
9588.00,1.02
9587.00,1.03
9586.00,1.03
9585.00,1.03
9584.00,1.03
9583.00,1.03
9582.00,1.03
9581.00,1.03
9580.00,1.03
9579.00,1.03
9578.00,1.04
9577.00,1.04
9576.00,1.04
9575.00,1.04
9574.00,1.04
9573.00,1.04
9572.00,1.04
9571.00,1.04
9570.00,1.04
9569.00,1.04
9568.00,1.04
9567.00,1.04
9566.00,1.04
9565.00,1.04
9564.00,1.04
9563.00,1.04
9562.00,1.04
9561.00,1.04
9560.00,1.04
9559.00,1.04
9558.00,1.04
9557.00,1.04
9556.00,1.04
9555.00,1.04
9554.00,1.04
9553.00,1.04
9552.00,1.04
9551.00,1.05
9550.00,1.05
9549.00,1.05
9548.00,1.05
9547.00,1.05
9546.00,1.05
9545.00,1.05
9544.00,1.05
9543.00,1.06
9542.00,1.06
9541.00,1.06
9540.00,1.06
9539.00,1.06
9538.00,1.06
9537.00,1.06
9536.00,1.05
9535.00,1.05
9534.00,1.05
9533.00,1.05
9532.00,1.05
9531.00,1.05
9530.00,1.05
9529.00,1.05
9528.00,1.05
9527.00,1.05
9526.00,1.05
9525.00,1.05
9524.00,1.04
9523.00,1.04
9522.00,1.04
9521.00,1.04
9520.00,1.04
9519.00,1.04
9518.00,1.04
9517.00,1.04
9516.00,1.04
9515.00,1.05
9514.00,1.05
9513.00,1.05
9512.00,1.05
9511.00,1.05
9510.00,1.05
9509.00,1.05
9508.00,1.05
9507.00,1.05
9506.00,1.05
9505.00,1.05
9504.00,1.05
9503.00,1.04
9502.00,1.04
9501.00,1.04
9500.00,1.04
9499.00,1.04
9498.00,1.04
9497.00,1.04
9496.00,1.04
9495.00,1.04
9494.00,1.04
9493.00,1.03
9492.00,1.03
9491.00,1.03
9490.00,1.03
9489.00,1.03
9488.00,1.03
9487.00,1.03
9486.00,1.03
9485.00,1.03
9484.00,1.02
9483.00,1.02
9482.00,1.02
9481.00,1.02
9480.00,1.02
9479.00,1.02
9478.00,1.02
9477.00,1.02
9476.00,1.02
9475.00,1.02
9474.00,1.03
9473.00,1.03
9472.00,1.03
9471.00,1.03
9470.00,1.03
9469.00,1.03
9468.00,1.03
9467.00,1.03
9466.00,1.03
9465.00,1.03
9464.00,1.03
9463.00,1.03
9462.00,1.03
9461.00,1.03
9460.00,1.03
9459.00,1.03
9458.00,1.03
9457.00,1.03
9456.00,1.03
9455.00,1.03
9454.00,1.03
9453.00,1.03
9452.00,1.03
9451.00,1.03
9450.00,1.03
9449.00,1.03
9448.00,1.03
9447.00,1.04
9446.00,1.04
9445.00,1.04
9444.00,1.04
9443.00,1.04
9442.00,1.04
9441.00,1.05
9440.00,1.05
9439.00,1.05
9438.00,1.05
9437.00,1.05
9436.00,1.05
9435.00,1.05
9434.00,1.05
9433.00,1.05
9432.00,1.05
9431.00,1.04
9430.00,1.04
9429.00,1.04
9428.00,1.04
9427.00,1.04
9426.00,1.04
9425.00,1.04
9424.00,1.04
9423.00,1.04
9422.00,1.04
9421.00,1.04
9420.00,1.04
9419.00,1.04
9418.00,1.04
9417.00,1.04
9416.00,1.04
9415.00,1.04
9414.00,1.04
9413.00,1.04
9412.00,1.04
9411.00,1.04
9410.00,1.04
9409.00,1.04
9408.00,1.04
9407.00,1.04
9406.00,1.04
9405.00,1.04
9404.00,1.04
9403.00,1.04
9402.00,1.04
9401.00,1.04
9400.00,1.04
9399.00,1.04
9398.00,1.03
9397.00,1.03
9396.00,1.04
9395.00,1.04
9394.00,1.04
9393.00,1.04
9392.00,1.04
9391.00,1.04
9390.00,1.04
9389.00,1.04
9388.00,1.05
9387.00,1.05
9386.00,1.05
9385.00,1.05
9384.00,1.05
9383.00,1.05
9382.00,1.05
9381.00,1.05
9380.00,1.05
9379.00,1.05
9378.00,1.04
9377.00,1.04
9376.00,1.04
9375.00,1.04
9374.00,1.04
9373.00,1.04
9372.00,1.03
9371.00,1.03
9370.00,1.03
9369.00,1.03
9368.00,1.03
9367.00,1.03
9366.00,1.03
9365.00,1.02
9364.00,1.02
9363.00,1.02
9362.00,1.02
9361.00,1.02
9360.00,1.02
9359.00,1.02
9358.00,1.02
9357.00,1.02
9356.00,1.02
9355.00,1.02
9354.00,1.02
9353.00,1.02
9352.00,1.02
9351.00,1.02
9350.00,1.02
9349.00,1.02
9348.00,1.02
9347.00,1.02
9346.00,1.02
9345.00,1.03
9344.00,1.03
9343.00,1.03
9342.00,1.03
9341.00,1.03
9340.00,1.03
9339.00,1.03
9338.00,1.03
9337.00,1.03
9336.00,1.03
9335.00,1.03
9334.00,1.03
9333.00,1.03
9332.00,1.03
9331.00,1.03
9330.00,1.03
9329.00,1.03
9328.00,1.03
9327.00,1.03
9326.00,1.04
9325.00,1.04
9324.00,1.04
9323.00,1.04
9322.00,1.04
9321.00,1.04
9320.00,1.04
9319.00,1.04
9318.00,1.04
9317.00,1.04
9316.00,1.04
9315.00,1.04
9314.00,1.04
9313.00,1.04
9312.00,1.04
9311.00,1.04
9310.00,1.04
9309.00,1.04
9308.00,1.04
9307.00,1.04
9306.00,1.04
9305.00,1.04
9304.00,1.04
9303.00,1.04
9302.00,1.04
9301.00,1.04
9300.00,1.04
9299.00,1.04
9298.00,1.04
9297.00,1.04
9296.00,1.04
9295.00,1.05
9294.00,1.05
9293.00,1.05
9292.00,1.05
9291.00,1.05
9290.00,1.05
9289.00,1.05
9288.00,1.05
9287.00,1.05
9286.00,1.05
9285.00,1.05
9284.00,1.05
9283.00,1.05
9282.00,1.05
9281.00,1.05
9280.00,1.06
9279.00,1.06
9278.00,1.06
9277.00,1.06
9276.00,1.06
9275.00,1.06
9274.00,1.05
9273.00,1.05
9272.00,1.05
9271.00,1.05
9270.00,1.05
9269.00,1.05
9268.00,1.05
9267.00,1.05
9266.00,1.05
9265.00,1.05
9264.00,1.05
9263.00,1.05
9262.00,1.05
9261.00,1.05
9260.00,1.05
9259.00,1.05
9258.00,1.05
9257.00,1.05
9256.00,1.05
9255.00,1.05
9254.00,1.05
9253.00,1.05
9252.00,1.05
9251.00,1.05
9250.00,1.04
9249.00,1.04
9248.00,1.04
9247.00,1.04
9246.00,1.04
9245.00,1.04
9244.00,1.04
9243.00,1.04
9242.00,1.04
9241.00,1.04
9240.00,1.04
9239.00,1.04
9238.00,1.04
9237.00,1.03
9236.00,1.03
9235.00,1.03
9234.00,1.03
9233.00,1.03
9232.00,1.03
9231.00,1.03
9230.00,1.03
9229.00,1.03
9228.00,1.03
9227.00,1.03
9226.00,1.03
9225.00,1.03
9224.00,1.03
9223.00,1.03
9222.00,1.03
9221.00,1.03
9220.00,1.03
9219.00,1.03
9218.00,1.03
9217.00,1.04
9216.00,1.04
9215.00,1.04
9214.00,1.04
9213.00,1.04
9212.00,1.04
9211.00,1.04
9210.00,1.04
9209.00,1.04
9208.00,1.04
9207.00,1.04
9206.00,1.05
9205.00,1.05
9204.00,1.05
9203.00,1.05
9202.00,1.05
9201.00,1.05
9200.00,1.05
9199.00,1.05
9198.00,1.05
9197.00,1.05
9196.00,1.05
9195.00,1.05
9194.00,1.05
9193.00,1.05
9192.00,1.05
9191.00,1.05
9190.00,1.04
9189.00,1.04
9188.00,1.04
9187.00,1.04
9186.00,1.04
9185.00,1.04
9184.00,1.04
9183.00,1.03
9182.00,1.03
9181.00,1.03
9180.00,1.03
9179.00,1.03
9178.00,1.03
9177.00,1.03
9176.00,1.03
9175.00,1.04
9174.00,1.04
9173.00,1.04
9172.00,1.04
9171.00,1.04
9170.00,1.04
9169.00,1.04
9168.00,1.04
9167.00,1.04
9166.00,1.04
9165.00,1.04
9164.00,1.04
9163.00,1.04
9162.00,1.04
9161.00,1.04
9160.00,1.04
9159.00,1.04
9158.00,1.04
9157.00,1.04
9156.00,1.04
9155.00,1.04
9154.00,1.04
9153.00,1.04
9152.00,1.04
9151.00,1.04
9150.00,1.04
9149.00,1.04
9148.00,1.04
9147.00,1.04
9146.00,1.04
9145.00,1.04
9144.00,1.04
9143.00,1.04
9142.00,1.04
9141.00,1.05
9140.00,1.05
9139.00,1.05
9138.00,1.05
9137.00,1.05
9136.00,1.05
9135.00,1.05
9134.00,1.05
9133.00,1.05
9132.00,1.05
9131.00,1.05
9130.00,1.05
9129.00,1.06
9128.00,1.06
9127.00,1.06
9126.00,1.06
9125.00,1.06
9124.00,1.06
9123.00,1.06
9122.00,1.05
9121.00,1.05
9120.00,1.05
9119.00,1.05
9118.00,1.05
9117.00,1.05
9116.00,1.05
9115.00,1.04
9114.00,1.04
9113.00,1.04
9112.00,1.04
9111.00,1.04
9110.00,1.04
9109.00,1.03
9108.00,1.03
9107.00,1.03
9106.00,1.03
9105.00,1.03
9104.00,1.03
9103.00,1.03
9102.00,1.03
9101.00,1.03
9100.00,1.03
9099.00,1.03
9098.00,1.03
9097.00,1.04
9096.00,1.04
9095.00,1.04
9094.00,1.04
9093.00,1.04
9092.00,1.04
9091.00,1.04
9090.00,1.04
9089.00,1.04
9088.00,1.04
9087.00,1.03
9086.00,1.03
9085.00,1.03
9084.00,1.03
9083.00,1.03
9082.00,1.03
9081.00,1.02
9080.00,1.02
9079.00,1.02
9078.00,1.02
9077.00,1.02
9076.00,1.02
9075.00,1.02
9074.00,1.02
9073.00,1.02
9072.00,1.03
9071.00,1.03
9070.00,1.03
9069.00,1.03
9068.00,1.03
9067.00,1.04
9066.00,1.04
9065.00,1.04
9064.00,1.04
9063.00,1.04
9062.00,1.05
9061.00,1.05
9060.00,1.05
9059.00,1.05
9058.00,1.05
9057.00,1.05
9056.00,1.05
9055.00,1.04
9054.00,1.04
9053.00,1.04
9052.00,1.04
9051.00,1.04
9050.00,1.04
9049.00,1.03
9048.00,1.03
9047.00,1.03
9046.00,1.03
9045.00,1.03
9044.00,1.03
9043.00,1.03
9042.00,1.03
9041.00,1.03
9040.00,1.03
9039.00,1.03
9038.00,1.03
9037.00,1.03
9036.00,1.03
9035.00,1.03
9034.00,1.03
9033.00,1.03
9032.00,1.03
9031.00,1.03
9030.00,1.04
9029.00,1.04
9028.00,1.04
9027.00,1.04
9026.00,1.04
9025.00,1.04
9024.00,1.04
9023.00,1.04
9022.00,1.04
9021.00,1.04
9020.00,1.04
9019.00,1.04
9018.00,1.04
9017.00,1.04
9016.00,1.04
9015.00,1.04
9014.00,1.04
9013.00,1.04
9012.00,1.04
9011.00,1.04
9010.00,1.04
9009.00,1.04
9008.00,1.04
9007.00,1.04
9006.00,1.04
9005.00,1.04
9004.00,1.04
9003.00,1.04
9002.00,1.04
9001.00,1.04
9000.00,1.04
8999.00,1.04
8998.00,1.04
8997.00,1.04
8996.00,1.04
8995.00,1.04
8994.00,1.04
8993.00,1.04
8992.00,1.04
8991.00,1.04
8990.00,1.04
8989.00,1.04
8988.00,1.04
8987.00,1.04
8986.00,1.04
8985.00,1.04
8984.00,1.04
8983.00,1.04
8982.00,1.04
8981.00,1.04
8980.00,1.04
8979.00,1.04
8978.00,1.05
8977.00,1.05
8976.00,1.05
8975.00,1.05
8974.00,1.05
8973.00,1.05
8972.00,1.05
8971.00,1.05
8970.00,1.05
8969.00,1.05
8968.00,1.05
8967.00,1.05
8966.00,1.05
8965.00,1.05
8964.00,1.05
8963.00,1.05
8962.00,1.05
8961.00,1.04
8960.00,1.04
8959.00,1.04
8958.00,1.04
8957.00,1.04
8956.00,1.04
8955.00,1.04
8954.00,1.04
8953.00,1.03
8952.00,1.03
8951.00,1.03
8950.00,1.03
8949.00,1.03
8948.00,1.03
8947.00,1.03
8946.00,1.03
8945.00,1.03
8944.00,1.03
8943.00,1.03
8942.00,1.03
8941.00,1.03
8940.00,1.03
8939.00,1.03
8938.00,1.03
8937.00,1.03
8936.00,1.03
8935.00,1.04
8934.00,1.04
8933.00,1.04
8932.00,1.04
8931.00,1.04
8930.00,1.05
8929.00,1.05
8928.00,1.05
8927.00,1.05
8926.00,1.05
8925.00,1.05
8924.00,1.05
8923.00,1.06
8922.00,1.06
8921.00,1.06
8920.00,1.06
8919.00,1.06
8918.00,1.06
8917.00,1.06
8916.00,1.06
8915.00,1.06
8914.00,1.05
8913.00,1.05
8912.00,1.05
8911.00,1.05
8910.00,1.05
8909.00,1.05
8908.00,1.05
8907.00,1.05
8906.00,1.04
8905.00,1.04
8904.00,1.04
8903.00,1.04
8902.00,1.04
8901.00,1.04
8900.00,1.03
8899.00,1.03
8898.00,1.03
8897.00,1.03
8896.00,1.03
8895.00,1.03
8894.00,1.03
8893.00,1.03
8892.00,1.03
8891.00,1.03
8890.00,1.03
8889.00,1.03
8888.00,1.03
8887.00,1.03
8886.00,1.03
8885.00,1.03
8884.00,1.03
8883.00,1.03
8882.00,1.03
8881.00,1.03
8880.00,1.03
8879.00,1.03
8878.00,1.03
8877.00,1.04
8876.00,1.04
8875.00,1.04
8874.00,1.04
8873.00,1.04
8872.00,1.04
8871.00,1.04
8870.00,1.04
8869.00,1.04
8868.00,1.04
8867.00,1.04
8866.00,1.04
8865.00,1.05
8864.00,1.05
8863.00,1.05
8862.00,1.05
8861.00,1.05
8860.00,1.05
8859.00,1.05
8858.00,1.05
8857.00,1.05
8856.00,1.05
8855.00,1.05
8854.00,1.05
8853.00,1.05
8852.00,1.05
8851.00,1.05
8850.00,1.05
8849.00,1.05
8848.00,1.04
8847.00,1.04
8846.00,1.04
8845.00,1.04
8844.00,1.04
8843.00,1.04
8842.00,1.03
8841.00,1.03
8840.00,1.03
8839.00,1.03
8838.00,1.03
8837.00,1.03
8836.00,1.02
8835.00,1.02
8834.00,1.02
8833.00,1.02
8832.00,1.02
8831.00,1.02
8830.00,1.02
8829.00,1.02
8828.00,1.02
8827.00,1.02
8826.00,1.02
8825.00,1.02
8824.00,1.03
8823.00,1.03
8822.00,1.03
8821.00,1.03
8820.00,1.03
8819.00,1.03
8818.00,1.03
8817.00,1.03
8816.00,1.03
8815.00,1.03
8814.00,1.03
8813.00,1.03
8812.00,1.03
8811.00,1.03
8810.00,1.03
8809.00,1.03
8808.00,1.03
8807.00,1.03
8806.00,1.03
8805.00,1.03
8804.00,1.03
8803.00,1.03
8802.00,1.03
8801.00,1.03
8800.00,1.03
8799.00,1.03
8798.00,1.03
8797.00,1.03
8796.00,1.03
8795.00,1.03
8794.00,1.03
8793.00,1.02
8792.00,1.02
8791.00,1.02
8790.00,1.02
8789.00,1.02
8788.00,1.02
8787.00,1.02
8786.00,1.01
8785.00,1.01
8784.00,1.01
8783.00,1.01
8782.00,1.01
8781.00,1.01
8780.00,1.01
8779.00,1.00
8778.00,1.00
8777.00,1.00
8776.00,1.00
8775.00,1.00
8774.00,1.00
8773.00,1.00
8772.00,1.00
8771.00,1.00
8770.00,1.00
8769.00,1.00
8768.00,1.00
8767.00,1.00
8766.00,1.01
8765.00,1.01
8764.00,1.01
8763.00,1.01
8762.00,1.01
8761.00,1.01
8760.00,1.01
8759.00,1.01
8758.00,1.00
8757.00,1.00
8756.00,1.00
8755.00,1.00
8754.00,1.00
8753.00,1.00
8752.00,1.00
8751.00,1.00
8750.00,1.00
8749.00,1.00
8748.00,1.00
8747.00,1.00
8746.00,1.00
8745.00,1.00
8744.00,1.00
8743.00,1.00
8742.00,1.00
8741.00,1.00
8740.00,1.00
8739.00,1.00
8738.00,1.00
8737.00,1.00
8736.00,1.00
8735.00,1.00
8734.00,1.00
8733.00,1.00
8732.00,1.00
8731.00,1.00
8730.00,1.00
8729.00,1.00
8728.00,1.00
8727.00,1.00
8726.00,1.00
8725.00,1.00
8724.00,1.00
8723.00,1.00
8722.00,1.00
8721.00,1.00
8720.00,1.00
8719.00,1.00
8718.00,1.00
8717.00,1.00
8716.00,1.00
8715.00,1.00
8714.00,0.99
8713.00,0.99
8712.00,0.99
8711.00,0.99
8710.00,0.99
8709.00,0.99
8708.00,0.99
8707.00,0.99
8706.00,0.99
8705.00,0.99
8704.00,0.99
8703.00,0.99
8702.00,0.99
8701.00,0.99
8700.00,0.99
8699.00,0.99
8698.00,0.99
8697.00,0.99
8696.00,1.00
8695.00,1.00
8694.00,1.00
8693.00,1.00
8692.00,1.00
8691.00,1.00
8690.00,1.00
8689.00,1.00
8688.00,1.00
8687.00,1.00
8686.00,1.00
8685.00,1.00
8684.00,1.00
8683.00,1.00
8682.00,1.00
8681.00,0.99
8680.00,0.99
8679.00,0.99
8678.00,0.99
8677.00,0.99
8676.00,0.99
8675.00,0.99
8674.00,0.99
8673.00,0.98
8672.00,0.98
8671.00,0.98
8670.00,0.98
8669.00,0.98
8668.00,0.98
8667.00,0.98
8666.00,0.98
8665.00,0.98
8664.00,0.98
8663.00,0.98
8662.00,0.98
8661.00,0.98
8660.00,0.98
8659.00,0.98
8658.00,0.98
8657.00,0.98
8656.00,0.98
8655.00,0.98
8654.00,0.98
8653.00,0.98
8652.00,0.98
8651.00,0.98
8650.00,0.98
8649.00,0.98
8648.00,0.98
8647.00,0.98
8646.00,0.98
8645.00,0.98
8644.00,0.97
8643.00,0.97
8642.00,0.97
8641.00,0.97
8640.00,0.97
8639.00,0.97
8638.00,0.97
8637.00,0.97
8636.00,0.97
8635.00,0.97
8634.00,0.97
8633.00,0.97
8632.00,0.97
8631.00,0.97
8630.00,0.97
8629.00,0.97
8628.00,0.97
8627.00,0.97
8626.00,0.97
8625.00,0.97
8624.00,0.97
8623.00,0.98
8622.00,0.98
8621.00,0.98
8620.00,0.98
8619.00,0.98
8618.00,0.99
8617.00,0.99
8616.00,0.99
8615.00,0.99
8614.00,0.99
8613.00,0.99
8612.00,0.99
8611.00,0.99
8610.00,0.99
8609.00,0.99
8608.00,0.99
8607.00,0.99
8606.00,0.99
8605.00,0.99
8604.00,0.99
8603.00,0.98
8602.00,0.98
8601.00,0.98
8600.00,0.98
8599.00,0.98
8598.00,0.98
8597.00,0.98
8596.00,0.98
8595.00,0.97
8594.00,0.97
8593.00,0.97
8592.00,0.97
8591.00,0.97
8590.00,0.97
8589.00,0.97
8588.00,0.97
8587.00,0.97
8586.00,0.97
8585.00,0.97
8584.00,0.97
8583.00,0.97
8582.00,0.97
8581.00,0.97
8580.00,0.96
8579.00,0.96
8578.00,0.96
8577.00,0.96
8576.00,0.96
8575.00,0.96
8574.00,0.96
8573.00,0.96
8572.00,0.96
8571.00,0.96
8570.00,0.96
8569.00,0.97
8568.00,0.97
8567.00,0.97
8566.00,0.97
8565.00,0.97
8564.00,0.97
8563.00,0.97
8562.00,0.97
8561.00,0.97
8560.00,0.97
8559.00,0.97
8558.00,0.97
8557.00,0.97
8556.00,0.97
8555.00,0.97
8554.00,0.97
8553.00,0.97
8552.00,0.97
8551.00,0.96
8550.00,0.96
8549.00,0.96
8548.00,0.96
8547.00,0.96
8546.00,0.96
8545.00,0.95
8544.00,0.95
8543.00,0.95
8542.00,0.95
8541.00,0.95
8540.00,0.95
8539.00,0.95
8538.00,0.95
8537.00,0.95
8536.00,0.95
8535.00,0.95
8534.00,0.95
8533.00,0.95
8532.00,0.95
8531.00,0.95
8530.00,0.95
8529.00,0.95
8528.00,0.95
8527.00,0.95
8526.00,0.95
8525.00,0.95
8524.00,0.95
8523.00,0.95
8522.00,0.95
8521.00,0.95
8520.00,0.95
8519.00,0.95
8518.00,0.95
8517.00,0.95
8516.00,0.95
8515.00,0.95
8514.00,0.95
8513.00,0.95
8512.00,0.95
8511.00,0.94
8510.00,0.94
8509.00,0.94
8508.00,0.94
8507.00,0.94
8506.00,0.94
8505.00,0.94
8504.00,0.93
8503.00,0.93
8502.00,0.93
8501.00,0.93
8500.00,0.93
8499.00,0.93
8498.00,0.93
8497.00,0.93
8496.00,0.93
8495.00,0.93
8494.00,0.93
8493.00,0.93
8492.00,0.93
8491.00,0.93
8490.00,0.93
8489.00,0.93
8488.00,0.93
8487.00,0.93
8486.00,0.93
8485.00,0.93
8484.00,0.93
8483.00,0.93
8482.00,0.93
8481.00,0.93
8480.00,0.93
8479.00,0.93
8478.00,0.93
8477.00,0.94
8476.00,0.94
8475.00,0.94
8474.00,0.94
8473.00,0.94
8472.00,0.94
8471.00,0.94
8470.00,0.93
8469.00,0.93
8468.00,0.93
8467.00,0.93
8466.00,0.93
8465.00,0.93
8464.00,0.93
8463.00,0.93
8462.00,0.93
8461.00,0.93
8460.00,0.93
8459.00,0.93
8458.00,0.93
8457.00,0.92
8456.00,0.92
8455.00,0.92
8454.00,0.92
8453.00,0.92
8452.00,0.92
8451.00,0.92
8450.00,0.92
8449.00,0.91
8448.00,0.91
8447.00,0.91
8446.00,0.91
8445.00,0.91
8444.00,0.91
8443.00,0.91
8442.00,0.91
8441.00,0.91
8440.00,0.91
8439.00,0.91
8438.00,0.91
8437.00,0.91
8436.00,0.91
8435.00,0.91
8434.00,0.91
8433.00,0.91
8432.00,0.92
8431.00,0.92
8430.00,0.92
8429.00,0.92
8428.00,0.92
8427.00,0.92
8426.00,0.92
8425.00,0.92
8424.00,0.92
8423.00,0.92
8422.00,0.92
8421.00,0.92
8420.00,0.92
8419.00,0.92
8418.00,0.92
8417.00,0.92
8416.00,0.92
8415.00,0.92
8414.00,0.92
8413.00,0.92
8412.00,0.92
8411.00,0.92
8410.00,0.92
8409.00,0.92
8408.00,0.92
8407.00,0.92
8406.00,0.93
8405.00,0.93
8404.00,0.93
8403.00,0.93
8402.00,0.93
8401.00,0.93
8400.00,0.93
8399.00,0.93
8398.00,0.93
8397.00,0.93
8396.00,0.93
8395.00,0.94
8394.00,0.94
8393.00,0.94
8392.00,0.94
8391.00,0.94
8390.00,0.94
8389.00,0.94
8388.00,0.94
8387.00,0.94
8386.00,0.94
8385.00,0.94
8384.00,0.94
8383.00,0.94
8382.00,0.94
8381.00,0.94
8380.00,0.94
8379.00,0.94
8378.00,0.94
8377.00,0.94
8376.00,0.94
8375.00,0.94
8374.00,0.94
8373.00,0.94
8372.00,0.95
8371.00,0.95
8370.00,0.95
8369.00,0.95
8368.00,0.95
8367.00,0.95
8366.00,0.95
8365.00,0.95
8364.00,0.95
8363.00,0.95
8362.00,0.95
8361.00,0.95
8360.00,0.95
8359.00,0.95
8358.00,0.95
8357.00,0.95
8356.00,0.95
8355.00,0.95
8354.00,0.95
8353.00,0.95
8352.00,0.95
8351.00,0.95
8350.00,0.95
8349.00,0.95
8348.00,0.95
8347.00,0.95
8346.00,0.95
8345.00,0.95
8344.00,0.95
8343.00,0.95
8342.00,0.95
8341.00,0.95
8340.00,0.95
8339.00,0.95
8338.00,0.94
8337.00,0.94
8336.00,0.94
8335.00,0.94
8334.00,0.94
8333.00,0.94
8332.00,0.94
8331.00,0.94
8330.00,0.94
8329.00,0.94
8328.00,0.94
8327.00,0.94
8326.00,0.94
8325.00,0.94
8324.00,0.94
8323.00,0.94
8322.00,0.95
8321.00,0.95
8320.00,0.95
8319.00,0.95
8318.00,0.95
8317.00,0.95
8316.00,0.95
8315.00,0.95
8314.00,0.95
8313.00,0.95
8312.00,0.95
8311.00,0.95
8310.00,0.95
8309.00,0.95
8308.00,0.95
8307.00,0.95
8306.00,0.95
8305.00,0.95
8304.00,0.95
8303.00,0.94
8302.00,0.94
8301.00,0.94
8300.00,0.94
8299.00,0.94
8298.00,0.94
8297.00,0.94
8296.00,0.94
8295.00,0.94
8294.00,0.94
8293.00,0.94
8292.00,0.95
8291.00,0.95
8290.00,0.95
8289.00,0.95
8288.00,0.95
8287.00,0.95
8286.00,0.95
8285.00,0.95
8284.00,0.96
8283.00,0.96
8282.00,0.96
8281.00,0.96
8280.00,0.96
8279.00,0.96
8278.00,0.96
8277.00,0.95
8276.00,0.95
8275.00,0.95
8274.00,0.95
8273.00,0.95
8272.00,0.95
8271.00,0.95
8270.00,0.95
8269.00,0.95
8268.00,0.95
8267.00,0.95
8266.00,0.95
8265.00,0.95
8264.00,0.95
8263.00,0.95
8262.00,0.95
8261.00,0.95
8260.00,0.95
8259.00,0.95
8258.00,0.95
8257.00,0.96
8256.00,0.96
8255.00,0.96
8254.00,0.96
8253.00,0.96
8252.00,0.96
8251.00,0.96
8250.00,0.96
8249.00,0.96
8248.00,0.96
8247.00,0.96
8246.00,0.96
8245.00,0.96
8244.00,0.96
8243.00,0.96
8242.00,0.96
8241.00,0.96
8240.00,0.96
8239.00,0.96
8238.00,0.96
8237.00,0.96
8236.00,0.96
8235.00,0.96
8234.00,0.96
8233.00,0.96
8232.00,0.96
8231.00,0.96
8230.00,0.96
8229.00,0.96
8228.00,0.96
8227.00,0.97
8226.00,0.97
8225.00,0.97
8224.00,0.97
8223.00,0.97
8222.00,0.97
8221.00,0.97
8220.00,0.97
8219.00,0.97
8218.00,0.97
8217.00,0.97
8216.00,0.97
8215.00,0.97
8214.00,0.97
8213.00,0.97
8212.00,0.97
8211.00,0.97
8210.00,0.97
8209.00,0.97
8208.00,0.97
8207.00,0.97
8206.00,0.97
8205.00,0.97
8204.00,0.97
8203.00,0.97
8202.00,0.97
8201.00,0.97
8200.00,0.97
8199.00,0.98
8198.00,0.98
8197.00,0.98
8196.00,0.97
8195.00,0.97
8194.00,0.97
8193.00,0.97
8192.00,0.97
8191.00,0.97
8190.00,0.97
8189.00,0.97
8188.00,0.97
8187.00,0.97
8186.00,0.97
8185.00,0.97
8184.00,0.97
8183.00,0.97
8182.00,0.97
8181.00,0.97
8180.00,0.97
8179.00,0.97
8178.00,0.97
8177.00,0.98
8176.00,0.98
8175.00,0.98
8174.00,0.98
8173.00,0.98
8172.00,0.98
8171.00,0.98
8170.00,0.98
8169.00,0.99
8168.00,0.99
8167.00,0.99
8166.00,0.99
8165.00,0.99
8164.00,0.99
8163.00,0.99
8162.00,0.99
8161.00,0.99
8160.00,0.99
8159.00,0.99
8158.00,0.99
8157.00,0.99
8156.00,0.99
8155.00,0.99
8154.00,0.99
8153.00,0.99
8152.00,0.99
8151.00,0.99
8150.00,0.99
8149.00,0.99
8148.00,0.99
8147.00,0.99
8146.00,0.99
8145.00,0.99
8144.00,0.99
8143.00,0.99
8142.00,0.99
8141.00,0.99
8140.00,0.98
8139.00,0.98
8138.00,0.98
8137.00,0.98
8136.00,0.98
8135.00,0.98
8134.00,0.98
8133.00,0.98
8132.00,0.98
8131.00,0.98
8130.00,0.98
8129.00,0.98
8128.00,0.98
8127.00,0.99
8126.00,0.99
8125.00,0.99
8124.00,0.99
8123.00,0.99
8122.00,0.99
8121.00,0.99
8120.00,0.99
8119.00,0.99
8118.00,0.99
8117.00,0.99
8116.00,1.00
8115.00,1.00
8114.00,1.00
8113.00,1.00
8112.00,1.00
8111.00,1.00
8110.00,1.00
8109.00,1.00
8108.00,1.00
8107.00,1.00
8106.00,1.00
8105.00,1.00
8104.00,1.00
8103.00,1.00
8102.00,1.00
8101.00,1.00
8100.00,1.00
8099.00,1.00
8098.00,1.00
8097.00,1.00
8096.00,1.00
8095.00,1.00
8094.00,1.00
8093.00,1.00
8092.00,1.00
8091.00,1.00
8090.00,1.00
8089.00,1.00
8088.00,1.00
8087.00,1.00
8086.00,1.00
8085.00,1.00
8084.00,1.00
8083.00,1.00
8082.00,1.00
8081.00,1.01
8080.00,1.01
8079.00,1.01
8078.00,1.01
8077.00,1.01
8076.00,1.01
8075.00,1.01
8074.00,1.01
8073.00,1.01
8072.00,1.02
8071.00,1.02
8070.00,1.02
8069.00,1.02
8068.00,1.02
8067.00,1.02
8066.00,1.02
8065.00,1.02
8064.00,1.02
8063.00,1.02
8062.00,1.02
8061.00,1.02
8060.00,1.01
8059.00,1.01
8058.00,1.01
8057.00,1.01
8056.00,1.01
8055.00,1.01
8054.00,1.01
8053.00,1.01
8052.00,1.01
8051.00,1.01
8050.00,1.01
8049.00,1.01
8048.00,1.01
8047.00,1.01
8046.00,1.01
8045.00,1.01
8044.00,1.01
8043.00,1.01
8042.00,1.01
8041.00,1.01
8040.00,1.01
8039.00,1.01
8038.00,1.01
8037.00,1.01
8036.00,1.01
8035.00,1.01
8034.00,1.01
8033.00,1.01
8032.00,1.01
8031.00,1.01
8030.00,1.01
8029.00,1.01
8028.00,1.01
8027.00,1.01
8026.00,1.01
8025.00,1.01
8024.00,1.01
8023.00,1.01
8022.00,1.01
8021.00,1.01
8020.00,1.01
8019.00,1.01
8018.00,1.01
8017.00,1.01
8016.00,1.01
8015.00,1.01
8014.00,1.01
8013.00,1.01
8012.00,1.01
8011.00,1.01
8010.00,1.01
8009.00,1.01
8008.00,1.01
8007.00,1.01
8006.00,1.01
8005.00,1.01
8004.00,1.01
8003.00,1.01
8002.00,1.01
8001.00,1.02
8000.00,1.02
7999.00,1.02
7998.00,1.02
7997.00,1.02
7996.00,1.02
7995.00,1.02
7994.00,1.02
7993.00,1.02
7992.00,1.02
7991.00,1.02
7990.00,1.02
7989.00,1.02
7988.00,1.02
7987.00,1.02
7986.00,1.02
7985.00,1.02
7984.00,1.02
7983.00,1.02
7982.00,1.02
7981.00,1.02
7980.00,1.02
7979.00,1.03
7978.00,1.03
7977.00,1.03
7976.00,1.03
7975.00,1.03
7974.00,1.03
7973.00,1.03
7972.00,1.03
7971.00,1.03
7970.00,1.03
7969.00,1.04
7968.00,1.04
7967.00,1.04
7966.00,1.04
7965.00,1.04
7964.00,1.04
7963.00,1.04
7962.00,1.04
7961.00,1.04
7960.00,1.04
7959.00,1.04
7958.00,1.04
7957.00,1.04
7956.00,1.04
7955.00,1.04
7954.00,1.04
7953.00,1.04
7952.00,1.04
7951.00,1.04
7950.00,1.04
7949.00,1.04
7948.00,1.03
7947.00,1.03
7946.00,1.03
7945.00,1.03
7944.00,1.03
7943.00,1.03
7942.00,1.03
7941.00,1.03
7940.00,1.03
7939.00,1.02
7938.00,1.02
7937.00,1.02
7936.00,1.02
7935.00,1.02
7934.00,1.02
7933.00,1.02
7932.00,1.02
7931.00,1.02
7930.00,1.02
7929.00,1.03
7928.00,1.03
7927.00,1.03
7926.00,1.03
7925.00,1.03
7924.00,1.03
7923.00,1.03
7922.00,1.03
7921.00,1.03
7920.00,1.03
7919.00,1.03
7918.00,1.03
7917.00,1.03
7916.00,1.03
7915.00,1.03
7914.00,1.03
7913.00,1.03
7912.00,1.03
7911.00,1.03
7910.00,1.03
7909.00,1.03
7908.00,1.03
7907.00,1.03
7906.00,1.03
7905.00,1.03
7904.00,1.03
7903.00,1.03
7902.00,1.03
7901.00,1.03
7900.00,1.03
7899.00,1.03
7898.00,1.03
7897.00,1.03
7896.00,1.03
7895.00,1.03
7894.00,1.03
7893.00,1.03
7892.00,1.03
7891.00,1.03
7890.00,1.03
7889.00,1.03
7888.00,1.03
7887.00,1.03
7886.00,1.03
7885.00,1.03
7884.00,1.03
7883.00,1.03
7882.00,1.03
7881.00,1.03
7880.00,1.03
7879.00,1.03
7878.00,1.03
7877.00,1.03
7876.00,1.03
7875.00,1.03
7874.00,1.03
7873.00,1.03
7872.00,1.03
7871.00,1.03
7870.00,1.03
7869.00,1.03
7868.00,1.03
7867.00,1.03
7866.00,1.03
7865.00,1.04
7864.00,1.04
7863.00,1.04
7862.00,1.04
7861.00,1.04
7860.00,1.04
7859.00,1.04
7858.00,1.04
7857.00,1.04
7856.00,1.04
7855.00,1.04
7854.00,1.04
7853.00,1.03
7852.00,1.03
7851.00,1.03
7850.00,1.03
7849.00,1.03
7848.00,1.03
7847.00,1.03
7846.00,1.03
7845.00,1.03
7844.00,1.03
7843.00,1.03
7842.00,1.03
7841.00,1.03
7840.00,1.04
7839.00,1.04
7838.00,1.04
7837.00,1.04
7836.00,1.04
7835.00,1.04
7834.00,1.04
7833.00,1.04
7832.00,1.04
7831.00,1.04
7830.00,1.04
7829.00,1.04
7828.00,1.04
7827.00,1.04
7826.00,1.04
7825.00,1.04
7824.00,1.04
7823.00,1.04
7822.00,1.04
7821.00,1.04
7820.00,1.04
7819.00,1.04
7818.00,1.04
7817.00,1.04
7816.00,1.04
7815.00,1.04
7814.00,1.04
7813.00,1.04
7812.00,1.04
7811.00,1.04
7810.00,1.04
7809.00,1.04
7808.00,1.04
7807.00,1.04
7806.00,1.04
7805.00,1.04
7804.00,1.04
7803.00,1.04
7802.00,1.04
7801.00,1.04
7800.00,1.04
7799.00,1.04
7798.00,1.04
7797.00,1.04
7796.00,1.05
7795.00,1.05
7794.00,1.05
7793.00,1.05
7792.00,1.05
7791.00,1.05
7790.00,1.05
7789.00,1.05
7788.00,1.05
7787.00,1.05
7786.00,1.05
7785.00,1.05
7784.00,1.05
7783.00,1.05
7782.00,1.05
7781.00,1.05
7780.00,1.05
7779.00,1.05
7778.00,1.05
7777.00,1.05
7776.00,1.05
7775.00,1.05
7774.00,1.05
7773.00,1.05
7772.00,1.05
7771.00,1.04
7770.00,1.04
7769.00,1.04
7768.00,1.04
7767.00,1.04
7766.00,1.04
7765.00,1.04
7764.00,1.04
7763.00,1.04
7762.00,1.04
7761.00,1.04
7760.00,1.04
7759.00,1.04
7758.00,1.04
7757.00,1.04
7756.00,1.04
7755.00,1.04
7754.00,1.04
7753.00,1.04
7752.00,1.04
7751.00,1.04
7750.00,1.04
7749.00,1.05
7748.00,1.05
7747.00,1.05
7746.00,1.05
7745.00,1.05
7744.00,1.05
7743.00,1.05
7742.00,1.05
7741.00,1.05
7740.00,1.05
7739.00,1.05
7738.00,1.05
7737.00,1.05
7736.00,1.05
7735.00,1.05
7734.00,1.05
7733.00,1.05
7732.00,1.05
7731.00,1.05
7730.00,1.05
7729.00,1.05
7728.00,1.05
7727.00,1.05
7726.00,1.05
7725.00,1.05
7724.00,1.05
7723.00,1.05
7722.00,1.05
7721.00,1.05
7720.00,1.05
7719.00,1.05
7718.00,1.05
7717.00,1.05
7716.00,1.05
7715.00,1.05
7714.00,1.05
7713.00,1.05
7712.00,1.05
7711.00,1.05
7710.00,1.05
7709.00,1.05
7708.00,1.05
7707.00,1.05
7706.00,1.05
7705.00,1.05
7704.00,1.05
7703.00,1.05
7702.00,1.05
7701.00,1.05
7700.00,1.05
7699.00,1.05
7698.00,1.05
7697.00,1.05
7696.00,1.05
7695.00,1.05
7694.00,1.05
7693.00,1.05
7692.00,1.05
7691.00,1.05
7690.00,1.05
7689.00,1.05
7688.00,1.05
7687.00,1.05
7686.00,1.05
7685.00,1.05
7684.00,1.05
7683.00,1.05
7682.00,1.05
7681.00,1.05
7680.00,1.05
7679.00,1.05
7678.00,1.05
7677.00,1.05
7676.00,1.05
7675.00,1.05
7674.00,1.05
7673.00,1.05
7672.00,1.05
7671.00,1.05
7670.00,1.05
7669.00,1.05
7668.00,1.05
7667.00,1.06
7666.00,1.06
7665.00,1.06
7664.00,1.06
7663.00,1.06
7662.00,1.06
7661.00,1.06
7660.00,1.06
7659.00,1.06
7658.00,1.06
7657.00,1.06
7656.00,1.05
7655.00,1.05
7654.00,1.05
7653.00,1.05
7652.00,1.05
7651.00,1.05
7650.00,1.05
7649.00,1.05
7648.00,1.05
7647.00,1.05
7646.00,1.05
7645.00,1.04
7644.00,1.04
7643.00,1.04
7642.00,1.04
7641.00,1.04
7640.00,1.04
7639.00,1.04
7638.00,1.04
7637.00,1.04
7636.00,1.04
7635.00,1.04
7634.00,1.04
7633.00,1.04
7632.00,1.04
7631.00,1.04
7630.00,1.04
7629.00,1.04
7628.00,1.04
7627.00,1.04
7626.00,1.04
7625.00,1.04
7624.00,1.04
7623.00,1.04
7622.00,1.04
7621.00,1.05
7620.00,1.05
7619.00,1.05
7618.00,1.05
7617.00,1.05
7616.00,1.05
7615.00,1.05
7614.00,1.05
7613.00,1.05
7612.00,1.05
7611.00,1.05
7610.00,1.05
7609.00,1.05
7608.00,1.05
7607.00,1.05
7606.00,1.05
7605.00,1.05
7604.00,1.05
7603.00,1.05
7602.00,1.05
7601.00,1.05
7600.00,1.05
7599.00,1.05
7598.00,1.05
7597.00,1.05
7596.00,1.05
7595.00,1.06
7594.00,1.06
7593.00,1.06
7592.00,1.06
7591.00,1.06
7590.00,1.06
7589.00,1.06
7588.00,1.06
7587.00,1.06
7586.00,1.06
7585.00,1.06
7584.00,1.06
7583.00,1.06
7582.00,1.06
7581.00,1.06
7580.00,1.06
7579.00,1.06
7578.00,1.06
7577.00,1.06
7576.00,1.05
7575.00,1.05
7574.00,1.05
7573.00,1.05
7572.00,1.05
7571.00,1.05
7570.00,1.05
7569.00,1.05
7568.00,1.05
7567.00,1.05
7566.00,1.05
7565.00,1.05
7564.00,1.05
7563.00,1.05
7562.00,1.05
7561.00,1.05
7560.00,1.05
7559.00,1.05
7558.00,1.05
7557.00,1.05
7556.00,1.05
7555.00,1.05
7554.00,1.05
7553.00,1.05
7552.00,1.05
7551.00,1.05
7550.00,1.05
7549.00,1.05
7548.00,1.05
7547.00,1.05
7546.00,1.05
7545.00,1.05
7544.00,1.05
7543.00,1.05
7542.00,1.05
7541.00,1.05
7540.00,1.05
7539.00,1.05
7538.00,1.05
7537.00,1.05
7536.00,1.05
7535.00,1.05
7534.00,1.05
7533.00,1.05
7532.00,1.05
7531.00,1.05
7530.00,1.05
7529.00,1.05
7528.00,1.05
7527.00,1.04
7526.00,1.04
7525.00,1.04
7524.00,1.04
7523.00,1.04
7522.00,1.04
7521.00,1.04
7520.00,1.04
7519.00,1.04
7518.00,1.04
7517.00,1.04
7516.00,1.04
7515.00,1.04
7514.00,1.04
7513.00,1.04
7512.00,1.04
7511.00,1.04
7510.00,1.04
7509.00,1.04
7508.00,1.04
7507.00,1.04
7506.00,1.04
7505.00,1.04
7504.00,1.04
7503.00,1.04
7502.00,1.04
7501.00,1.04
7500.00,1.04
7499.00,1.04
7498.00,1.04
7497.00,1.03
7496.00,1.03
7495.00,1.03
7494.00,1.03
7493.00,1.03
7492.00,1.03
7491.00,1.03
7490.00,1.03
7489.00,1.03
7488.00,1.03
7487.00,1.02
7486.00,1.02
7485.00,1.02
7484.00,1.02
7483.00,1.02
7482.00,1.02
7481.00,1.02
7480.00,1.02
7479.00,1.02
7478.00,1.02
7477.00,1.02
7476.00,1.02
7475.00,1.02
7474.00,1.02
7473.00,1.02
7472.00,1.02
7471.00,1.02
7470.00,1.02
7469.00,1.01
7468.00,1.01
7467.00,1.01
7466.00,1.01
7465.00,1.01
7464.00,1.01
7463.00,1.01
7462.00,1.01
7461.00,1.01
7460.00,1.01
7459.00,1.00
7458.00,1.00
7457.00,1.00
7456.00,1.00
7455.00,1.00
7454.00,1.00
7453.00,1.00
7452.00,1.00
7451.00,1.00
7450.00,1.00
7449.00,1.00
7448.00,1.00
7447.00,1.00
7446.00,1.00
7445.00,1.00
7444.00,1.00
7443.00,1.00
7442.00,1.00
7441.00,1.00
7440.00,1.00
7439.00,1.00
7438.00,1.00
7437.00,1.00
7436.00,1.00
7435.00,1.00
7434.00,1.00
7433.00,1.00
7432.00,1.00
7431.00,1.00
7430.00,1.00
7429.00,1.00
7428.00,1.00
7427.00,1.00
7426.00,1.00
7425.00,1.00
7424.00,1.00
7423.00,1.00
7422.00,1.00
7421.00,1.00
7420.00,1.00
7419.00,1.00
7418.00,1.00
7417.00,0.99
7416.00,0.99
7415.00,0.99
7414.00,0.99
7413.00,0.99
7412.00,0.99
7411.00,0.99
7410.00,0.99
7409.00,0.99
7408.00,0.99
7407.00,0.99
7406.00,0.99
7405.00,0.99
7404.00,0.99
7403.00,0.98
7402.00,0.98
7401.00,0.98
7400.00,0.98
7399.00,0.98
7398.00,0.98
7397.00,0.98
7396.00,0.98
7395.00,0.98
7394.00,0.98
7393.00,0.97
7392.00,0.97
7391.00,0.97
7390.00,0.97
7389.00,0.97
7388.00,0.97
7387.00,0.97
7386.00,0.97
7385.00,0.97
7384.00,0.97
7383.00,0.97
7382.00,0.97
7381.00,0.97
7380.00,0.97
7379.00,0.97
7378.00,0.97
7377.00,0.96
7376.00,0.96
7375.00,0.96
7374.00,0.96
7373.00,0.96
7372.00,0.96
7371.00,0.96
7370.00,0.96
7369.00,0.96
7368.00,0.96
7367.00,0.96
7366.00,0.96
7365.00,0.96
7364.00,0.96
7363.00,0.96
7362.00,0.96
7361.00,0.96
7360.00,0.96
7359.00,0.96
7358.00,0.96
7357.00,0.96
7356.00,0.96
7355.00,0.96
7354.00,0.96
7353.00,0.96
7352.00,0.96
7351.00,0.96
7350.00,0.96
7349.00,0.96
7348.00,0.96
7347.00,0.96
7346.00,0.96
7345.00,0.96
7344.00,0.96
7343.00,0.96
7342.00,0.96
7341.00,0.96
7340.00,0.96
7339.00,0.96
7338.00,0.95
7337.00,0.95
7336.00,0.95
7335.00,0.95
7334.00,0.95
7333.00,0.95
7332.00,0.95
7331.00,0.95
7330.00,0.95
7329.00,0.95
7328.00,0.95
7327.00,0.95
7326.00,0.95
7325.00,0.95
7324.00,0.95
7323.00,0.95
7322.00,0.95
7321.00,0.96
7320.00,0.96
7319.00,0.95
7318.00,0.95
7317.00,0.95
7316.00,0.95
7315.00,0.95
7314.00,0.95
7313.00,0.95
7312.00,0.95
7311.00,0.95
7310.00,0.95
7309.00,0.95
7308.00,0.95
7307.00,0.95
7306.00,0.95
7305.00,0.95
7304.00,0.95
7303.00,0.94
7302.00,0.94
7301.00,0.94
7300.00,0.94
7299.00,0.94
7298.00,0.94
7297.00,0.94
7296.00,0.94
7295.00,0.94
7294.00,0.94
7293.00,0.93
7292.00,0.93
7291.00,0.93
7290.00,0.93
7289.00,0.93
7288.00,0.93
7287.00,0.93
7286.00,0.93
7285.00,0.93
7284.00,0.93
7283.00,0.92
7282.00,0.92
7281.00,0.92
7280.00,0.92
7279.00,0.92
7278.00,0.92
7277.00,0.92
7276.00,0.92
7275.00,0.91
7274.00,0.91
7273.00,0.91
7272.00,0.91
7271.00,0.91
7270.00,0.91
7269.00,0.91
7268.00,0.91
7267.00,0.91
7266.00,0.91
7265.00,0.90
7264.00,0.90
7263.00,0.90
7262.00,0.90
7261.00,0.90
7260.00,0.90
7259.00,0.90
7258.00,0.90
7257.00,0.90
7256.00,0.90
7255.00,0.90
7254.00,0.90
7253.00,0.90
7252.00,0.89
7251.00,0.89
7250.00,0.89
7249.00,0.89
7248.00,0.89
7247.00,0.89
7246.00,0.89
7245.00,0.88
7244.00,0.88
7243.00,0.88
7242.00,0.88
7241.00,0.88
7240.00,0.88
7239.00,0.87
7238.00,0.87
7237.00,0.87
7236.00,0.87
7235.00,0.87
7234.00,0.86
7233.00,0.86
7232.00,0.86
7231.00,0.86
7230.00,0.86
7229.00,0.85
7228.00,0.85
7227.00,0.85
7226.00,0.85
7225.00,0.84
7224.00,0.84
7223.00,0.84
7222.00,0.84
7221.00,0.83
7220.00,0.83
7219.00,0.83
7218.00,0.83
7217.00,0.82
7216.00,0.82
7215.00,0.82
7214.00,0.82
7213.00,0.81
7212.00,0.81
7211.00,0.81
7210.00,0.81
7209.00,0.80
7208.00,0.80
7207.00,0.80
7206.00,0.80
7205.00,0.79
7204.00,0.79
7203.00,0.79
7202.00,0.79
7201.00,0.79
7200.00,0.78
7199.00,0.78
7198.00,0.78
7197.00,0.78
7196.00,0.77
7195.00,0.77
7194.00,0.77
7193.00,0.77
7192.00,0.77
7191.00,0.76
7190.00,0.76
7189.00,0.76
7188.00,0.76
7187.00,0.75
7186.00,0.75
7185.00,0.75
7184.00,0.75
7183.00,0.74
7182.00,0.74
7181.00,0.74
7180.00,0.74
7179.00,0.74
7178.00,0.74
7177.00,0.73
7176.00,0.73
7175.00,0.73
7174.00,0.73
7173.00,0.73
7172.00,0.73
7171.00,0.72
7170.00,0.72
7169.00,0.72
7168.00,0.72
7167.00,0.72
7166.00,0.72
7165.00,0.71
7164.00,0.71
7163.00,0.71
7162.00,0.71
7161.00,0.71
7160.00,0.70
7159.00,0.70
7158.00,0.70
7157.00,0.70
7156.00,0.70
7155.00,0.69
7154.00,0.69
7153.00,0.69
7152.00,0.69
7151.00,0.68
7150.00,0.68
7149.00,0.68
7148.00,0.68
7147.00,0.68
7146.00,0.67
7145.00,0.67
7144.00,0.67
7143.00,0.67
7142.00,0.66
7141.00,0.66
7140.00,0.66
7139.00,0.66
7138.00,0.65
7137.00,0.65
7136.00,0.65
7135.00,0.65
7134.00,0.65
7133.00,0.64
7132.00,0.64
7131.00,0.64
7130.00,0.64
7129.00,0.64
7128.00,0.63
7127.00,0.63
7126.00,0.63
7125.00,0.63
7124.00,0.63
7123.00,0.63
7122.00,0.63
7121.00,0.62
7120.00,0.62
7119.00,0.62
7118.00,0.62
7117.00,0.62
7116.00,0.62
7115.00,0.62
7114.00,0.61
7113.00,0.61
7112.00,0.61
7111.00,0.61
7110.00,0.61
7109.00,0.60
7108.00,0.60
7107.00,0.60
7106.00,0.60
7105.00,0.59
7104.00,0.59
7103.00,0.59
7102.00,0.59
7101.00,0.58
7100.00,0.58
7099.00,0.58
7098.00,0.58
7097.00,0.57
7096.00,0.57
7095.00,0.57
7094.00,0.57
7093.00,0.57
7092.00,0.57
7091.00,0.56
7090.00,0.56
7089.00,0.56
7088.00,0.56
7087.00,0.56
7086.00,0.56
7085.00,0.56
7084.00,0.56
7083.00,0.56
7082.00,0.56
7081.00,0.56
7080.00,0.55
7079.00,0.55
7078.00,0.55
7077.00,0.55
7076.00,0.55
7075.00,0.55
7074.00,0.55
7073.00,0.54
7072.00,0.54
7071.00,0.54
7070.00,0.54
7069.00,0.54
7068.00,0.53
7067.00,0.53
7066.00,0.53
7065.00,0.53
7064.00,0.53
7063.00,0.52
7062.00,0.52
7061.00,0.52
7060.00,0.52
7059.00,0.52
7058.00,0.52
7057.00,0.52
7056.00,0.52
7055.00,0.52
7054.00,0.52
7053.00,0.52
7052.00,0.52
7051.00,0.51
7050.00,0.51
7049.00,0.51
7048.00,0.51
7047.00,0.51
7046.00,0.51
7045.00,0.51
7044.00,0.51
7043.00,0.51
7042.00,0.51
7041.00,0.51
7040.00,0.50
7039.00,0.50
7038.00,0.50
7037.00,0.50
7036.00,0.50
7035.00,0.50
7034.00,0.50
7033.00,0.50
7032.00,0.50
7031.00,0.49
7030.00,0.49
7029.00,0.49
7028.00,0.49
7027.00,0.49
7026.00,0.49
7025.00,0.49
7024.00,0.49
7023.00,0.49
7022.00,0.49
7021.00,0.49
7020.00,0.48
7019.00,0.48
7018.00,0.48
7017.00,0.48
7016.00,0.48
7015.00,0.48
7014.00,0.48
7013.00,0.48
7012.00,0.48
7011.00,0.48
7010.00,0.48
7009.00,0.48
7008.00,0.48
7007.00,0.48
7006.00,0.48
7005.00,0.48
7004.00,0.48
7003.00,0.48
7002.00,0.48
7001.00,0.48
7000.00,0.48
6999.00,0.48
6998.00,0.48
6997.00,0.48
6996.00,0.48
6995.00,0.48
6994.00,0.48
6993.00,0.48
6992.00,0.48
6991.00,0.47
6990.00,0.47
6989.00,0.47
6988.00,0.47
6987.00,0.47
6986.00,0.47
6985.00,0.47
6984.00,0.47
6983.00,0.47
6982.00,0.47
6981.00,0.47
6980.00,0.47
6979.00,0.47
6978.00,0.47
6977.00,0.47
6976.00,0.46
6975.00,0.46
6974.00,0.46
6973.00,0.46
6972.00,0.46
6971.00,0.46
6970.00,0.46
6969.00,0.46
6968.00,0.46
6967.00,0.46
6966.00,0.46
6965.00,0.46
6964.00,0.46
6963.00,0.46
6962.00,0.45
6961.00,0.45
6960.00,0.45
6959.00,0.45
6958.00,0.45
6957.00,0.45
6956.00,0.45
6955.00,0.45
6954.00,0.45
6953.00,0.45
6952.00,0.45
6951.00,0.45
6950.00,0.45
6949.00,0.45
6948.00,0.45
6947.00,0.45
6946.00,0.45
6945.00,0.45
6944.00,0.45
6943.00,0.45
6942.00,0.45
6941.00,0.45
6940.00,0.45
6939.00,0.45
6938.00,0.45
6937.00,0.45
6936.00,0.45
6935.00,0.45
6934.00,0.45
6933.00,0.45
6932.00,0.45
6931.00,0.45
6930.00,0.45
6929.00,0.45
6928.00,0.45
6927.00,0.45
6926.00,0.45
6925.00,0.45
6924.00,0.45
6923.00,0.45
6922.00,0.45
6921.00,0.45
6920.00,0.45
6919.00,0.45
6918.00,0.45
6917.00,0.45
6916.00,0.45
6915.00,0.45
6914.00,0.45
6913.00,0.45
6912.00,0.45
6911.00,0.45
6910.00,0.45
6909.00,0.45
6908.00,0.45
6907.00,0.45
6906.00,0.45
6905.00,0.45
6904.00,0.45
6903.00,0.45
6902.00,0.45
6901.00,0.45
6900.00,0.45
6899.00,0.45
6898.00,0.45
6897.00,0.45
6896.00,0.45
6895.00,0.45
6894.00,0.45
6893.00,0.45
6892.00,0.45
6891.00,0.45
6890.00,0.44
6889.00,0.44
6888.00,0.44
6887.00,0.45
6886.00,0.45
6885.00,0.45
6884.00,0.45
6883.00,0.45
6882.00,0.45
6881.00,0.45
6880.00,0.45
6879.00,0.45
6878.00,0.45
6877.00,0.45
6876.00,0.45
6875.00,0.45
6874.00,0.45
6873.00,0.45
6872.00,0.45
6871.00,0.45
6870.00,0.45
6869.00,0.45
6868.00,0.45
6867.00,0.45
6866.00,0.45
6865.00,0.44
6864.00,0.44
6863.00,0.44
6862.00,0.44
6861.00,0.44
6860.00,0.44
6859.00,0.44
6858.00,0.44
6857.00,0.44
6856.00,0.44
6855.00,0.44
6854.00,0.45
6853.00,0.45
6852.00,0.45
6851.00,0.45
6850.00,0.45
6849.00,0.45
6848.00,0.45
6847.00,0.45
6846.00,0.45
6845.00,0.45
6844.00,0.45
6843.00,0.45
6842.00,0.45
6841.00,0.45
6840.00,0.44
6839.00,0.44
6838.00,0.44
6837.00,0.44
6836.00,0.44
6835.00,0.44
6834.00,0.44
6833.00,0.44
6832.00,0.44
6831.00,0.44
6830.00,0.44
6829.00,0.44
6828.00,0.44
6827.00,0.44
6826.00,0.44
6825.00,0.44
6824.00,0.44
6823.00,0.44
6822.00,0.44
6821.00,0.44
6820.00,0.44
6819.00,0.44
6818.00,0.44
6817.00,0.44
6816.00,0.44
6815.00,0.44
6814.00,0.44
6813.00,0.44
6812.00,0.44
6811.00,0.44
6810.00,0.44
6809.00,0.44
6808.00,0.44
6807.00,0.44
6806.00,0.44
6805.00,0.45
6804.00,0.45
6803.00,0.45
6802.00,0.45
6801.00,0.45
6800.00,0.45
6799.00,0.45
6798.00,0.45
6797.00,0.45
6796.00,0.45
6795.00,0.45
6794.00,0.45
6793.00,0.45
6792.00,0.46
6791.00,0.46
6790.00,0.46
6789.00,0.46
6788.00,0.46
6787.00,0.46
6786.00,0.46
6785.00,0.46
6784.00,0.46
6783.00,0.46
6782.00,0.46
6781.00,0.46
6780.00,0.46
6779.00,0.46
6778.00,0.47
6777.00,0.47
6776.00,0.47
6775.00,0.46
6774.00,0.46
6773.00,0.46
6772.00,0.46
6771.00,0.46
6770.00,0.46
6769.00,0.46
6768.00,0.46
6767.00,0.46
6766.00,0.46
6765.00,0.46
6764.00,0.46
6763.00,0.46
6762.00,0.46
6761.00,0.46
6760.00,0.46
6759.00,0.46
6758.00,0.46
6757.00,0.46
6756.00,0.46
6755.00,0.46
6754.00,0.47
6753.00,0.47
6752.00,0.47
6751.00,0.47
6750.00,0.47
6749.00,0.47
6748.00,0.47
6747.00,0.47
6746.00,0.47
6745.00,0.47
6744.00,0.47
6743.00,0.47
6742.00,0.47
6741.00,0.47
6740.00,0.47
6739.00,0.47
6738.00,0.47
6737.00,0.47
6736.00,0.47
6735.00,0.47
6734.00,0.47
6733.00,0.47
6732.00,0.47
6731.00,0.47
6730.00,0.47
6729.00,0.47
6728.00,0.47
6727.00,0.47
6726.00,0.47
6725.00,0.48
6724.00,0.48
6723.00,0.48
6722.00,0.48
6721.00,0.48
6720.00,0.48
6719.00,0.48
6718.00,0.48
6717.00,0.48
6716.00,0.49
6715.00,0.49
6714.00,0.49
6713.00,0.49
6712.00,0.49
6711.00,0.49
6710.00,0.49
6709.00,0.49
6708.00,0.49
6707.00,0.49
6706.00,0.49
6705.00,0.49
6704.00,0.49
6703.00,0.49
6702.00,0.49
6701.00,0.49
6700.00,0.49
6699.00,0.49
6698.00,0.49
6697.00,0.50
6696.00,0.50
6695.00,0.50
6694.00,0.50
6693.00,0.50
6692.00,0.50
6691.00,0.50
6690.00,0.50
6689.00,0.50
6688.00,0.50
6687.00,0.51
6686.00,0.51
6685.00,0.51
6684.00,0.51
6683.00,0.51
6682.00,0.51
6681.00,0.51
6680.00,0.51
6679.00,0.51
6678.00,0.51
6677.00,0.51
6676.00,0.51
6675.00,0.51
6674.00,0.51
6673.00,0.51
6672.00,0.51
6671.00,0.51
6670.00,0.51
6669.00,0.51
6668.00,0.51
6667.00,0.51
6666.00,0.51
6665.00,0.51
6664.00,0.51
6663.00,0.52
6662.00,0.52
6661.00,0.52
6660.00,0.52
6659.00,0.52
6658.00,0.52
6657.00,0.52
6656.00,0.52
6655.00,0.52
6654.00,0.52
6653.00,0.52
6652.00,0.52
6651.00,0.52
6650.00,0.52
6649.00,0.52
6648.00,0.52
6647.00,0.52
6646.00,0.53
6645.00,0.53
6644.00,0.53
6643.00,0.53
6642.00,0.53
6641.00,0.53
6640.00,0.53
6639.00,0.53
6638.00,0.53
6637.00,0.53
6636.00,0.53
6635.00,0.53
6634.00,0.53
6633.00,0.53
6632.00,0.53
6631.00,0.53
6630.00,0.53
6629.00,0.53
6628.00,0.53
6627.00,0.54
6626.00,0.54
6625.00,0.54
6624.00,0.54
6623.00,0.54
6622.00,0.54
6621.00,0.54
6620.00,0.54
6619.00,0.54
6618.00,0.54
6617.00,0.54
6616.00,0.54
6615.00,0.55
6614.00,0.55
6613.00,0.55
6612.00,0.55
6611.00,0.55
6610.00,0.55
6609.00,0.55
6608.00,0.55
6607.00,0.55
6606.00,0.55
6605.00,0.55
6604.00,0.55
6603.00,0.55
6602.00,0.55
6601.00,0.56
6600.00,0.56
6599.00,0.56
6598.00,0.56
6597.00,0.56
6596.00,0.56
6595.00,0.56
6594.00,0.56
6593.00,0.56
6592.00,0.56
6591.00,0.56
6590.00,0.56
6589.00,0.56
6588.00,0.56
6587.00,0.57
6586.00,0.57
6585.00,0.57
6584.00,0.57
6583.00,0.57
6582.00,0.57
6581.00,0.57
6580.00,0.57
6579.00,0.57
6578.00,0.57
6577.00,0.57
6576.00,0.57
6575.00,0.58
6574.00,0.58
6573.00,0.58
6572.00,0.58
6571.00,0.58
6570.00,0.58
6569.00,0.58
6568.00,0.58
6567.00,0.58
6566.00,0.58
6565.00,0.58
6564.00,0.58
6563.00,0.58
6562.00,0.58
6561.00,0.58
6560.00,0.58
6559.00,0.59
6558.00,0.59
6557.00,0.59
6556.00,0.59
6555.00,0.59
6554.00,0.59
6553.00,0.59
6552.00,0.59
6551.00,0.59
6550.00,0.59
6549.00,0.59
6548.00,0.59
6547.00,0.59
6546.00,0.59
6545.00,0.60
6544.00,0.60
6543.00,0.60
6542.00,0.60
6541.00,0.60
6540.00,0.60
6539.00,0.60
6538.00,0.60
6537.00,0.60
6536.00,0.60
6535.00,0.60
6534.00,0.60
6533.00,0.60
6532.00,0.60
6531.00,0.60
6530.00,0.60
6529.00,0.60
6528.00,0.60
6527.00,0.60
6526.00,0.60
6525.00,0.60
6524.00,0.60
6523.00,0.60
6522.00,0.61
6521.00,0.61
6520.00,0.61
6519.00,0.61
6518.00,0.61
6517.00,0.61
6516.00,0.61
6515.00,0.61
6514.00,0.61
6513.00,0.61
6512.00,0.61
6511.00,0.61
6510.00,0.61
6509.00,0.62
6508.00,0.62
6507.00,0.62
6506.00,0.62
6505.00,0.62
6504.00,0.62
6503.00,0.62
6502.00,0.62
6501.00,0.62
6500.00,0.62
6499.00,0.62
6498.00,0.62
6497.00,0.62
6496.00,0.62
6495.00,0.62
6494.00,0.62
6493.00,0.62
6492.00,0.62
6491.00,0.63
6490.00,0.63
6489.00,0.63
6488.00,0.63
6487.00,0.63
6486.00,0.63
6485.00,0.63
6484.00,0.63
6483.00,0.63
6482.00,0.63
6481.00,0.63
6480.00,0.63
6479.00,0.63
6478.00,0.63
6477.00,0.63
6476.00,0.63
6475.00,0.63
6474.00,0.63
6473.00,0.63
6472.00,0.63
6471.00,0.63
6470.00,0.63
6469.00,0.63
6468.00,0.63
6467.00,0.63
6466.00,0.63
6465.00,0.63
6464.00,0.63
6463.00,0.63
6462.00,0.64
6461.00,0.64
6460.00,0.64
6459.00,0.64
6458.00,0.64
6457.00,0.64
6456.00,0.64
6455.00,0.64
6454.00,0.64
6453.00,0.64
6452.00,0.64
6451.00,0.64
6450.00,0.64
6449.00,0.64
6448.00,0.64
6447.00,0.64
6446.00,0.64
6445.00,0.64
6444.00,0.64
6443.00,0.64
6442.00,0.64
6441.00,0.64
6440.00,0.64
6439.00,0.64
6438.00,0.64
6437.00,0.64
6436.00,0.64
6435.00,0.65
6434.00,0.65
6433.00,0.65
6432.00,0.65
6431.00,0.65
6430.00,0.65
6429.00,0.65
6428.00,0.65
6427.00,0.65
6426.00,0.65
6425.00,0.65
6424.00,0.65
6423.00,0.65
6422.00,0.65
6421.00,0.65
6420.00,0.65
6419.00,0.65
6418.00,0.65
6417.00,0.65
6416.00,0.65
6415.00,0.65
6414.00,0.65
6413.00,0.65
6412.00,0.65
6411.00,0.65
6410.00,0.65
6409.00,0.65
6408.00,0.65
6407.00,0.65
6406.00,0.65
6405.00,0.65
6404.00,0.65
6403.00,0.65
6402.00,0.65
6401.00,0.66
6400.00,0.66
6399.00,0.66
6398.00,0.66
6397.00,0.66
6396.00,0.66
6395.00,0.66
6394.00,0.66
6393.00,0.66
6392.00,0.66
6391.00,0.66
6390.00,0.66
6389.00,0.66
6388.00,0.66
6387.00,0.67
6386.00,0.67
6385.00,0.67
6384.00,0.67
6383.00,0.67
6382.00,0.67
6381.00,0.67
6380.00,0.67
6379.00,0.67
6378.00,0.67
6377.00,0.67
6376.00,0.67
6375.00,0.67
6374.00,0.67
6373.00,0.67
6372.00,0.67
6371.00,0.67
6370.00,0.67
6369.00,0.67
6368.00,0.67
6367.00,0.67
6366.00,0.67
6365.00,0.67
6364.00,0.68
6363.00,0.68
6362.00,0.68
6361.00,0.68
6360.00,0.68
6359.00,0.68
6358.00,0.68
6357.00,0.68
6356.00,0.68
6355.00,0.68
6354.00,0.68
6353.00,0.68
6352.00,0.68
6351.00,0.68
6350.00,0.68
6349.00,0.69
6348.00,0.69
6347.00,0.69
6346.00,0.69
6345.00,0.69
6344.00,0.69
6343.00,0.69
6342.00,0.69
6341.00,0.69
6340.00,0.69
6339.00,0.69
6338.00,0.69
6337.00,0.69
6336.00,0.69
6335.00,0.69
6334.00,0.69
6333.00,0.69
6332.00,0.69
6331.00,0.69
6330.00,0.69
6329.00,0.70
6328.00,0.70
6327.00,0.70
6326.00,0.70
6325.00,0.70
6324.00,0.70
6323.00,0.70
6322.00,0.70
6321.00,0.70
6320.00,0.70
6319.00,0.70
6318.00,0.71
6317.00,0.71
6316.00,0.71
6315.00,0.71
6314.00,0.71
6313.00,0.71
6312.00,0.71
6311.00,0.71
6310.00,0.71
6309.00,0.71
6308.00,0.71
6307.00,0.71
6306.00,0.71
6305.00,0.71
6304.00,0.71
6303.00,0.71
6302.00,0.71
6301.00,0.71
6300.00,0.71
6299.00,0.71
6298.00,0.71
6297.00,0.71
6296.00,0.72
6295.00,0.72
6294.00,0.72
6293.00,0.72
6292.00,0.72
6291.00,0.72
6290.00,0.72
6289.00,0.72
6288.00,0.72
6287.00,0.72
6286.00,0.72
6285.00,0.72
6284.00,0.72
6283.00,0.73
6282.00,0.73
6281.00,0.73
6280.00,0.73
6279.00,0.73
6278.00,0.73
6277.00,0.73
6276.00,0.73
6275.00,0.73
6274.00,0.73
6273.00,0.73
6272.00,0.73
6271.00,0.73
6270.00,0.74
6269.00,0.74
6268.00,0.74
6267.00,0.74
6266.00,0.74
6265.00,0.74
6264.00,0.74
6263.00,0.74
6262.00,0.74
6261.00,0.74
6260.00,0.74
6259.00,0.74
6258.00,0.74
6257.00,0.74
6256.00,0.75
6255.00,0.75
6254.00,0.75
6253.00,0.75
6252.00,0.75
6251.00,0.75
6250.00,0.75
6249.00,0.75
6248.00,0.75
6247.00,0.75
6246.00,0.75
6245.00,0.76
6244.00,0.76
6243.00,0.76
6242.00,0.76
6241.00,0.76
6240.00,0.76
6239.00,0.76
6238.00,0.76
6237.00,0.76
6236.00,0.76
6235.00,0.77
6234.00,0.77
6233.00,0.77
6232.00,0.77
6231.00,0.77
6230.00,0.77
6229.00,0.77
6228.00,0.77
6227.00,0.77
6226.00,0.77
6225.00,0.77
6224.00,0.77
6223.00,0.77
6222.00,0.77
6221.00,0.78
6220.00,0.78
6219.00,0.78
6218.00,0.78
6217.00,0.78
6216.00,0.78
6215.00,0.78
6214.00,0.78
6213.00,0.79
6212.00,0.79
6211.00,0.79
6210.00,0.79
6209.00,0.79
6208.00,0.79
6207.00,0.79
6206.00,0.79
6205.00,0.80
6204.00,0.80
6203.00,0.80
6202.00,0.80
6201.00,0.80
6200.00,0.80
6199.00,0.80
6198.00,0.80
6197.00,0.80
6196.00,0.80
6195.00,0.80
6194.00,0.80
6193.00,0.80
6192.00,0.81
6191.00,0.81
6190.00,0.81
6189.00,0.81
6188.00,0.81
6187.00,0.81
6186.00,0.81
6185.00,0.81
6184.00,0.81
6183.00,0.81
6182.00,0.82
6181.00,0.82
6180.00,0.82
6179.00,0.82
6178.00,0.82
6177.00,0.82
6176.00,0.82
6175.00,0.82
6174.00,0.83
6173.00,0.83
6172.00,0.83
6171.00,0.83
6170.00,0.83
6169.00,0.83
6168.00,0.84
6167.00,0.84
6166.00,0.84
6165.00,0.84
6164.00,0.84
6163.00,0.84
6162.00,0.85
6161.00,0.85
6160.00,0.85
6159.00,0.85
6158.00,0.85
6157.00,0.85
6156.00,0.85
6155.00,0.86
6154.00,0.86
6153.00,0.86
6152.00,0.86
6151.00,0.86
6150.00,0.86
6149.00,0.86
6148.00,0.86
6147.00,0.87
6146.00,0.87
6145.00,0.87
6144.00,0.87
6143.00,0.87
6142.00,0.87
6141.00,0.87
6140.00,0.87
6139.00,0.88
6138.00,0.88
6137.00,0.88
6136.00,0.88
6135.00,0.88
6134.00,0.88
6133.00,0.88
6132.00,0.88
6131.00,0.88
6130.00,0.88
6129.00,0.88
6128.00,0.88
6127.00,0.88
6126.00,0.88
6125.00,0.88
6124.00,0.88
6123.00,0.88
6122.00,0.88
6121.00,0.88
6120.00,0.88
6119.00,0.88
6118.00,0.89
6117.00,0.89
6116.00,0.89
6115.00,0.89
6114.00,0.89
6113.00,0.89
6112.00,0.89
6111.00,0.89
6110.00,0.89
6109.00,0.89
6108.00,0.89
6107.00,0.89
6106.00,0.90
6105.00,0.90
6104.00,0.90
6103.00,0.90
6102.00,0.90
6101.00,0.90
6100.00,0.90
6099.00,0.90
6098.00,0.90
6097.00,0.91
6096.00,0.91
6095.00,0.91
6094.00,0.91
6093.00,0.91
6092.00,0.91
6091.00,0.91
6090.00,0.91
6089.00,0.92
6088.00,0.92
6087.00,0.92
6086.00,0.92
6085.00,0.92
6084.00,0.92
6083.00,0.92
6082.00,0.92
6081.00,0.93
6080.00,0.93
6079.00,0.93
6078.00,0.93
6077.00,0.93
6076.00,0.93
6075.00,0.93
6074.00,0.93
6073.00,0.93
6072.00,0.93
6071.00,0.93
6070.00,0.93
6069.00,0.93
6068.00,0.93
6067.00,0.94
6066.00,0.94
6065.00,0.94
6064.00,0.94
6063.00,0.94
6062.00,0.94
6061.00,0.94
6060.00,0.94
6059.00,0.94
6058.00,0.94
6057.00,0.94
6056.00,0.94
6055.00,0.95
6054.00,0.95
6053.00,0.95
6052.00,0.95
6051.00,0.95
6050.00,0.95
6049.00,0.95
6048.00,0.95
6047.00,0.95
6046.00,0.95
6045.00,0.95
6044.00,0.95
6043.00,0.95
6042.00,0.95
6041.00,0.95
6040.00,0.95
6039.00,0.95
6038.00,0.95
6037.00,0.95
6036.00,0.95
6035.00,0.95
6034.00,0.95
6033.00,0.95
6032.00,0.95
6031.00,0.95
6030.00,0.95
6029.00,0.95
6028.00,0.96
6027.00,0.96
6026.00,0.96
6025.00,0.96
6024.00,0.96
6023.00,0.96
6022.00,0.96
6021.00,0.96
6020.00,0.96
6019.00,0.96
6018.00,0.96
6017.00,0.96
6016.00,0.96
6015.00,0.96
6014.00,0.96
6013.00,0.97
6012.00,0.97
6011.00,0.97
6010.00,0.97
6009.00,0.97
6008.00,0.97
6007.00,0.96
6006.00,0.96
6005.00,0.96
6004.00,0.96
6003.00,0.96
6002.00,0.96
6001.00,0.96
6000.00,0.96
5999.00,0.96
5998.00,0.96
5997.00,0.95
5996.00,0.95
5995.00,0.95
5994.00,0.95
5993.00,0.95
5992.00,0.95
5991.00,0.94
5990.00,0.94
5989.00,0.94
5988.00,0.94
5987.00,0.94
5986.00,0.94
5985.00,0.93
5984.00,0.93
5983.00,0.93
5982.00,0.93
5981.00,0.93
5980.00,0.93
5979.00,0.92
5978.00,0.92
5977.00,0.92
5976.00,0.92
5975.00,0.91
5974.00,0.91
5973.00,0.91
5972.00,0.90
5971.00,0.90
5970.00,0.90
5969.00,0.89
5968.00,0.89
5967.00,0.88
5966.00,0.88
5965.00,0.88
5964.00,0.87
5963.00,0.86
5962.00,0.86
5961.00,0.85
5960.00,0.85
5959.00,0.84
5958.00,0.84
5957.00,0.83
5956.00,0.83
5955.00,0.82
5954.00,0.82
5953.00,0.81
5952.00,0.81
5951.00,0.80
5950.00,0.80
5949.00,0.80
5948.00,0.79
5947.00,0.79
5946.00,0.78
5945.00,0.78
5944.00,0.78
5943.00,0.78
5942.00,0.78
5941.00,0.77
5940.00,0.77
5939.00,0.77
5938.00,0.77
5937.00,0.77
5936.00,0.77
5935.00,0.77
5934.00,0.77
5933.00,0.77
5932.00,0.76
5931.00,0.76
5930.00,0.76
5929.00,0.76
5928.00,0.76
5927.00,0.76
5926.00,0.76
5925.00,0.76
5924.00,0.76
5923.00,0.76
5922.00,0.75
5921.00,0.75
5920.00,0.75
5919.00,0.75
5918.00,0.75
5917.00,0.74
5916.00,0.74
5915.00,0.74
5914.00,0.74
5913.00,0.74
5912.00,0.73
5911.00,0.73
5910.00,0.73
5909.00,0.73
5908.00,0.73
5907.00,0.73
5906.00,0.73
5905.00,0.73
5904.00,0.73
5903.00,0.73
5902.00,0.73
5901.00,0.73
5900.00,0.73
5899.00,0.73
5898.00,0.73
5897.00,0.73
5896.00,0.73
5895.00,0.73
5894.00,0.73
5893.00,0.74
5892.00,0.74
5891.00,0.74
5890.00,0.74
5889.00,0.74
5888.00,0.74
5887.00,0.75
5886.00,0.75
5885.00,0.75
5884.00,0.75
5883.00,0.75
5882.00,0.76
5881.00,0.76
5880.00,0.76
5879.00,0.76
5878.00,0.76
5877.00,0.77
5876.00,0.77
5875.00,0.77
5874.00,0.77
5873.00,0.77
5872.00,0.77
5871.00,0.78
5870.00,0.78
5869.00,0.78
5868.00,0.78
5867.00,0.78
5866.00,0.78
5865.00,0.79
5864.00,0.79
5863.00,0.79
5862.00,0.79
5861.00,0.79
5860.00,0.79
5859.00,0.79
5858.00,0.79
5857.00,0.79
5856.00,0.80
5855.00,0.80
5854.00,0.80
5853.00,0.80
5852.00,0.80
5851.00,0.80
5850.00,0.80
5849.00,0.80
5848.00,0.80
5847.00,0.80
5846.00,0.80
5845.00,0.80
5844.00,0.80
5843.00,0.80
5842.00,0.80
5841.00,0.80
5840.00,0.80
5839.00,0.80
5838.00,0.80
5837.00,0.80
5836.00,0.80
5835.00,0.80
5834.00,0.80
5833.00,0.80
5832.00,0.80
5831.00,0.80
5830.00,0.80
5829.00,0.80
5828.00,0.80
5827.00,0.80
5826.00,0.80
5825.00,0.80
5824.00,0.80
5823.00,0.80
5822.00,0.80
5821.00,0.80
5820.00,0.80
5819.00,0.80
5818.00,0.80
5817.00,0.80
5816.00,0.80
5815.00,0.80
5814.00,0.80
5813.00,0.80
5812.00,0.80
5811.00,0.80
5810.00,0.80
5809.00,0.80
5808.00,0.80
5807.00,0.80
5806.00,0.80
5805.00,0.80
5804.00,0.80
5803.00,0.80
5802.00,0.80
5801.00,0.80
5800.00,0.80
5799.00,0.80
5798.00,0.80
5797.00,0.79
5796.00,0.79
5795.00,0.79
5794.00,0.79
5793.00,0.79
5792.00,0.79
5791.00,0.79
5790.00,0.78
5789.00,0.78
5788.00,0.78
5787.00,0.78
5786.00,0.78
5785.00,0.78
5784.00,0.78
5783.00,0.78
5782.00,0.78
5781.00,0.77
5780.00,0.77
5779.00,0.77
5778.00,0.77
5777.00,0.77
5776.00,0.77
5775.00,0.77
5774.00,0.77
5773.00,0.77
5772.00,0.77
5771.00,0.77
5770.00,0.77
5769.00,0.77
5768.00,0.77
5767.00,0.77
5766.00,0.77
5765.00,0.77
5764.00,0.77
5763.00,0.77
5762.00,0.78
5761.00,0.78
5760.00,0.78
5759.00,0.78
5758.00,0.79
5757.00,0.79
5756.00,0.79
5755.00,0.79
5754.00,0.80
5753.00,0.80
5752.00,0.80
5751.00,0.80
5750.00,0.81
5749.00,0.81
5748.00,0.81
5747.00,0.81
5746.00,0.82
5745.00,0.82
5744.00,0.82
5743.00,0.82
5742.00,0.82
5741.00,0.83
5740.00,0.83
5739.00,0.83
5738.00,0.83
5737.00,0.83
5736.00,0.83
5735.00,0.84
5734.00,0.84
5733.00,0.84
5732.00,0.84
5731.00,0.84
5730.00,0.84
5729.00,0.84
5728.00,0.84
5727.00,0.84
5726.00,0.84
5725.00,0.85
5724.00,0.85
5723.00,0.85
5722.00,0.85
5721.00,0.85
5720.00,0.85
5719.00,0.85
5718.00,0.85
5717.00,0.85
5716.00,0.85
5715.00,0.85
5714.00,0.85
5713.00,0.85
5712.00,0.85
5711.00,0.85
5710.00,0.85
5709.00,0.85
5708.00,0.85
5707.00,0.85
5706.00,0.85
5705.00,0.85
5704.00,0.85
5703.00,0.85
5702.00,0.85
5701.00,0.85
5700.00,0.85
5699.00,0.85
5698.00,0.85
5697.00,0.85
5696.00,0.85
5695.00,0.85
5694.00,0.84
5693.00,0.84
5692.00,0.84
5691.00,0.84
5690.00,0.84
5689.00,0.84
5688.00,0.84
5687.00,0.83
5686.00,0.83
5685.00,0.83
5684.00,0.83
5683.00,0.83
5682.00,0.83
5681.00,0.83
5680.00,0.83
5679.00,0.82
5678.00,0.82
5677.00,0.82
5676.00,0.82
5675.00,0.82
5674.00,0.82
5673.00,0.82
5672.00,0.82
5671.00,0.82
5670.00,0.82
5669.00,0.82
5668.00,0.82
5667.00,0.83
5666.00,0.83
5665.00,0.83
5664.00,0.83
5663.00,0.83
5662.00,0.83
5661.00,0.83
5660.00,0.83
5659.00,0.83
5658.00,0.84
5657.00,0.84
5656.00,0.84
5655.00,0.84
5654.00,0.84
5653.00,0.84
5652.00,0.85
5651.00,0.85
5650.00,0.85
5649.00,0.85
5648.00,0.85
5647.00,0.85
5646.00,0.86
5645.00,0.86
5644.00,0.86
5643.00,0.86
5642.00,0.86
5641.00,0.86
5640.00,0.87
5639.00,0.87
5638.00,0.87
5637.00,0.87
5636.00,0.87
5635.00,0.87
5634.00,0.87
5633.00,0.88
5632.00,0.88
5631.00,0.88
5630.00,0.88
5629.00,0.88
5628.00,0.88
5627.00,0.88
5626.00,0.88
5625.00,0.88
5624.00,0.89
5623.00,0.89
5622.00,0.89
5621.00,0.89
5620.00,0.89
5619.00,0.89
5618.00,0.89
5617.00,0.89
5616.00,0.89
5615.00,0.90
5614.00,0.90
5613.00,0.90
5612.00,0.90
5611.00,0.90
5610.00,0.90
5609.00,0.90
5608.00,0.91
5607.00,0.91
5606.00,0.91
5605.00,0.91
5604.00,0.91
5603.00,0.91
5602.00,0.91
5601.00,0.91
5600.00,0.92
5599.00,0.92
5598.00,0.92
5597.00,0.92
5596.00,0.92
5595.00,0.92
5594.00,0.92
5593.00,0.92
5592.00,0.92
5591.00,0.93
5590.00,0.93
5589.00,0.93
5588.00,0.93
5587.00,0.93
5586.00,0.93
5585.00,0.93
5584.00,0.93
5583.00,0.93
5582.00,0.94
5581.00,0.94
5580.00,0.94
5579.00,0.94
5578.00,0.94
5577.00,0.94
5576.00,0.94
5575.00,0.94
5574.00,0.95
5573.00,0.95
5572.00,0.95
5571.00,0.95
5570.00,0.95
5569.00,0.95
5568.00,0.95
5567.00,0.95
5566.00,0.96
5565.00,0.96
5564.00,0.96
5563.00,0.96
5562.00,0.96
5561.00,0.96
5560.00,0.96
5559.00,0.97
5558.00,0.97
5557.00,0.97
5556.00,0.97
5555.00,0.97
5554.00,0.97
5553.00,0.97
5552.00,0.97
5551.00,0.98
5550.00,0.98
5549.00,0.98
5548.00,0.98
5547.00,0.98
5546.00,0.98
5545.00,0.98
5544.00,0.98
5543.00,0.98
5542.00,0.98
5541.00,0.98
5540.00,0.99
5539.00,0.99
5538.00,0.99
5537.00,0.99
5536.00,0.99
5535.00,0.99
5534.00,0.99
5533.00,0.99
5532.00,0.99
5531.00,0.99
5530.00,0.99
5529.00,1.00
5528.00,1.00
5527.00,1.00
5526.00,1.00
5525.00,1.00
5524.00,1.00
5523.00,1.00
5522.00,1.00
5521.00,1.00
5520.00,1.00
5519.00,1.00
5518.00,1.00
5517.00,1.00
5516.00,1.00
5515.00,1.00
5514.00,1.00
5513.00,1.01
5512.00,1.01
5511.00,1.01
5510.00,1.01
5509.00,1.01
5508.00,1.01
5507.00,1.01
5506.00,1.01
5505.00,1.01
5504.00,1.01
5503.00,1.01
5502.00,1.01
5501.00,1.01
5500.00,1.01
5499.00,1.01
5498.00,1.01
5497.00,1.01
5496.00,1.01
5495.00,1.01
5494.00,1.01
5493.00,1.02
5492.00,1.02
5491.00,1.02
5490.00,1.02
5489.00,1.02
5488.00,1.02
5487.00,1.02
5486.00,1.02
5485.00,1.02
5484.00,1.02
5483.00,1.02
5482.00,1.02
5481.00,1.02
5480.00,1.03
5479.00,1.03
5478.00,1.03
5477.00,1.03
5476.00,1.03
5475.00,1.03
5474.00,1.03
5473.00,1.03
5472.00,1.03
5471.00,1.03
5470.00,1.03
5469.00,1.04
5468.00,1.04
5467.00,1.04
5466.00,1.04
5465.00,1.04
5464.00,1.04
5463.00,1.04
5462.00,1.04
5461.00,1.04
5460.00,1.05
5459.00,1.05
5458.00,1.05
5457.00,1.05
5456.00,1.05
5455.00,1.05
5454.00,1.05
5453.00,1.05
5452.00,1.05
5451.00,1.05
5450.00,1.05
5449.00,1.05
5448.00,1.05
5447.00,1.05
5446.00,1.05
5445.00,1.05
5444.00,1.05
5443.00,1.05
5442.00,1.05
5441.00,1.05
5440.00,1.05
5439.00,1.06
5438.00,1.06
5437.00,1.06
5436.00,1.06
5435.00,1.06
5434.00,1.06
5433.00,1.06
5432.00,1.06
5431.00,1.06
5430.00,1.06
5429.00,1.06
5428.00,1.06
5427.00,1.06
5426.00,1.06
5425.00,1.06
5424.00,1.06
5423.00,1.06
5422.00,1.06
5421.00,1.06
5420.00,1.06
5419.00,1.06
5418.00,1.06
5417.00,1.06
5416.00,1.06
5415.00,1.06
5414.00,1.06
5413.00,1.06
5412.00,1.06
5411.00,1.06
5410.00,1.06
5409.00,1.06
5408.00,1.06
5407.00,1.06
5406.00,1.06
5405.00,1.06
5404.00,1.06
5403.00,1.06
5402.00,1.06
5401.00,1.06
5400.00,1.06
5399.00,1.06
5398.00,1.06
5397.00,1.05
5396.00,1.05
5395.00,1.05
5394.00,1.05
5393.00,1.05
5392.00,1.05
5391.00,1.05
5390.00,1.05
5389.00,1.05
5388.00,1.05
5387.00,1.04
5386.00,1.04
5385.00,1.04
5384.00,1.04
5383.00,1.04
5382.00,1.03
5381.00,1.03
5380.00,1.03
5379.00,1.03
5378.00,1.02
5377.00,1.02
5376.00,1.02
5375.00,1.02
5374.00,1.01
5373.00,1.01
5372.00,1.01
5371.00,1.00
5370.00,1.00
5369.00,1.00
5368.00,0.99
5367.00,0.99
5366.00,0.99
5365.00,0.98
5364.00,0.98
5363.00,0.98
5362.00,0.97
5361.00,0.97
5360.00,0.96
5359.00,0.96
5358.00,0.95
5357.00,0.95
5356.00,0.94
5355.00,0.94
5354.00,0.93
5353.00,0.92
5352.00,0.92
5351.00,0.91
5350.00,0.91
5349.00,0.90
5348.00,0.89
5347.00,0.89
5346.00,0.88
5345.00,0.87
5344.00,0.87
5343.00,0.86
5342.00,0.85
5341.00,0.84
5340.00,0.84
5339.00,0.83
5338.00,0.82
5337.00,0.82
5336.00,0.81
5335.00,0.80
5334.00,0.80
5333.00,0.79
5332.00,0.78
5331.00,0.78
5330.00,0.77
5329.00,0.76
5328.00,0.75
5327.00,0.75
5326.00,0.74
5325.00,0.73
5324.00,0.72
5323.00,0.72
5322.00,0.71
5321.00,0.70
5320.00,0.70
5319.00,0.69
5318.00,0.68
5317.00,0.67
5316.00,0.67
5315.00,0.66
5314.00,0.65
5313.00,0.65
5312.00,0.64
5311.00,0.63
5310.00,0.63
5309.00,0.62
5308.00,0.62
5307.00,0.61
5306.00,0.61
5305.00,0.60
5304.00,0.60
5303.00,0.59
5302.00,0.59
5301.00,0.59
5300.00,0.58
5299.00,0.58
5298.00,0.58
5297.00,0.57
5296.00,0.57
5295.00,0.57
5294.00,0.56
5293.00,0.56
5292.00,0.56
5291.00,0.56
5290.00,0.56
5289.00,0.55
5288.00,0.55
5287.00,0.55
5286.00,0.55
5285.00,0.55
5284.00,0.55
5283.00,0.55
5282.00,0.54
5281.00,0.54
5280.00,0.54
5279.00,0.54
5278.00,0.54
5277.00,0.54
5276.00,0.54
5275.00,0.54
5274.00,0.54
5273.00,0.54
5272.00,0.54
5271.00,0.53
5270.00,0.53
5269.00,0.53
5268.00,0.53
5267.00,0.53
5266.00,0.53
5265.00,0.53
5264.00,0.53
5263.00,0.53
5262.00,0.53
5261.00,0.53
5260.00,0.53
5259.00,0.53
5258.00,0.53
5257.00,0.53
5256.00,0.53
5255.00,0.53
5254.00,0.53
5253.00,0.53
5252.00,0.53
5251.00,0.53
5250.00,0.53
5249.00,0.53
5248.00,0.53
5247.00,0.53
5246.00,0.53
5245.00,0.53
5244.00,0.53
5243.00,0.53
5242.00,0.53
5241.00,0.53
5240.00,0.53
5239.00,0.53
5238.00,0.53
5237.00,0.53
5236.00,0.53
5235.00,0.53
5234.00,0.53
5233.00,0.53
5232.00,0.53
5231.00,0.53
5230.00,0.53
5229.00,0.53
5228.00,0.53
5227.00,0.53
5226.00,0.53
5225.00,0.53
5224.00,0.53
5223.00,0.53
5222.00,0.53
5221.00,0.53
5220.00,0.53
5219.00,0.53
5218.00,0.53
5217.00,0.53
5216.00,0.53
5215.00,0.53
5214.00,0.53
5213.00,0.53
5212.00,0.53
5211.00,0.54
5210.00,0.54
5209.00,0.54
5208.00,0.54
5207.00,0.54
5206.00,0.54
5205.00,0.54
5204.00,0.54
5203.00,0.54
5202.00,0.54
5201.00,0.54
5200.00,0.54
5199.00,0.54
5198.00,0.54
5197.00,0.54
5196.00,0.54
5195.00,0.54
5194.00,0.54
5193.00,0.54
5192.00,0.54
5191.00,0.54
5190.00,0.55
5189.00,0.55
5188.00,0.55
5187.00,0.55
5186.00,0.55
5185.00,0.55
5184.00,0.55
5183.00,0.55
5182.00,0.55
5181.00,0.55
5180.00,0.55
5179.00,0.55
5178.00,0.55
5177.00,0.55
5176.00,0.55
5175.00,0.55
5174.00,0.55
5173.00,0.55
5172.00,0.55
5171.00,0.55
5170.00,0.55
5169.00,0.55
5168.00,0.55
5167.00,0.55
5166.00,0.55
5165.00,0.55
5164.00,0.55
5163.00,0.55
5162.00,0.55
5161.00,0.55
5160.00,0.56
5159.00,0.56
5158.00,0.56
5157.00,0.56
5156.00,0.56
5155.00,0.56
5154.00,0.56
5153.00,0.56
5152.00,0.56
5151.00,0.56
5150.00,0.56
5149.00,0.56
5148.00,0.56
5147.00,0.56
5146.00,0.56
5145.00,0.56
5144.00,0.56
5143.00,0.56
5142.00,0.56
5141.00,0.56
5140.00,0.56
5139.00,0.56
5138.00,0.56
5137.00,0.56
5136.00,0.56
5135.00,0.56
5134.00,0.56
5133.00,0.56
5132.00,0.56
5131.00,0.56
5130.00,0.56
5129.00,0.56
5128.00,0.56
5127.00,0.56
5126.00,0.56
5125.00,0.56
5124.00,0.56
5123.00,0.57
5122.00,0.57
5121.00,0.57
5120.00,0.57
5119.00,0.57
5118.00,0.57
5117.00,0.57
5116.00,0.57
5115.00,0.57
5114.00,0.57
5113.00,0.57
5112.00,0.57
5111.00,0.57
5110.00,0.57
5109.00,0.57
5108.00,0.57
5107.00,0.57
5106.00,0.57
5105.00,0.57
5104.00,0.57
5103.00,0.57
5102.00,0.57
5101.00,0.57
5100.00,0.57
5099.00,0.57
5098.00,0.57
5097.00,0.57
5096.00,0.57
5095.00,0.57
5094.00,0.57
5093.00,0.57
5092.00,0.57
5091.00,0.57
5090.00,0.57
5089.00,0.57
5088.00,0.57
5087.00,0.57
5086.00,0.58
5085.00,0.58
5084.00,0.58
5083.00,0.58
5082.00,0.58
5081.00,0.58
5080.00,0.58
5079.00,0.58
5078.00,0.58
5077.00,0.58
5076.00,0.58
5075.00,0.58
5074.00,0.58
5073.00,0.58
5072.00,0.58
5071.00,0.58
5070.00,0.59
5069.00,0.59
5068.00,0.59
5067.00,0.59
5066.00,0.59
5065.00,0.59
5064.00,0.59
5063.00,0.59
5062.00,0.59
5061.00,0.59
5060.00,0.59
5059.00,0.59
5058.00,0.59
5057.00,0.59
5056.00,0.59
5055.00,0.59
5054.00,0.59
5053.00,0.59
5052.00,0.59
5051.00,0.59
5050.00,0.59
5049.00,0.59
5048.00,0.60
5047.00,0.60
5046.00,0.60
5045.00,0.60
5044.00,0.60
5043.00,0.60
5042.00,0.60
5041.00,0.60
5040.00,0.60
5039.00,0.60
5038.00,0.60
5037.00,0.60
5036.00,0.60
5035.00,0.60
5034.00,0.60
5033.00,0.60
5032.00,0.60
5031.00,0.60
5030.00,0.60
5029.00,0.60
5028.00,0.60
5027.00,0.60
5026.00,0.60
5025.00,0.60
5024.00,0.60
5023.00,0.60
5022.00,0.60
5021.00,0.60
5020.00,0.60
5019.00,0.60
5018.00,0.60
5017.00,0.60
5016.00,0.60
5015.00,0.61
5014.00,0.61
5013.00,0.61
5012.00,0.61
5011.00,0.61
5010.00,0.61
5009.00,0.61
5008.00,0.61
5007.00,0.61
5006.00,0.61
5005.00,0.61
5004.00,0.62
5003.00,0.62
5002.00,0.62
5001.00,0.62
5000.00,0.62
4999.00,0.62
4998.00,0.62
4997.00,0.62
4996.00,0.62
4995.00,0.62
4994.00,0.62
4993.00,0.62
4992.00,0.62
4991.00,0.62
4990.00,0.62
4989.00,0.62
4988.00,0.62
4987.00,0.62
4986.00,0.63
4985.00,0.63
4984.00,0.63
4983.00,0.63
4982.00,0.63
4981.00,0.63
4980.00,0.63
4979.00,0.63
4978.00,0.63
4977.00,0.63
4976.00,0.63
4975.00,0.63
4974.00,0.63
4973.00,0.63
4972.00,0.63
4971.00,0.63
4970.00,0.63
4969.00,0.64
4968.00,0.64
4967.00,0.64
4966.00,0.64
4965.00,0.64
4964.00,0.64
4963.00,0.64
4962.00,0.64
4961.00,0.64
4960.00,0.64
4959.00,0.64
4958.00,0.64
4957.00,0.64
4956.00,0.64
4955.00,0.64
4954.00,0.64
4953.00,0.64
4952.00,0.64
4951.00,0.64
4950.00,0.64
4949.00,0.64
4948.00,0.64
4947.00,0.64
4946.00,0.64
4945.00,0.64
4944.00,0.64
4943.00,0.64
4942.00,0.64
4941.00,0.65
4940.00,0.65
4939.00,0.65
4938.00,0.65
4937.00,0.65
4936.00,0.65
4935.00,0.65
4934.00,0.65
4933.00,0.65
4932.00,0.65
4931.00,0.65
4930.00,0.65
4929.00,0.66
4928.00,0.66
4927.00,0.66
4926.00,0.66
4925.00,0.66
4924.00,0.66
4923.00,0.66
4922.00,0.66
4921.00,0.66
4920.00,0.67
4919.00,0.67
4918.00,0.67
4917.00,0.67
4916.00,0.67
4915.00,0.67
4914.00,0.67
4913.00,0.67
4912.00,0.67
4911.00,0.67
4910.00,0.67
4909.00,0.67
4908.00,0.67
4907.00,0.67
4906.00,0.67
4905.00,0.67
4904.00,0.67
4903.00,0.67
4902.00,0.67
4901.00,0.67
4900.00,0.67
4899.00,0.67
4898.00,0.67
4897.00,0.67
4896.00,0.67
4895.00,0.67
4894.00,0.67
4893.00,0.67
4892.00,0.67
4891.00,0.67
4890.00,0.67
4889.00,0.67
4888.00,0.68
4887.00,0.68
4886.00,0.68
4885.00,0.68
4884.00,0.68
4883.00,0.68
4882.00,0.68
4881.00,0.68
4880.00,0.68
4879.00,0.68
4878.00,0.69
4877.00,0.69
4876.00,0.69
4875.00,0.69
4874.00,0.69
4873.00,0.69
4872.00,0.69
4871.00,0.69
4870.00,0.69
4869.00,0.69
4868.00,0.69
4867.00,0.69
4866.00,0.69
4865.00,0.69
4864.00,0.69
4863.00,0.69
4862.00,0.69
4861.00,0.69
4860.00,0.69
4859.00,0.69
4858.00,0.69
4857.00,0.69
4856.00,0.69
4855.00,0.69
4854.00,0.69
4853.00,0.69
4852.00,0.69
4851.00,0.69
4850.00,0.69
4849.00,0.69
4848.00,0.69
4847.00,0.69
4846.00,0.69
4845.00,0.69
4844.00,0.69
4843.00,0.69
4842.00,0.69
4841.00,0.69
4840.00,0.69
4839.00,0.69
4838.00,0.69
4837.00,0.69
4836.00,0.69
4835.00,0.69
4834.00,0.70
4833.00,0.70
4832.00,0.70
4831.00,0.70
4830.00,0.70
4829.00,0.70
4828.00,0.70
4827.00,0.70
4826.00,0.70
4825.00,0.70
4824.00,0.70
4823.00,0.70
4822.00,0.71
4821.00,0.71
4820.00,0.71
4819.00,0.71
4818.00,0.71
4817.00,0.71
4816.00,0.71
4815.00,0.71
4814.00,0.71
4813.00,0.71
4812.00,0.71
4811.00,0.71
4810.00,0.71
4809.00,0.71
4808.00,0.71
4807.00,0.71
4806.00,0.71
4805.00,0.71
4804.00,0.71
4803.00,0.71
4802.00,0.71
4801.00,0.71
4800.00,0.72
4799.00,0.72
4798.00,0.72
4797.00,0.72
4796.00,0.72
4795.00,0.72
4794.00,0.72
4793.00,0.72
4792.00,0.72
4791.00,0.72
4790.00,0.72
4789.00,0.72
4788.00,0.72
4787.00,0.73
4786.00,0.73
4785.00,0.73
4784.00,0.73
4783.00,0.73
4782.00,0.73
4781.00,0.73
4780.00,0.73
4779.00,0.73
4778.00,0.73
4777.00,0.74
4776.00,0.74
4775.00,0.74
4774.00,0.74
4773.00,0.74
4772.00,0.74
4771.00,0.74
4770.00,0.75
4769.00,0.75
4768.00,0.75
4767.00,0.75
4766.00,0.75
4765.00,0.75
4764.00,0.75
4763.00,0.76
4762.00,0.76
4761.00,0.76
4760.00,0.76
4759.00,0.76
4758.00,0.76
4757.00,0.76
4756.00,0.77
4755.00,0.77
4754.00,0.77
4753.00,0.77
4752.00,0.77
4751.00,0.77
4750.00,0.77
4749.00,0.77
4748.00,0.77
4747.00,0.77
4746.00,0.77
4745.00,0.77
4744.00,0.77
4743.00,0.77
4742.00,0.77
4741.00,0.78
4740.00,0.78
4739.00,0.78
4738.00,0.78
4737.00,0.78
4736.00,0.78
4735.00,0.78
4734.00,0.78
4733.00,0.78
4732.00,0.78
4731.00,0.78
4730.00,0.78
4729.00,0.78
4728.00,0.78
4727.00,0.78
4726.00,0.78
4725.00,0.78
4724.00,0.79
4723.00,0.79
4722.00,0.79
4721.00,0.79
4720.00,0.79
4719.00,0.79
4718.00,0.79
4717.00,0.79
4716.00,0.79
4715.00,0.80
4714.00,0.80
4713.00,0.80
4712.00,0.80
4711.00,0.80
4710.00,0.80
4709.00,0.80
4708.00,0.80
4707.00,0.81
4706.00,0.81
4705.00,0.81
4704.00,0.81
4703.00,0.81
4702.00,0.81
4701.00,0.81
4700.00,0.81
4699.00,0.81
4698.00,0.81
4697.00,0.82
4696.00,0.82
4695.00,0.82
4694.00,0.82
4693.00,0.82
4692.00,0.82
4691.00,0.82
4690.00,0.83
4689.00,0.83
4688.00,0.83
4687.00,0.83
4686.00,0.83
4685.00,0.83
4684.00,0.83
4683.00,0.84
4682.00,0.84
4681.00,0.84
4680.00,0.84
4679.00,0.84
4678.00,0.84
4677.00,0.84
4676.00,0.84
4675.00,0.84
4674.00,0.84
4673.00,0.84
4672.00,0.84
4671.00,0.84
4670.00,0.84
4669.00,0.84
4668.00,0.85
4667.00,0.85
4666.00,0.85
4665.00,0.85
4664.00,0.85
4663.00,0.85
4662.00,0.85
4661.00,0.85
4660.00,0.85
4659.00,0.85
4658.00,0.86
4657.00,0.86
4656.00,0.86
4655.00,0.86
4654.00,0.86
4653.00,0.86
4652.00,0.87
4651.00,0.87
4650.00,0.87
4649.00,0.87
4648.00,0.87
4647.00,0.87
4646.00,0.87
4645.00,0.87
4644.00,0.88
4643.00,0.88
4642.00,0.88
4641.00,0.88
4640.00,0.88
4639.00,0.88
4638.00,0.88
4637.00,0.88
4636.00,0.88
4635.00,0.88
4634.00,0.88
4633.00,0.88
4632.00,0.88
4631.00,0.88
4630.00,0.88
4629.00,0.88
4628.00,0.88
4627.00,0.88
4626.00,0.88
4625.00,0.88
4624.00,0.88
4623.00,0.88
4622.00,0.88
4621.00,0.88
4620.00,0.88
4619.00,0.89
4618.00,0.89
4617.00,0.89
4616.00,0.89
4615.00,0.89
4614.00,0.89
4613.00,0.89
4612.00,0.89
4611.00,0.89
4610.00,0.89
4609.00,0.89
4608.00,0.89
4607.00,0.89
4606.00,0.89
4605.00,0.89
4604.00,0.89
4603.00,0.90
4602.00,0.90
4601.00,0.90
4600.00,0.90
4599.00,0.90
4598.00,0.90
4597.00,0.90
4596.00,0.91
4595.00,0.91
4594.00,0.91
4593.00,0.91
4592.00,0.91
4591.00,0.91
4590.00,0.91
4589.00,0.92
4588.00,0.92
4587.00,0.92
4586.00,0.92
4585.00,0.92
4584.00,0.92
4583.00,0.92
4582.00,0.92
4581.00,0.92
4580.00,0.92
4579.00,0.92
4578.00,0.92
4577.00,0.92
4576.00,0.92
4575.00,0.92
4574.00,0.92
4573.00,0.92
4572.00,0.92
4571.00,0.92
4570.00,0.92
4569.00,0.92
4568.00,0.92
4567.00,0.92
4566.00,0.93
4565.00,0.93
4564.00,0.93
4563.00,0.93
4562.00,0.93
4561.00,0.93
4560.00,0.93
4559.00,0.93
4558.00,0.93
4557.00,0.94
4556.00,0.94
4555.00,0.94
4554.00,0.94
4553.00,0.94
4552.00,0.94
4551.00,0.94
4550.00,0.94
4549.00,0.94
4548.00,0.94
4547.00,0.94
4546.00,0.94
4545.00,0.94
4544.00,0.94
4543.00,0.95
4542.00,0.95
4541.00,0.95
4540.00,0.95
4539.00,0.95
4538.00,0.95
4537.00,0.95
4536.00,0.95
4535.00,0.95
4534.00,0.95
4533.00,0.95
4532.00,0.95
4531.00,0.95
4530.00,0.96
4529.00,0.96
4528.00,0.96
4527.00,0.96
4526.00,0.96
4525.00,0.96
4524.00,0.96
4523.00,0.96
4522.00,0.96
4521.00,0.96
4520.00,0.96
4519.00,0.96
4518.00,0.96
4517.00,0.95
4516.00,0.95
4515.00,0.95
4514.00,0.95
4513.00,0.95
4512.00,0.95
4511.00,0.95
4510.00,0.95
4509.00,0.95
4508.00,0.95
4507.00,0.95
4506.00,0.95
4505.00,0.95
4504.00,0.95
4503.00,0.95
4502.00,0.95
4501.00,0.95
4500.00,0.95
4499.00,0.95
4498.00,0.95
4497.00,0.95
4496.00,0.95
4495.00,0.95
4494.00,0.95
4493.00,0.95
4492.00,0.95
4491.00,0.95
4490.00,0.95
4489.00,0.95
4488.00,0.95
4487.00,0.95
4486.00,0.95
4485.00,0.94
4484.00,0.94
4483.00,0.94
4482.00,0.94
4481.00,0.94
4480.00,0.94
4479.00,0.94
4478.00,0.93
4477.00,0.93
4476.00,0.93
4475.00,0.93
4474.00,0.93
4473.00,0.93
4472.00,0.93
4471.00,0.92
4470.00,0.92
4469.00,0.92
4468.00,0.92
4467.00,0.92
4466.00,0.92
4465.00,0.92
4464.00,0.91
4463.00,0.91
4462.00,0.91
4461.00,0.91
4460.00,0.91
4459.00,0.90
4458.00,0.90
4457.00,0.90
4456.00,0.90
4455.00,0.90
4454.00,0.89
4453.00,0.89
4452.00,0.89
4451.00,0.89
4450.00,0.88
4449.00,0.88
4448.00,0.88
4447.00,0.88
4446.00,0.87
4445.00,0.87
4444.00,0.87
4443.00,0.87
4442.00,0.87
4441.00,0.86
4440.00,0.86
4439.00,0.86
4438.00,0.86
4437.00,0.86
4436.00,0.86
4435.00,0.86
4434.00,0.85
4433.00,0.85
4432.00,0.85
4431.00,0.85
4430.00,0.85
4429.00,0.85
4428.00,0.85
4427.00,0.85
4426.00,0.85
4425.00,0.85
4424.00,0.84
4423.00,0.84
4422.00,0.84
4421.00,0.84
4420.00,0.84
4419.00,0.84
4418.00,0.84
4417.00,0.84
4416.00,0.84
4415.00,0.84
4414.00,0.84
4413.00,0.84
4412.00,0.84
4411.00,0.84
4410.00,0.84
4409.00,0.84
4408.00,0.85
4407.00,0.85
4406.00,0.85
4405.00,0.85
4404.00,0.85
4403.00,0.85
4402.00,0.85
4401.00,0.85
4400.00,0.85
4399.00,0.85
4398.00,0.85
4397.00,0.85
4396.00,0.85
4395.00,0.85
4394.00,0.85
4393.00,0.85
4392.00,0.85
4391.00,0.85
4390.00,0.85
4389.00,0.85
4388.00,0.85
4387.00,0.85
4386.00,0.85
4385.00,0.85
4384.00,0.86
4383.00,0.86
4382.00,0.86
4381.00,0.86
4380.00,0.86
4379.00,0.86
4378.00,0.86
4377.00,0.86
4376.00,0.86
4375.00,0.86
4374.00,0.86
4373.00,0.86
4372.00,0.86
4371.00,0.87
4370.00,0.87
4369.00,0.87
4368.00,0.87
4367.00,0.87
4366.00,0.87
4365.00,0.87
4364.00,0.87
4363.00,0.87
4362.00,0.87
4361.00,0.87
4360.00,0.87
4359.00,0.87
4358.00,0.87
4357.00,0.87
4356.00,0.87
4355.00,0.87
4354.00,0.87
4353.00,0.87
4352.00,0.87
4351.00,0.87
4350.00,0.87
4349.00,0.87
4348.00,0.87
4347.00,0.87
4346.00,0.87
4345.00,0.87
4344.00,0.87
4343.00,0.87
4342.00,0.87
4341.00,0.87
4340.00,0.87
4339.00,0.87
4338.00,0.87
4337.00,0.87
4336.00,0.87
4335.00,0.87
4334.00,0.87
4333.00,0.87
4332.00,0.87
4331.00,0.88
4330.00,0.88
4329.00,0.88
4328.00,0.88
4327.00,0.88
4326.00,0.88
4325.00,0.88
4324.00,0.88
4323.00,0.88
4322.00,0.88
4321.00,0.88
4320.00,0.89
4319.00,0.89
4318.00,0.89
4317.00,0.89
4316.00,0.89
4315.00,0.89
4314.00,0.89
4313.00,0.89
4312.00,0.89
4311.00,0.90
4310.00,0.90
4309.00,0.90
4308.00,0.90
4307.00,0.90
4306.00,0.90
4305.00,0.90
4304.00,0.90
4303.00,0.90
4302.00,0.91
4301.00,0.91
4300.00,0.91
4299.00,0.91
4298.00,0.91
4297.00,0.91
4296.00,0.92
4295.00,0.92
4294.00,0.92
4293.00,0.92
4292.00,0.92
4291.00,0.92
4290.00,0.92
4289.00,0.92
4288.00,0.92
4287.00,0.92
4286.00,0.92
4285.00,0.92
4284.00,0.92
4283.00,0.92
4282.00,0.92
4281.00,0.92
4280.00,0.92
4279.00,0.92
4278.00,0.92
4277.00,0.92
4276.00,0.92
4275.00,0.92
4274.00,0.92
4273.00,0.92
4272.00,0.92
4271.00,0.92
4270.00,0.92
4269.00,0.92
4268.00,0.93
4267.00,0.93
4266.00,0.93
4265.00,0.93
4264.00,0.93
4263.00,0.93
4262.00,0.93
4261.00,0.93
4260.00,0.92
4259.00,0.92
4258.00,0.92
4257.00,0.92
4256.00,0.92
4255.00,0.93
4254.00,0.93
4253.00,0.93
4252.00,0.93
4251.00,0.93
4250.00,0.93
4249.00,0.93
4248.00,0.93
4247.00,0.93
4246.00,0.93
4245.00,0.93
4244.00,0.93
4243.00,0.93
4242.00,0.93
4241.00,0.93
4240.00,0.93
4239.00,0.93
4238.00,0.93
4237.00,0.93
4236.00,0.93
4235.00,0.93
4234.00,0.93
4233.00,0.93
4232.00,0.93
4231.00,0.93
4230.00,0.94
4229.00,0.94
4228.00,0.94
4227.00,0.94
4226.00,0.94
4225.00,0.94
4224.00,0.94
4223.00,0.94
4222.00,0.94
4221.00,0.94
4220.00,0.95
4219.00,0.95
4218.00,0.95
4217.00,0.95
4216.00,0.95
4215.00,0.95
4214.00,0.95
4213.00,0.95
4212.00,0.95
4211.00,0.95
4210.00,0.95
4209.00,0.95
4208.00,0.95
4207.00,0.95
4206.00,0.95
4205.00,0.95
4204.00,0.95
4203.00,0.95
4202.00,0.95
4201.00,0.95
4200.00,0.95
4199.00,0.95
4198.00,0.95
4197.00,0.95
4196.00,0.95
4195.00,0.95
4194.00,0.95
4193.00,0.96
4192.00,0.96
4191.00,0.96
4190.00,0.96
4189.00,0.96
4188.00,0.96
4187.00,0.96
4186.00,0.96
4185.00,0.96
4184.00,0.96
4183.00,0.96
4182.00,0.96
4181.00,0.96
4180.00,0.96
4179.00,0.96
4178.00,0.96
4177.00,0.96
4176.00,0.96
4175.00,0.96
4174.00,0.96
4173.00,0.96
4172.00,0.96
4171.00,0.96
4170.00,0.96
4169.00,0.96
4168.00,0.96
4167.00,0.96
4166.00,0.96
4165.00,0.97
4164.00,0.97
4163.00,0.97
4162.00,0.97
4161.00,0.97
4160.00,0.97
4159.00,0.97
4158.00,0.97
4157.00,0.97
4156.00,0.97
4155.00,0.97
4154.00,0.98
4153.00,0.98
4152.00,0.97
4151.00,0.97
4150.00,0.97
4149.00,0.97
4148.00,0.97
4147.00,0.97
4146.00,0.97
4145.00,0.97
4144.00,0.97
4143.00,0.97
4142.00,0.97
4141.00,0.97
4140.00,0.97
4139.00,0.97
4138.00,0.97
4137.00,0.97
4136.00,0.98
4135.00,0.98
4134.00,0.98
4133.00,0.98
4132.00,0.98
4131.00,0.98
4130.00,0.98
4129.00,0.98
4128.00,0.98
4127.00,0.98
4126.00,0.98
4125.00,0.98
4124.00,0.98
4123.00,0.98
4122.00,0.98
4121.00,0.98
4120.00,0.98
4119.00,0.98
4118.00,0.98
4117.00,0.98
4116.00,0.98
4115.00,0.98
4114.00,0.98
4113.00,0.98
4112.00,0.99
4111.00,0.99
4110.00,0.99
4109.00,0.99
4108.00,0.99
4107.00,0.99
4106.00,0.99
4105.00,0.99
4104.00,0.99
4103.00,0.99
4102.00,0.99
4101.00,0.99
4100.00,0.99
4099.00,0.99
4098.00,0.99
4097.00,0.99
4096.00,0.99
4095.00,0.99
4094.00,0.99
4093.00,0.99
4092.00,0.99
4091.00,0.99
4090.00,0.99
4089.00,0.99
4088.00,0.99
4087.00,0.99
4086.00,0.99
4085.00,0.99
4084.00,0.99
4083.00,0.99
4082.00,0.99
4081.00,0.99
4080.00,0.99
4079.00,0.99
4078.00,0.99
4077.00,0.99
4076.00,1.00
4075.00,1.00
4074.00,1.00
4073.00,1.00
4072.00,1.00
4071.00,1.00
4070.00,1.00
4069.00,1.00
4068.00,1.01
4067.00,1.01
4066.00,1.01
4065.00,1.01
4064.00,1.01
4063.00,1.01
4062.00,1.01
4061.00,1.01
4060.00,1.01
4059.00,1.01
4058.00,1.02
4057.00,1.02
4056.00,1.02
4055.00,1.02
4054.00,1.02
4053.00,1.02
4052.00,1.02
4051.00,1.02
4050.00,1.02
4049.00,1.02
4048.00,1.02
4047.00,1.02
4046.00,1.02
4045.00,1.02
4044.00,1.02
4043.00,1.02
4042.00,1.02
4041.00,1.02
4040.00,1.02
4039.00,1.02
4038.00,1.02
4037.00,1.01
4036.00,1.01
4035.00,1.01
4034.00,1.01
4033.00,1.01
4032.00,1.01
4031.00,1.01
4030.00,1.01
4029.00,1.01
4028.00,1.01
4027.00,1.01
4026.00,1.01
4025.00,1.01
4024.00,1.02
4023.00,1.02
4022.00,1.02
4021.00,1.02
4020.00,1.02
4019.00,1.02
4018.00,1.03
4017.00,1.03
4016.00,1.03
4015.00,1.03
4014.00,1.03
4013.00,1.03
4012.00,1.03
4011.00,1.04
4010.00,1.04
4009.00,1.04
4008.00,1.04
4007.00,1.04
4006.00,1.04
4005.00,1.05
4004.00,1.05
4003.00,1.05
4002.00,1.05
4001.00,1.06
4000.00,1.06
