创建为新数据集,样品 384 用户 Administrator 日期 星期四, 三月 08 2018
cm-1,%T
10000.00,1.31
9999.00,1.31
9998.00,1.31
9997.00,1.31
9996.00,1.31
9995.00,1.31
9994.00,1.31
9993.00,1.31
9992.00,1.31
9991.00,1.30
9990.00,1.30
9989.00,1.30
9988.00,1.30
9987.00,1.30
9986.00,1.30
9985.00,1.30
9984.00,1.30
9983.00,1.30
9982.00,1.30
9981.00,1.30
9980.00,1.30
9979.00,1.30
9978.00,1.30
9977.00,1.30
9976.00,1.30
9975.00,1.30
9974.00,1.30
9973.00,1.31
9972.00,1.31
9971.00,1.31
9970.00,1.31
9969.00,1.31
9968.00,1.31
9967.00,1.31
9966.00,1.31
9965.00,1.31
9964.00,1.31
9963.00,1.31
9962.00,1.31
9961.00,1.31
9960.00,1.31
9959.00,1.31
9958.00,1.31
9957.00,1.31
9956.00,1.31
9955.00,1.31
9954.00,1.30
9953.00,1.30
9952.00,1.30
9951.00,1.30
9950.00,1.30
9949.00,1.29
9948.00,1.29
9947.00,1.29
9946.00,1.29
9945.00,1.29
9944.00,1.29
9943.00,1.29
9942.00,1.29
9941.00,1.28
9940.00,1.28
9939.00,1.28
9938.00,1.28
9937.00,1.28
9936.00,1.28
9935.00,1.29
9934.00,1.29
9933.00,1.29
9932.00,1.29
9931.00,1.29
9930.00,1.29
9929.00,1.29
9928.00,1.29
9927.00,1.29
9926.00,1.29
9925.00,1.29
9924.00,1.29
9923.00,1.29
9922.00,1.30
9921.00,1.30
9920.00,1.30
9919.00,1.30
9918.00,1.30
9917.00,1.30
9916.00,1.30
9915.00,1.30
9914.00,1.31
9913.00,1.31
9912.00,1.31
9911.00,1.31
9910.00,1.31
9909.00,1.31
9908.00,1.31
9907.00,1.31
9906.00,1.31
9905.00,1.31
9904.00,1.31
9903.00,1.31
9902.00,1.31
9901.00,1.31
9900.00,1.30
9899.00,1.30
9898.00,1.30
9897.00,1.30
9896.00,1.29
9895.00,1.29
9894.00,1.29
9893.00,1.29
9892.00,1.28
9891.00,1.28
9890.00,1.28
9889.00,1.27
9888.00,1.27
9887.00,1.27
9886.00,1.27
9885.00,1.27
9884.00,1.27
9883.00,1.27
9882.00,1.27
9881.00,1.27
9880.00,1.27
9879.00,1.27
9878.00,1.27
9877.00,1.27
9876.00,1.27
9875.00,1.27
9874.00,1.28
9873.00,1.28
9872.00,1.28
9871.00,1.28
9870.00,1.28
9869.00,1.28
9868.00,1.28
9867.00,1.28
9866.00,1.28
9865.00,1.29
9864.00,1.29
9863.00,1.29
9862.00,1.29
9861.00,1.29
9860.00,1.29
9859.00,1.29
9858.00,1.29
9857.00,1.29
9856.00,1.29
9855.00,1.29
9854.00,1.29
9853.00,1.29
9852.00,1.29
9851.00,1.29
9850.00,1.29
9849.00,1.29
9848.00,1.29
9847.00,1.29
9846.00,1.29
9845.00,1.29
9844.00,1.29
9843.00,1.29
9842.00,1.29
9841.00,1.29
9840.00,1.29
9839.00,1.29
9838.00,1.29
9837.00,1.29
9836.00,1.29
9835.00,1.29
9834.00,1.30
9833.00,1.30
9832.00,1.30
9831.00,1.30
9830.00,1.30
9829.00,1.30
9828.00,1.30
9827.00,1.30
9826.00,1.30
9825.00,1.30
9824.00,1.31
9823.00,1.31
9822.00,1.30
9821.00,1.30
9820.00,1.30
9819.00,1.30
9818.00,1.30
9817.00,1.30
9816.00,1.30
9815.00,1.30
9814.00,1.30
9813.00,1.29
9812.00,1.29
9811.00,1.29
9810.00,1.29
9809.00,1.28
9808.00,1.28
9807.00,1.28
9806.00,1.28
9805.00,1.28
9804.00,1.27
9803.00,1.27
9802.00,1.27
9801.00,1.27
9800.00,1.27
9799.00,1.27
9798.00,1.26
9797.00,1.26
9796.00,1.26
9795.00,1.26
9794.00,1.26
9793.00,1.26
9792.00,1.26
9791.00,1.26
9790.00,1.27
9789.00,1.27
9788.00,1.27
9787.00,1.27
9786.00,1.27
9785.00,1.27
9784.00,1.27
9783.00,1.28
9782.00,1.28
9781.00,1.28
9780.00,1.28
9779.00,1.28
9778.00,1.29
9777.00,1.29
9776.00,1.29
9775.00,1.29
9774.00,1.29
9773.00,1.29
9772.00,1.29
9771.00,1.29
9770.00,1.29
9769.00,1.29
9768.00,1.29
9767.00,1.29
9766.00,1.29
9765.00,1.29
9764.00,1.29
9763.00,1.29
9762.00,1.29
9761.00,1.29
9760.00,1.29
9759.00,1.28
9758.00,1.28
9757.00,1.29
9756.00,1.29
9755.00,1.29
9754.00,1.29
9753.00,1.29
9752.00,1.29
9751.00,1.29
9750.00,1.29
9749.00,1.29
9748.00,1.30
9747.00,1.30
9746.00,1.30
9745.00,1.30
9744.00,1.30
9743.00,1.30
9742.00,1.30
9741.00,1.30
9740.00,1.30
9739.00,1.29
9738.00,1.29
9737.00,1.29
9736.00,1.29
9735.00,1.29
9734.00,1.29
9733.00,1.28
9732.00,1.28
9731.00,1.28
9730.00,1.28
9729.00,1.28
9728.00,1.28
9727.00,1.28
9726.00,1.28
9725.00,1.28
9724.00,1.28
9723.00,1.28
9722.00,1.28
9721.00,1.29
9720.00,1.29
9719.00,1.29
9718.00,1.29
9717.00,1.29
9716.00,1.29
9715.00,1.29
9714.00,1.28
9713.00,1.28
9712.00,1.28
9711.00,1.28
9710.00,1.28
9709.00,1.28
9708.00,1.28
9707.00,1.27
9706.00,1.27
9705.00,1.27
9704.00,1.27
9703.00,1.27
9702.00,1.27
9701.00,1.28
9700.00,1.28
9699.00,1.28
9698.00,1.28
9697.00,1.28
9696.00,1.28
9695.00,1.28
9694.00,1.28
9693.00,1.29
9692.00,1.29
9691.00,1.29
9690.00,1.29
9689.00,1.29
9688.00,1.29
9687.00,1.29
9686.00,1.29
9685.00,1.29
9684.00,1.29
9683.00,1.29
9682.00,1.28
9681.00,1.28
9680.00,1.28
9679.00,1.28
9678.00,1.28
9677.00,1.28
9676.00,1.28
9675.00,1.28
9674.00,1.28
9673.00,1.27
9672.00,1.27
9671.00,1.27
9670.00,1.27
9669.00,1.27
9668.00,1.27
9667.00,1.28
9666.00,1.28
9665.00,1.28
9664.00,1.28
9663.00,1.28
9662.00,1.29
9661.00,1.29
9660.00,1.29
9659.00,1.29
9658.00,1.29
9657.00,1.30
9656.00,1.30
9655.00,1.30
9654.00,1.30
9653.00,1.30
9652.00,1.30
9651.00,1.30
9650.00,1.30
9649.00,1.31
9648.00,1.31
9647.00,1.31
9646.00,1.31
9645.00,1.31
9644.00,1.31
9643.00,1.31
9642.00,1.31
9641.00,1.31
9640.00,1.31
9639.00,1.31
9638.00,1.31
9637.00,1.31
9636.00,1.31
9635.00,1.30
9634.00,1.30
9633.00,1.30
9632.00,1.30
9631.00,1.30
9630.00,1.30
9629.00,1.29
9628.00,1.29
9627.00,1.29
9626.00,1.29
9625.00,1.29
9624.00,1.29
9623.00,1.29
9622.00,1.29
9621.00,1.29
9620.00,1.29
9619.00,1.29
9618.00,1.29
9617.00,1.29
9616.00,1.30
9615.00,1.30
9614.00,1.30
9613.00,1.30
9612.00,1.30
9611.00,1.30
9610.00,1.30
9609.00,1.31
9608.00,1.31
9607.00,1.31
9606.00,1.31
9605.00,1.31
9604.00,1.31
9603.00,1.31
9602.00,1.31
9601.00,1.31
9600.00,1.31
9599.00,1.31
9598.00,1.31
9597.00,1.31
9596.00,1.31
9595.00,1.30
9594.00,1.30
9593.00,1.30
9592.00,1.30
9591.00,1.30
9590.00,1.29
9589.00,1.29
9588.00,1.29
9587.00,1.29
9586.00,1.29
9585.00,1.29
9584.00,1.28
9583.00,1.28
9582.00,1.28
9581.00,1.28
9580.00,1.28
9579.00,1.28
9578.00,1.28
9577.00,1.28
9576.00,1.28
9575.00,1.28
9574.00,1.28
9573.00,1.28
9572.00,1.28
9571.00,1.28
9570.00,1.28
9569.00,1.28
9568.00,1.28
9567.00,1.29
9566.00,1.29
9565.00,1.29
9564.00,1.29
9563.00,1.29
9562.00,1.29
9561.00,1.29
9560.00,1.29
9559.00,1.29
9558.00,1.29
9557.00,1.29
9556.00,1.29
9555.00,1.29
9554.00,1.29
9553.00,1.29
9552.00,1.29
9551.00,1.29
9550.00,1.30
9549.00,1.30
9548.00,1.30
9547.00,1.30
9546.00,1.30
9545.00,1.30
9544.00,1.30
9543.00,1.30
9542.00,1.30
9541.00,1.30
9540.00,1.30
9539.00,1.30
9538.00,1.31
9537.00,1.31
9536.00,1.31
9535.00,1.31
9534.00,1.31
9533.00,1.30
9532.00,1.30
9531.00,1.30
9530.00,1.30
9529.00,1.30
9528.00,1.30
9527.00,1.30
9526.00,1.30
9525.00,1.30
9524.00,1.29
9523.00,1.29
9522.00,1.29
9521.00,1.29
9520.00,1.29
9519.00,1.29
9518.00,1.29
9517.00,1.28
9516.00,1.28
9515.00,1.28
9514.00,1.28
9513.00,1.28
9512.00,1.28
9511.00,1.28
9510.00,1.28
9509.00,1.28
9508.00,1.28
9507.00,1.28
9506.00,1.28
9505.00,1.28
9504.00,1.28
9503.00,1.28
9502.00,1.29
9501.00,1.29
9500.00,1.29
9499.00,1.29
9498.00,1.29
9497.00,1.29
9496.00,1.30
9495.00,1.30
9494.00,1.30
9493.00,1.30
9492.00,1.30
9491.00,1.30
9490.00,1.30
9489.00,1.30
9488.00,1.30
9487.00,1.30
9486.00,1.30
9485.00,1.30
9484.00,1.30
9483.00,1.30
9482.00,1.30
9481.00,1.30
9480.00,1.30
9479.00,1.29
9478.00,1.29
9477.00,1.29
9476.00,1.29
9475.00,1.29
9474.00,1.29
9473.00,1.29
9472.00,1.29
9471.00,1.29
9470.00,1.28
9469.00,1.28
9468.00,1.28
9467.00,1.28
9466.00,1.28
9465.00,1.28
9464.00,1.28
9463.00,1.28
9462.00,1.28
9461.00,1.28
9460.00,1.28
9459.00,1.28
9458.00,1.28
9457.00,1.28
9456.00,1.28
9455.00,1.28
9454.00,1.28
9453.00,1.28
9452.00,1.29
9451.00,1.29
9450.00,1.29
9449.00,1.29
9448.00,1.29
9447.00,1.29
9446.00,1.29
9445.00,1.30
9444.00,1.30
9443.00,1.30
9442.00,1.30
9441.00,1.30
9440.00,1.30
9439.00,1.30
9438.00,1.30
9437.00,1.30
9436.00,1.30
9435.00,1.30
9434.00,1.30
9433.00,1.30
9432.00,1.30
9431.00,1.30
9430.00,1.30
9429.00,1.30
9428.00,1.30
9427.00,1.30
9426.00,1.30
9425.00,1.29
9424.00,1.29
9423.00,1.29
9422.00,1.29
9421.00,1.29
9420.00,1.30
9419.00,1.30
9418.00,1.30
9417.00,1.30
9416.00,1.30
9415.00,1.30
9414.00,1.30
9413.00,1.30
9412.00,1.30
9411.00,1.30
9410.00,1.29
9409.00,1.29
9408.00,1.29
9407.00,1.29
9406.00,1.29
9405.00,1.29
9404.00,1.29
9403.00,1.28
9402.00,1.28
9401.00,1.28
9400.00,1.28
9399.00,1.28
9398.00,1.28
9397.00,1.28
9396.00,1.28
9395.00,1.28
9394.00,1.28
9393.00,1.28
9392.00,1.28
9391.00,1.28
9390.00,1.28
9389.00,1.28
9388.00,1.28
9387.00,1.28
9386.00,1.28
9385.00,1.28
9384.00,1.28
9383.00,1.28
9382.00,1.28
9381.00,1.28
9380.00,1.28
9379.00,1.28
9378.00,1.28
9377.00,1.28
9376.00,1.28
9375.00,1.28
9374.00,1.29
9373.00,1.29
9372.00,1.29
9371.00,1.29
9370.00,1.29
9369.00,1.29
9368.00,1.29
9367.00,1.29
9366.00,1.29
9365.00,1.29
9364.00,1.29
9363.00,1.29
9362.00,1.29
9361.00,1.29
9360.00,1.29
9359.00,1.29
9358.00,1.29
9357.00,1.29
9356.00,1.29
9355.00,1.29
9354.00,1.29
9353.00,1.29
9352.00,1.29
9351.00,1.29
9350.00,1.29
9349.00,1.29
9348.00,1.29
9347.00,1.29
9346.00,1.29
9345.00,1.29
9344.00,1.29
9343.00,1.28
9342.00,1.28
9341.00,1.28
9340.00,1.28
9339.00,1.28
9338.00,1.27
9337.00,1.27
9336.00,1.27
9335.00,1.27
9334.00,1.27
9333.00,1.27
9332.00,1.27
9331.00,1.26
9330.00,1.26
9329.00,1.27
9328.00,1.27
9327.00,1.27
9326.00,1.27
9325.00,1.27
9324.00,1.27
9323.00,1.27
9322.00,1.27
9321.00,1.28
9320.00,1.28
9319.00,1.28
9318.00,1.28
9317.00,1.28
9316.00,1.29
9315.00,1.29
9314.00,1.29
9313.00,1.29
9312.00,1.29
9311.00,1.29
9310.00,1.29
9309.00,1.29
9308.00,1.29
9307.00,1.29
9306.00,1.29
9305.00,1.29
9304.00,1.29
9303.00,1.29
9302.00,1.29
9301.00,1.29
9300.00,1.29
9299.00,1.29
9298.00,1.29
9297.00,1.29
9296.00,1.29
9295.00,1.29
9294.00,1.29
9293.00,1.29
9292.00,1.29
9291.00,1.29
9290.00,1.29
9289.00,1.30
9288.00,1.30
9287.00,1.30
9286.00,1.30
9285.00,1.30
9284.00,1.30
9283.00,1.30
9282.00,1.30
9281.00,1.31
9280.00,1.31
9279.00,1.31
9278.00,1.31
9277.00,1.31
9276.00,1.31
9275.00,1.30
9274.00,1.30
9273.00,1.30
9272.00,1.30
9271.00,1.30
9270.00,1.30
9269.00,1.30
9268.00,1.30
9267.00,1.30
9266.00,1.30
9265.00,1.30
9264.00,1.30
9263.00,1.30
9262.00,1.30
9261.00,1.31
9260.00,1.31
9259.00,1.31
9258.00,1.31
9257.00,1.31
9256.00,1.31
9255.00,1.31
9254.00,1.31
9253.00,1.31
9252.00,1.31
9251.00,1.31
9250.00,1.31
9249.00,1.31
9248.00,1.31
9247.00,1.31
9246.00,1.30
9245.00,1.30
9244.00,1.30
9243.00,1.30
9242.00,1.30
9241.00,1.30
9240.00,1.29
9239.00,1.29
9238.00,1.29
9237.00,1.29
9236.00,1.29
9235.00,1.29
9234.00,1.29
9233.00,1.29
9232.00,1.29
9231.00,1.29
9230.00,1.29
9229.00,1.28
9228.00,1.28
9227.00,1.28
9226.00,1.28
9225.00,1.28
9224.00,1.28
9223.00,1.28
9222.00,1.29
9221.00,1.29
9220.00,1.29
9219.00,1.29
9218.00,1.29
9217.00,1.29
9216.00,1.29
9215.00,1.30
9214.00,1.30
9213.00,1.30
9212.00,1.30
9211.00,1.30
9210.00,1.30
9209.00,1.30
9208.00,1.30
9207.00,1.30
9206.00,1.30
9205.00,1.30
9204.00,1.30
9203.00,1.30
9202.00,1.30
9201.00,1.30
9200.00,1.30
9199.00,1.30
9198.00,1.30
9197.00,1.30
9196.00,1.30
9195.00,1.30
9194.00,1.30
9193.00,1.30
9192.00,1.30
9191.00,1.30
9190.00,1.30
9189.00,1.30
9188.00,1.30
9187.00,1.30
9186.00,1.30
9185.00,1.30
9184.00,1.30
9183.00,1.29
9182.00,1.29
9181.00,1.29
9180.00,1.29
9179.00,1.29
9178.00,1.29
9177.00,1.29
9176.00,1.29
9175.00,1.29
9174.00,1.29
9173.00,1.29
9172.00,1.29
9171.00,1.28
9170.00,1.28
9169.00,1.28
9168.00,1.28
9167.00,1.28
9166.00,1.28
9165.00,1.28
9164.00,1.28
9163.00,1.28
9162.00,1.28
9161.00,1.29
9160.00,1.29
9159.00,1.29
9158.00,1.29
9157.00,1.29
9156.00,1.30
9155.00,1.30
9154.00,1.30
9153.00,1.30
9152.00,1.30
9151.00,1.31
9150.00,1.31
9149.00,1.31
9148.00,1.31
9147.00,1.31
9146.00,1.31
9145.00,1.31
9144.00,1.31
9143.00,1.31
9142.00,1.31
9141.00,1.31
9140.00,1.31
9139.00,1.31
9138.00,1.30
9137.00,1.30
9136.00,1.30
9135.00,1.30
9134.00,1.30
9133.00,1.30
9132.00,1.30
9131.00,1.30
9130.00,1.30
9129.00,1.30
9128.00,1.30
9127.00,1.30
9126.00,1.30
9125.00,1.31
9124.00,1.31
9123.00,1.31
9122.00,1.31
9121.00,1.31
9120.00,1.31
9119.00,1.31
9118.00,1.31
9117.00,1.31
9116.00,1.31
9115.00,1.31
9114.00,1.31
9113.00,1.31
9112.00,1.31
9111.00,1.31
9110.00,1.31
9109.00,1.30
9108.00,1.30
9107.00,1.30
9106.00,1.30
9105.00,1.30
9104.00,1.30
9103.00,1.30
9102.00,1.29
9101.00,1.29
9100.00,1.29
9099.00,1.30
9098.00,1.30
9097.00,1.30
9096.00,1.30
9095.00,1.30
9094.00,1.30
9093.00,1.30
9092.00,1.30
9091.00,1.31
9090.00,1.31
9089.00,1.31
9088.00,1.31
9087.00,1.31
9086.00,1.31
9085.00,1.31
9084.00,1.31
9083.00,1.31
9082.00,1.31
9081.00,1.31
9080.00,1.30
9079.00,1.30
9078.00,1.30
9077.00,1.30
9076.00,1.30
9075.00,1.30
9074.00,1.29
9073.00,1.29
9072.00,1.29
9071.00,1.29
9070.00,1.29
9069.00,1.29
9068.00,1.29
9067.00,1.29
9066.00,1.29
9065.00,1.29
9064.00,1.29
9063.00,1.29
9062.00,1.29
9061.00,1.29
9060.00,1.29
9059.00,1.29
9058.00,1.29
9057.00,1.29
9056.00,1.29
9055.00,1.29
9054.00,1.29
9053.00,1.29
9052.00,1.29
9051.00,1.29
9050.00,1.28
9049.00,1.28
9048.00,1.28
9047.00,1.28
9046.00,1.28
9045.00,1.28
9044.00,1.28
9043.00,1.28
9042.00,1.28
9041.00,1.28
9040.00,1.28
9039.00,1.28
9038.00,1.28
9037.00,1.28
9036.00,1.28
9035.00,1.28
9034.00,1.29
9033.00,1.29
9032.00,1.29
9031.00,1.29
9030.00,1.29
9029.00,1.29
9028.00,1.30
9027.00,1.30
9026.00,1.30
9025.00,1.30
9024.00,1.30
9023.00,1.30
9022.00,1.30
9021.00,1.30
9020.00,1.30
9019.00,1.31
9018.00,1.31
9017.00,1.31
9016.00,1.31
9015.00,1.31
9014.00,1.31
9013.00,1.31
9012.00,1.31
9011.00,1.31
9010.00,1.31
9009.00,1.31
9008.00,1.31
9007.00,1.31
9006.00,1.31
9005.00,1.31
9004.00,1.31
9003.00,1.31
9002.00,1.31
9001.00,1.31
9000.00,1.31
8999.00,1.31
8998.00,1.31
8997.00,1.31
8996.00,1.31
8995.00,1.31
8994.00,1.31
8993.00,1.31
8992.00,1.31
8991.00,1.31
8990.00,1.30
8989.00,1.30
8988.00,1.30
8987.00,1.30
8986.00,1.30
8985.00,1.30
8984.00,1.30
8983.00,1.30
8982.00,1.30
8981.00,1.30
8980.00,1.30
8979.00,1.30
8978.00,1.30
8977.00,1.30
8976.00,1.30
8975.00,1.31
8974.00,1.31
8973.00,1.31
8972.00,1.31
8971.00,1.31
8970.00,1.31
8969.00,1.31
8968.00,1.31
8967.00,1.31
8966.00,1.31
8965.00,1.31
8964.00,1.31
8963.00,1.31
8962.00,1.31
8961.00,1.31
8960.00,1.30
8959.00,1.30
8958.00,1.30
8957.00,1.30
8956.00,1.30
8955.00,1.30
8954.00,1.30
8953.00,1.30
8952.00,1.29
8951.00,1.29
8950.00,1.29
8949.00,1.29
8948.00,1.29
8947.00,1.29
8946.00,1.29
8945.00,1.30
8944.00,1.30
8943.00,1.30
8942.00,1.30
8941.00,1.30
8940.00,1.30
8939.00,1.30
8938.00,1.30
8937.00,1.29
8936.00,1.29
8935.00,1.29
8934.00,1.29
8933.00,1.29
8932.00,1.29
8931.00,1.29
8930.00,1.29
8929.00,1.29
8928.00,1.29
8927.00,1.29
8926.00,1.29
8925.00,1.29
8924.00,1.29
8923.00,1.29
8922.00,1.29
8921.00,1.29
8920.00,1.29
8919.00,1.29
8918.00,1.29
8917.00,1.29
8916.00,1.29
8915.00,1.29
8914.00,1.29
8913.00,1.29
8912.00,1.29
8911.00,1.30
8910.00,1.30
8909.00,1.30
8908.00,1.30
8907.00,1.30
8906.00,1.30
8905.00,1.30
8904.00,1.30
8903.00,1.30
8902.00,1.30
8901.00,1.30
8900.00,1.30
8899.00,1.30
8898.00,1.30
8897.00,1.30
8896.00,1.30
8895.00,1.30
8894.00,1.29
8893.00,1.29
8892.00,1.29
8891.00,1.29
8890.00,1.29
8889.00,1.29
8888.00,1.29
8887.00,1.29
8886.00,1.29
8885.00,1.29
8884.00,1.29
8883.00,1.29
8882.00,1.29
8881.00,1.29
8880.00,1.29
8879.00,1.29
8878.00,1.29
8877.00,1.29
8876.00,1.29
8875.00,1.29
8874.00,1.29
8873.00,1.29
8872.00,1.29
8871.00,1.29
8870.00,1.29
8869.00,1.29
8868.00,1.29
8867.00,1.29
8866.00,1.29
8865.00,1.29
8864.00,1.29
8863.00,1.29
8862.00,1.29
8861.00,1.29
8860.00,1.29
8859.00,1.29
8858.00,1.29
8857.00,1.29
8856.00,1.29
8855.00,1.29
8854.00,1.29
8853.00,1.29
8852.00,1.29
8851.00,1.29
8850.00,1.29
8849.00,1.29
8848.00,1.29
8847.00,1.28
8846.00,1.28
8845.00,1.28
8844.00,1.29
8843.00,1.29
8842.00,1.29
8841.00,1.29
8840.00,1.29
8839.00,1.29
8838.00,1.29
8837.00,1.29
8836.00,1.29
8835.00,1.29
8834.00,1.29
8833.00,1.29
8832.00,1.29
8831.00,1.29
8830.00,1.29
8829.00,1.30
8828.00,1.30
8827.00,1.30
8826.00,1.30
8825.00,1.30
8824.00,1.29
8823.00,1.29
8822.00,1.29
8821.00,1.29
8820.00,1.29
8819.00,1.29
8818.00,1.29
8817.00,1.29
8816.00,1.29
8815.00,1.29
8814.00,1.29
8813.00,1.29
8812.00,1.28
8811.00,1.28
8810.00,1.28
8809.00,1.28
8808.00,1.28
8807.00,1.28
8806.00,1.28
8805.00,1.27
8804.00,1.27
8803.00,1.27
8802.00,1.27
8801.00,1.27
8800.00,1.27
8799.00,1.27
8798.00,1.27
8797.00,1.27
8796.00,1.27
8795.00,1.27
8794.00,1.27
8793.00,1.27
8792.00,1.27
8791.00,1.27
8790.00,1.27
8789.00,1.26
8788.00,1.26
8787.00,1.26
8786.00,1.26
8785.00,1.26
8784.00,1.26
8783.00,1.26
8782.00,1.26
8781.00,1.25
8780.00,1.25
8779.00,1.25
8778.00,1.25
8777.00,1.25
8776.00,1.25
8775.00,1.25
8774.00,1.25
8773.00,1.25
8772.00,1.25
8771.00,1.25
8770.00,1.25
8769.00,1.25
8768.00,1.25
8767.00,1.25
8766.00,1.25
8765.00,1.25
8764.00,1.25
8763.00,1.25
8762.00,1.25
8761.00,1.25
8760.00,1.25
8759.00,1.26
8758.00,1.26
8757.00,1.26
8756.00,1.26
8755.00,1.26
8754.00,1.26
8753.00,1.26
8752.00,1.26
8751.00,1.26
8750.00,1.26
8749.00,1.26
8748.00,1.26
8747.00,1.26
8746.00,1.26
8745.00,1.25
8744.00,1.25
8743.00,1.25
8742.00,1.25
8741.00,1.25
8740.00,1.25
8739.00,1.24
8738.00,1.24
8737.00,1.24
8736.00,1.24
8735.00,1.24
8734.00,1.24
8733.00,1.23
8732.00,1.23
8731.00,1.23
8730.00,1.23
8729.00,1.23
8728.00,1.23
8727.00,1.23
8726.00,1.23
8725.00,1.22
8724.00,1.22
8723.00,1.22
8722.00,1.22
8721.00,1.22
8720.00,1.22
8719.00,1.22
8718.00,1.22
8717.00,1.22
8716.00,1.22
8715.00,1.23
8714.00,1.23
8713.00,1.23
8712.00,1.23
8711.00,1.23
8710.00,1.23
8709.00,1.23
8708.00,1.23
8707.00,1.23
8706.00,1.24
8705.00,1.24
8704.00,1.24
8703.00,1.24
8702.00,1.24
8701.00,1.24
8700.00,1.24
8699.00,1.24
8698.00,1.24
8697.00,1.24
8696.00,1.24
8695.00,1.24
8694.00,1.24
8693.00,1.24
8692.00,1.24
8691.00,1.24
8690.00,1.24
8689.00,1.24
8688.00,1.23
8687.00,1.23
8686.00,1.23
8685.00,1.23
8684.00,1.23
8683.00,1.23
8682.00,1.23
8681.00,1.23
8680.00,1.23
8679.00,1.23
8678.00,1.23
8677.00,1.22
8676.00,1.22
8675.00,1.22
8674.00,1.23
8673.00,1.23
8672.00,1.23
8671.00,1.23
8670.00,1.23
8669.00,1.23
8668.00,1.23
8667.00,1.23
8666.00,1.23
8665.00,1.23
8664.00,1.23
8663.00,1.23
8662.00,1.23
8661.00,1.24
8660.00,1.24
8659.00,1.24
8658.00,1.24
8657.00,1.24
8656.00,1.24
8655.00,1.24
8654.00,1.23
8653.00,1.23
8652.00,1.23
8651.00,1.23
8650.00,1.23
8649.00,1.23
8648.00,1.23
8647.00,1.23
8646.00,1.23
8645.00,1.23
8644.00,1.23
8643.00,1.23
8642.00,1.23
8641.00,1.23
8640.00,1.23
8639.00,1.23
8638.00,1.23
8637.00,1.23
8636.00,1.23
8635.00,1.23
8634.00,1.23
8633.00,1.23
8632.00,1.22
8631.00,1.22
8630.00,1.22
8629.00,1.22
8628.00,1.21
8627.00,1.21
8626.00,1.21
8625.00,1.21
8624.00,1.20
8623.00,1.20
8622.00,1.20
8621.00,1.20
8620.00,1.20
8619.00,1.20
8618.00,1.20
8617.00,1.20
8616.00,1.20
8615.00,1.20
8614.00,1.20
8613.00,1.21
8612.00,1.21
8611.00,1.21
8610.00,1.21
8609.00,1.21
8608.00,1.21
8607.00,1.21
8606.00,1.21
8605.00,1.21
8604.00,1.21
8603.00,1.21
8602.00,1.21
8601.00,1.20
8600.00,1.20
8599.00,1.20
8598.00,1.20
8597.00,1.20
8596.00,1.20
8595.00,1.20
8594.00,1.20
8593.00,1.20
8592.00,1.20
8591.00,1.20
8590.00,1.20
8589.00,1.20
8588.00,1.20
8587.00,1.20
8586.00,1.20
8585.00,1.20
8584.00,1.20
8583.00,1.20
8582.00,1.20
8581.00,1.20
8580.00,1.20
8579.00,1.20
8578.00,1.20
8577.00,1.20
8576.00,1.20
8575.00,1.20
8574.00,1.20
8573.00,1.20
8572.00,1.20
8571.00,1.20
8570.00,1.20
8569.00,1.20
8568.00,1.20
8567.00,1.20
8566.00,1.20
8565.00,1.19
8564.00,1.19
8563.00,1.19
8562.00,1.19
8561.00,1.19
8560.00,1.19
8559.00,1.19
8558.00,1.19
8557.00,1.19
8556.00,1.19
8555.00,1.19
8554.00,1.19
8553.00,1.19
8552.00,1.19
8551.00,1.19
8550.00,1.19
8549.00,1.19
8548.00,1.19
8547.00,1.19
8546.00,1.19
8545.00,1.18
8544.00,1.18
8543.00,1.18
8542.00,1.18
8541.00,1.18
8540.00,1.18
8539.00,1.18
8538.00,1.18
8537.00,1.18
8536.00,1.18
8535.00,1.17
8534.00,1.17
8533.00,1.17
8532.00,1.17
8531.00,1.17
8530.00,1.17
8529.00,1.17
8528.00,1.17
8527.00,1.17
8526.00,1.17
8525.00,1.16
8524.00,1.16
8523.00,1.16
8522.00,1.16
8521.00,1.16
8520.00,1.16
8519.00,1.15
8518.00,1.15
8517.00,1.15
8516.00,1.15
8515.00,1.15
8514.00,1.15
8513.00,1.14
8512.00,1.14
8511.00,1.14
8510.00,1.14
8509.00,1.14
8508.00,1.14
8507.00,1.14
8506.00,1.14
8505.00,1.14
8504.00,1.14
8503.00,1.14
8502.00,1.14
8501.00,1.15
8500.00,1.15
8499.00,1.15
8498.00,1.15
8497.00,1.15
8496.00,1.15
8495.00,1.15
8494.00,1.15
8493.00,1.15
8492.00,1.15
8491.00,1.15
8490.00,1.15
8489.00,1.14
8488.00,1.14
8487.00,1.14
8486.00,1.14
8485.00,1.14
8484.00,1.14
8483.00,1.14
8482.00,1.13
8481.00,1.13
8480.00,1.13
8479.00,1.13
8478.00,1.12
8477.00,1.12
8476.00,1.12
8475.00,1.12
8474.00,1.12
8473.00,1.11
8472.00,1.11
8471.00,1.11
8470.00,1.11
8469.00,1.11
8468.00,1.10
8467.00,1.10
8466.00,1.10
8465.00,1.10
8464.00,1.10
8463.00,1.10
8462.00,1.10
8461.00,1.10
8460.00,1.10
8459.00,1.10
8458.00,1.10
8457.00,1.10
8456.00,1.10
8455.00,1.10
8454.00,1.10
8453.00,1.10
8452.00,1.10
8451.00,1.10
8450.00,1.10
8449.00,1.10
8448.00,1.10
8447.00,1.10
8446.00,1.10
8445.00,1.10
8444.00,1.10
8443.00,1.09
8442.00,1.09
8441.00,1.09
8440.00,1.09
8439.00,1.09
8438.00,1.09
8437.00,1.09
8436.00,1.09
8435.00,1.09
8434.00,1.09
8433.00,1.09
8432.00,1.09
8431.00,1.09
8430.00,1.09
8429.00,1.09
8428.00,1.09
8427.00,1.09
8426.00,1.09
8425.00,1.09
8424.00,1.09
8423.00,1.09
8422.00,1.09
8421.00,1.10
8420.00,1.10
8419.00,1.10
8418.00,1.10
8417.00,1.10
8416.00,1.10
8415.00,1.10
8414.00,1.10
8413.00,1.11
8412.00,1.11
8411.00,1.11
8410.00,1.11
8409.00,1.11
8408.00,1.11
8407.00,1.11
8406.00,1.11
8405.00,1.11
8404.00,1.11
8403.00,1.11
8402.00,1.11
8401.00,1.11
8400.00,1.11
8399.00,1.11
8398.00,1.11
8397.00,1.11
8396.00,1.11
8395.00,1.11
8394.00,1.11
8393.00,1.11
8392.00,1.12
8391.00,1.12
8390.00,1.12
8389.00,1.12
8388.00,1.12
8387.00,1.12
8386.00,1.12
8385.00,1.13
8384.00,1.13
8383.00,1.13
8382.00,1.13
8381.00,1.13
8380.00,1.13
8379.00,1.14
8378.00,1.14
8377.00,1.14
8376.00,1.14
8375.00,1.14
8374.00,1.14
8373.00,1.14
8372.00,1.14
8371.00,1.14
8370.00,1.14
8369.00,1.15
8368.00,1.15
8367.00,1.15
8366.00,1.15
8365.00,1.15
8364.00,1.15
8363.00,1.15
8362.00,1.15
8361.00,1.15
8360.00,1.15
8359.00,1.15
8358.00,1.15
8357.00,1.15
8356.00,1.15
8355.00,1.15
8354.00,1.15
8353.00,1.15
8352.00,1.15
8351.00,1.15
8350.00,1.15
8349.00,1.15
8348.00,1.15
8347.00,1.15
8346.00,1.15
8345.00,1.15
8344.00,1.15
8343.00,1.15
8342.00,1.15
8341.00,1.15
8340.00,1.15
8339.00,1.15
8338.00,1.15
8337.00,1.15
8336.00,1.15
8335.00,1.15
8334.00,1.15
8333.00,1.15
8332.00,1.15
8331.00,1.15
8330.00,1.15
8329.00,1.15
8328.00,1.15
8327.00,1.15
8326.00,1.15
8325.00,1.15
8324.00,1.15
8323.00,1.15
8322.00,1.15
8321.00,1.15
8320.00,1.15
8319.00,1.16
8318.00,1.16
8317.00,1.16
8316.00,1.16
8315.00,1.16
8314.00,1.16
8313.00,1.16
8312.00,1.16
8311.00,1.16
8310.00,1.16
8309.00,1.16
8308.00,1.16
8307.00,1.16
8306.00,1.16
8305.00,1.16
8304.00,1.16
8303.00,1.16
8302.00,1.16
8301.00,1.16
8300.00,1.16
8299.00,1.16
8298.00,1.16
8297.00,1.16
8296.00,1.16
8295.00,1.16
8294.00,1.15
8293.00,1.15
8292.00,1.15
8291.00,1.15
8290.00,1.15
8289.00,1.15
8288.00,1.16
8287.00,1.16
8286.00,1.16
8285.00,1.16
8284.00,1.16
8283.00,1.16
8282.00,1.16
8281.00,1.16
8280.00,1.16
8279.00,1.16
8278.00,1.16
8277.00,1.17
8276.00,1.17
8275.00,1.17
8274.00,1.17
8273.00,1.17
8272.00,1.17
8271.00,1.17
8270.00,1.17
8269.00,1.17
8268.00,1.17
8267.00,1.17
8266.00,1.17
8265.00,1.17
8264.00,1.17
8263.00,1.17
8262.00,1.17
8261.00,1.17
8260.00,1.17
8259.00,1.17
8258.00,1.17
8257.00,1.17
8256.00,1.17
8255.00,1.17
8254.00,1.17
8253.00,1.17
8252.00,1.17
8251.00,1.17
8250.00,1.17
8249.00,1.17
8248.00,1.17
8247.00,1.18
8246.00,1.18
8245.00,1.18
8244.00,1.18
8243.00,1.18
8242.00,1.18
8241.00,1.18
8240.00,1.18
8239.00,1.18
8238.00,1.18
8237.00,1.18
8236.00,1.18
8235.00,1.18
8234.00,1.18
8233.00,1.18
8232.00,1.18
8231.00,1.18
8230.00,1.18
8229.00,1.18
8228.00,1.18
8227.00,1.18
8226.00,1.18
8225.00,1.18
8224.00,1.18
8223.00,1.18
8222.00,1.18
8221.00,1.18
8220.00,1.18
8219.00,1.18
8218.00,1.18
8217.00,1.18
8216.00,1.18
8215.00,1.18
8214.00,1.19
8213.00,1.19
8212.00,1.19
8211.00,1.19
8210.00,1.19
8209.00,1.19
8208.00,1.20
8207.00,1.20
8206.00,1.20
8205.00,1.20
8204.00,1.20
8203.00,1.20
8202.00,1.20
8201.00,1.20
8200.00,1.20
8199.00,1.20
8198.00,1.20
8197.00,1.20
8196.00,1.20
8195.00,1.20
8194.00,1.20
8193.00,1.20
8192.00,1.20
8191.00,1.20
8190.00,1.20
8189.00,1.20
8188.00,1.20
8187.00,1.20
8186.00,1.20
8185.00,1.20
8184.00,1.20
8183.00,1.20
8182.00,1.20
8181.00,1.20
8180.00,1.20
8179.00,1.20
8178.00,1.20
8177.00,1.20
8176.00,1.20
8175.00,1.20
8174.00,1.20
8173.00,1.20
8172.00,1.20
8171.00,1.20
8170.00,1.20
8169.00,1.20
8168.00,1.20
8167.00,1.20
8166.00,1.20
8165.00,1.20
8164.00,1.20
8163.00,1.20
8162.00,1.20
8161.00,1.20
8160.00,1.20
8159.00,1.20
8158.00,1.20
8157.00,1.20
8156.00,1.20
8155.00,1.20
8154.00,1.21
8153.00,1.21
8152.00,1.21
8151.00,1.21
8150.00,1.21
8149.00,1.21
8148.00,1.21
8147.00,1.21
8146.00,1.21
8145.00,1.22
8144.00,1.22
8143.00,1.22
8142.00,1.22
8141.00,1.22
8140.00,1.22
8139.00,1.22
8138.00,1.22
8137.00,1.22
8136.00,1.22
8135.00,1.22
8134.00,1.22
8133.00,1.22
8132.00,1.22
8131.00,1.22
8130.00,1.22
8129.00,1.22
8128.00,1.22
8127.00,1.22
8126.00,1.22
8125.00,1.22
8124.00,1.22
8123.00,1.22
8122.00,1.22
8121.00,1.22
8120.00,1.22
8119.00,1.22
8118.00,1.23
8117.00,1.23
8116.00,1.23
8115.00,1.23
8114.00,1.23
8113.00,1.23
8112.00,1.23
8111.00,1.23
8110.00,1.23
8109.00,1.23
8108.00,1.23
8107.00,1.23
8106.00,1.23
8105.00,1.23
8104.00,1.23
8103.00,1.23
8102.00,1.23
8101.00,1.23
8100.00,1.23
8099.00,1.23
8098.00,1.23
8097.00,1.23
8096.00,1.23
8095.00,1.23
8094.00,1.23
8093.00,1.23
8092.00,1.23
8091.00,1.23
8090.00,1.23
8089.00,1.23
8088.00,1.24
8087.00,1.24
8086.00,1.24
8085.00,1.24
8084.00,1.24
8083.00,1.24
8082.00,1.24
8081.00,1.24
8080.00,1.24
8079.00,1.24
8078.00,1.24
8077.00,1.24
8076.00,1.24
8075.00,1.24
8074.00,1.24
8073.00,1.24
8072.00,1.24
8071.00,1.24
8070.00,1.24
8069.00,1.24
8068.00,1.24
8067.00,1.24
8066.00,1.24
8065.00,1.25
8064.00,1.25
8063.00,1.25
8062.00,1.25
8061.00,1.25
8060.00,1.25
8059.00,1.25
8058.00,1.25
8057.00,1.25
8056.00,1.25
8055.00,1.26
8054.00,1.26
8053.00,1.26
8052.00,1.26
8051.00,1.26
8050.00,1.26
8049.00,1.26
8048.00,1.26
8047.00,1.26
8046.00,1.26
8045.00,1.26
8044.00,1.26
8043.00,1.26
8042.00,1.26
8041.00,1.26
8040.00,1.26
8039.00,1.26
8038.00,1.26
8037.00,1.26
8036.00,1.26
8035.00,1.25
8034.00,1.25
8033.00,1.25
8032.00,1.25
8031.00,1.25
8030.00,1.25
8029.00,1.25
8028.00,1.25
8027.00,1.25
8026.00,1.25
8025.00,1.25
8024.00,1.25
8023.00,1.25
8022.00,1.25
8021.00,1.25
8020.00,1.25
8019.00,1.25
8018.00,1.26
8017.00,1.26
8016.00,1.26
8015.00,1.26
8014.00,1.26
8013.00,1.26
8012.00,1.26
8011.00,1.26
8010.00,1.26
8009.00,1.26
8008.00,1.26
8007.00,1.26
8006.00,1.26
8005.00,1.26
8004.00,1.26
8003.00,1.26
8002.00,1.26
8001.00,1.26
8000.00,1.26
7999.00,1.26
7998.00,1.25
7997.00,1.25
7996.00,1.25
7995.00,1.25
7994.00,1.25
7993.00,1.25
7992.00,1.25
7991.00,1.25
7990.00,1.25
7989.00,1.25
7988.00,1.25
7987.00,1.25
7986.00,1.25
7985.00,1.25
7984.00,1.25
7983.00,1.25
7982.00,1.25
7981.00,1.25
7980.00,1.25
7979.00,1.25
7978.00,1.25
7977.00,1.26
7976.00,1.26
7975.00,1.26
7974.00,1.26
7973.00,1.26
7972.00,1.26
7971.00,1.26
7970.00,1.26
7969.00,1.27
7968.00,1.27
7967.00,1.27
7966.00,1.27
7965.00,1.27
7964.00,1.27
7963.00,1.27
7962.00,1.27
7961.00,1.27
7960.00,1.27
7959.00,1.28
7958.00,1.28
7957.00,1.28
7956.00,1.28
7955.00,1.28
7954.00,1.28
7953.00,1.28
7952.00,1.28
7951.00,1.28
7950.00,1.28
7949.00,1.28
7948.00,1.28
7947.00,1.28
7946.00,1.28
7945.00,1.28
7944.00,1.28
7943.00,1.28
7942.00,1.28
7941.00,1.28
7940.00,1.28
7939.00,1.28
7938.00,1.28
7937.00,1.28
7936.00,1.28
7935.00,1.28
7934.00,1.28
7933.00,1.28
7932.00,1.28
7931.00,1.28
7930.00,1.28
7929.00,1.28
7928.00,1.28
7927.00,1.28
7926.00,1.28
7925.00,1.28
7924.00,1.28
7923.00,1.28
7922.00,1.28
7921.00,1.28
7920.00,1.28
7919.00,1.28
7918.00,1.29
7917.00,1.29
7916.00,1.29
7915.00,1.29
7914.00,1.29
7913.00,1.29
7912.00,1.29
7911.00,1.29
7910.00,1.29
7909.00,1.29
7908.00,1.28
7907.00,1.28
7906.00,1.28
7905.00,1.28
7904.00,1.28
7903.00,1.28
7902.00,1.28
7901.00,1.28
7900.00,1.28
7899.00,1.28
7898.00,1.28
7897.00,1.28
7896.00,1.28
7895.00,1.28
7894.00,1.28
7893.00,1.28
7892.00,1.28
7891.00,1.28
7890.00,1.28
7889.00,1.29
7888.00,1.29
7887.00,1.29
7886.00,1.29
7885.00,1.29
7884.00,1.29
7883.00,1.29
7882.00,1.29
7881.00,1.29
7880.00,1.29
7879.00,1.29
7878.00,1.29
7877.00,1.29
7876.00,1.29
7875.00,1.29
7874.00,1.29
7873.00,1.29
7872.00,1.29
7871.00,1.29
7870.00,1.29
7869.00,1.29
7868.00,1.29
7867.00,1.29
7866.00,1.29
7865.00,1.29
7864.00,1.29
7863.00,1.29
7862.00,1.29
7861.00,1.29
7860.00,1.29
7859.00,1.29
7858.00,1.29
7857.00,1.29
7856.00,1.29
7855.00,1.29
7854.00,1.29
7853.00,1.29
7852.00,1.29
7851.00,1.29
7850.00,1.29
7849.00,1.29
7848.00,1.29
7847.00,1.29
7846.00,1.29
7845.00,1.29
7844.00,1.29
7843.00,1.29
7842.00,1.29
7841.00,1.29
7840.00,1.29
7839.00,1.29
7838.00,1.29
7837.00,1.30
7836.00,1.30
7835.00,1.30
7834.00,1.30
7833.00,1.30
7832.00,1.30
7831.00,1.30
7830.00,1.30
7829.00,1.30
7828.00,1.30
7827.00,1.30
7826.00,1.30
7825.00,1.30
7824.00,1.30
7823.00,1.30
7822.00,1.30
7821.00,1.30
7820.00,1.30
7819.00,1.30
7818.00,1.30
7817.00,1.30
7816.00,1.30
7815.00,1.30
7814.00,1.30
7813.00,1.30
7812.00,1.30
7811.00,1.30
7810.00,1.30
7809.00,1.30
7808.00,1.30
7807.00,1.30
7806.00,1.31
7805.00,1.31
7804.00,1.31
7803.00,1.31
7802.00,1.31
7801.00,1.31
7800.00,1.31
7799.00,1.31
7798.00,1.31
7797.00,1.31
7796.00,1.31
7795.00,1.31
7794.00,1.31
7793.00,1.31
7792.00,1.31
7791.00,1.31
7790.00,1.31
7789.00,1.31
7788.00,1.31
7787.00,1.31
7786.00,1.31
7785.00,1.31
7784.00,1.30
7783.00,1.30
7782.00,1.30
7781.00,1.30
7780.00,1.30
7779.00,1.30
7778.00,1.30
7777.00,1.30
7776.00,1.30
7775.00,1.30
7774.00,1.30
7773.00,1.30
7772.00,1.30
7771.00,1.30
7770.00,1.30
7769.00,1.30
7768.00,1.30
7767.00,1.30
7766.00,1.30
7765.00,1.30
7764.00,1.30
7763.00,1.30
7762.00,1.30
7761.00,1.30
7760.00,1.30
7759.00,1.31
7758.00,1.31
7757.00,1.31
7756.00,1.31
7755.00,1.31
7754.00,1.31
7753.00,1.31
7752.00,1.31
7751.00,1.31
7750.00,1.31
7749.00,1.31
7748.00,1.31
7747.00,1.31
7746.00,1.31
7745.00,1.31
7744.00,1.31
7743.00,1.31
7742.00,1.31
7741.00,1.31
7740.00,1.31
7739.00,1.31
7738.00,1.31
7737.00,1.31
7736.00,1.31
7735.00,1.31
7734.00,1.31
7733.00,1.31
7732.00,1.31
7731.00,1.31
7730.00,1.31
7729.00,1.31
7728.00,1.31
7727.00,1.31
7726.00,1.31
7725.00,1.31
7724.00,1.31
7723.00,1.31
7722.00,1.31
7721.00,1.31
7720.00,1.31
7719.00,1.31
7718.00,1.31
7717.00,1.31
7716.00,1.31
7715.00,1.31
7714.00,1.31
7713.00,1.31
7712.00,1.31
7711.00,1.31
7710.00,1.31
7709.00,1.31
7708.00,1.31
7707.00,1.31
7706.00,1.31
7705.00,1.31
7704.00,1.31
7703.00,1.31
7702.00,1.31
7701.00,1.31
7700.00,1.31
7699.00,1.31
7698.00,1.31
7697.00,1.31
7696.00,1.31
7695.00,1.31
7694.00,1.31
7693.00,1.31
7692.00,1.31
7691.00,1.31
7690.00,1.31
7689.00,1.31
7688.00,1.31
7687.00,1.31
7686.00,1.31
7685.00,1.31
7684.00,1.31
7683.00,1.31
7682.00,1.31
7681.00,1.31
7680.00,1.31
7679.00,1.31
7678.00,1.31
7677.00,1.31
7676.00,1.31
7675.00,1.31
7674.00,1.31
7673.00,1.31
7672.00,1.30
7671.00,1.30
7670.00,1.30
7669.00,1.30
7668.00,1.30
7667.00,1.30
7666.00,1.30
7665.00,1.30
7664.00,1.30
7663.00,1.30
7662.00,1.30
7661.00,1.30
7660.00,1.30
7659.00,1.30
7658.00,1.30
7657.00,1.30
7656.00,1.30
7655.00,1.30
7654.00,1.30
7653.00,1.30
7652.00,1.30
7651.00,1.30
7650.00,1.30
7649.00,1.30
7648.00,1.30
7647.00,1.30
7646.00,1.30
7645.00,1.30
7644.00,1.30
7643.00,1.31
7642.00,1.31
7641.00,1.31
7640.00,1.31
7639.00,1.31
7638.00,1.31
7637.00,1.31
7636.00,1.31
7635.00,1.31
7634.00,1.31
7633.00,1.31
7632.00,1.31
7631.00,1.31
7630.00,1.31
7629.00,1.31
7628.00,1.31
7627.00,1.31
7626.00,1.31
7625.00,1.31
7624.00,1.31
7623.00,1.31
7622.00,1.31
7621.00,1.31
7620.00,1.31
7619.00,1.31
7618.00,1.31
7617.00,1.31
7616.00,1.31
7615.00,1.31
7614.00,1.31
7613.00,1.31
7612.00,1.31
7611.00,1.31
7610.00,1.31
7609.00,1.31
7608.00,1.31
7607.00,1.31
7606.00,1.31
7605.00,1.31
7604.00,1.31
7603.00,1.31
7602.00,1.31
7601.00,1.31
7600.00,1.31
7599.00,1.30
7598.00,1.30
7597.00,1.30
7596.00,1.30
7595.00,1.30
7594.00,1.30
7593.00,1.30
7592.00,1.30
7591.00,1.30
7590.00,1.30
7589.00,1.30
7588.00,1.30
7587.00,1.29
7586.00,1.29
7585.00,1.29
7584.00,1.29
7583.00,1.29
7582.00,1.29
7581.00,1.29
7580.00,1.29
7579.00,1.29
7578.00,1.29
7577.00,1.30
7576.00,1.30
7575.00,1.30
7574.00,1.30
7573.00,1.30
7572.00,1.30
7571.00,1.30
7570.00,1.30
7569.00,1.30
7568.00,1.30
7567.00,1.30
7566.00,1.30
7565.00,1.30
7564.00,1.30
7563.00,1.30
7562.00,1.30
7561.00,1.30
7560.00,1.30
7559.00,1.30
7558.00,1.29
7557.00,1.29
7556.00,1.29
7555.00,1.29
7554.00,1.29
7553.00,1.29
7552.00,1.29
7551.00,1.29
7550.00,1.29
7549.00,1.29
7548.00,1.29
7547.00,1.29
7546.00,1.29
7545.00,1.29
7544.00,1.29
7543.00,1.29
7542.00,1.29
7541.00,1.29
7540.00,1.29
7539.00,1.29
7538.00,1.29
7537.00,1.29
7536.00,1.29
7535.00,1.29
7534.00,1.29
7533.00,1.29
7532.00,1.29
7531.00,1.29
7530.00,1.29
7529.00,1.29
7528.00,1.29
7527.00,1.29
7526.00,1.29
7525.00,1.29
7524.00,1.29
7523.00,1.29
7522.00,1.29
7521.00,1.29
7520.00,1.29
7519.00,1.29
7518.00,1.29
7517.00,1.29
7516.00,1.29
7515.00,1.29
7514.00,1.29
7513.00,1.29
7512.00,1.29
7511.00,1.29
7510.00,1.28
7509.00,1.28
7508.00,1.28
7507.00,1.28
7506.00,1.28
7505.00,1.28
7504.00,1.28
7503.00,1.28
7502.00,1.28
7501.00,1.28
7500.00,1.29
7499.00,1.29
7498.00,1.29
7497.00,1.29
7496.00,1.29
7495.00,1.29
7494.00,1.29
7493.00,1.28
7492.00,1.28
7491.00,1.28
7490.00,1.28
7489.00,1.28
7488.00,1.28
7487.00,1.28
7486.00,1.28
7485.00,1.28
7484.00,1.27
7483.00,1.27
7482.00,1.27
7481.00,1.27
7480.00,1.27
7479.00,1.27
7478.00,1.27
7477.00,1.27
7476.00,1.26
7475.00,1.26
7474.00,1.26
7473.00,1.26
7472.00,1.26
7471.00,1.26
7470.00,1.26
7469.00,1.26
7468.00,1.26
7467.00,1.26
7466.00,1.25
7465.00,1.25
7464.00,1.25
7463.00,1.25
7462.00,1.25
7461.00,1.25
7460.00,1.25
7459.00,1.25
7458.00,1.25
7457.00,1.25
7456.00,1.25
7455.00,1.25
7454.00,1.25
7453.00,1.25
7452.00,1.25
7451.00,1.25
7450.00,1.25
7449.00,1.25
7448.00,1.25
7447.00,1.25
7446.00,1.25
7445.00,1.25
7444.00,1.25
7443.00,1.25
7442.00,1.25
7441.00,1.25
7440.00,1.25
7439.00,1.25
7438.00,1.25
7437.00,1.24
7436.00,1.24
7435.00,1.24
7434.00,1.24
7433.00,1.24
7432.00,1.24
7431.00,1.24
7430.00,1.24
7429.00,1.24
7428.00,1.24
7427.00,1.23
7426.00,1.23
7425.00,1.23
7424.00,1.23
7423.00,1.23
7422.00,1.23
7421.00,1.23
7420.00,1.23
7419.00,1.23
7418.00,1.22
7417.00,1.22
7416.00,1.22
7415.00,1.22
7414.00,1.22
7413.00,1.22
7412.00,1.22
7411.00,1.21
7410.00,1.21
7409.00,1.21
7408.00,1.21
7407.00,1.21
7406.00,1.21
7405.00,1.21
7404.00,1.20
7403.00,1.20
7402.00,1.20
7401.00,1.20
7400.00,1.20
7399.00,1.20
7398.00,1.20
7397.00,1.20
7396.00,1.20
7395.00,1.20
7394.00,1.19
7393.00,1.19
7392.00,1.19
7391.00,1.19
7390.00,1.19
7389.00,1.19
7388.00,1.19
7387.00,1.19
7386.00,1.19
7385.00,1.19
7384.00,1.19
7383.00,1.19
7382.00,1.19
7381.00,1.18
7380.00,1.18
7379.00,1.18
7378.00,1.18
7377.00,1.18
7376.00,1.18
7375.00,1.18
7374.00,1.18
7373.00,1.18
7372.00,1.18
7371.00,1.17
7370.00,1.17
7369.00,1.17
7368.00,1.17
7367.00,1.17
7366.00,1.17
7365.00,1.17
7364.00,1.17
7363.00,1.17
7362.00,1.17
7361.00,1.17
7360.00,1.17
7359.00,1.17
7358.00,1.17
7357.00,1.17
7356.00,1.17
7355.00,1.17
7354.00,1.17
7353.00,1.17
7352.00,1.17
7351.00,1.17
7350.00,1.17
7349.00,1.17
7348.00,1.17
7347.00,1.17
7346.00,1.17
7345.00,1.17
7344.00,1.17
7343.00,1.17
7342.00,1.17
7341.00,1.16
7340.00,1.16
7339.00,1.16
7338.00,1.16
7337.00,1.16
7336.00,1.17
7335.00,1.17
7334.00,1.17
7333.00,1.16
7332.00,1.16
7331.00,1.16
7330.00,1.16
7329.00,1.16
7328.00,1.16
7327.00,1.16
7326.00,1.16
7325.00,1.16
7324.00,1.16
7323.00,1.16
7322.00,1.16
7321.00,1.16
7320.00,1.16
7319.00,1.15
7318.00,1.15
7317.00,1.15
7316.00,1.15
7315.00,1.15
7314.00,1.15
7313.00,1.15
7312.00,1.15
7311.00,1.15
7310.00,1.15
7309.00,1.15
7308.00,1.15
7307.00,1.14
7306.00,1.14
7305.00,1.14
7304.00,1.14
7303.00,1.14
7302.00,1.14
7301.00,1.14
7300.00,1.14
7299.00,1.13
7298.00,1.13
7297.00,1.13
7296.00,1.13
7295.00,1.13
7294.00,1.13
7293.00,1.13
7292.00,1.12
7291.00,1.12
7290.00,1.12
7289.00,1.12
7288.00,1.12
7287.00,1.12
7286.00,1.12
7285.00,1.12
7284.00,1.11
7283.00,1.11
7282.00,1.11
7281.00,1.11
7280.00,1.11
7279.00,1.11
7278.00,1.11
7277.00,1.10
7276.00,1.10
7275.00,1.10
7274.00,1.10
7273.00,1.10
7272.00,1.10
7271.00,1.10
7270.00,1.10
7269.00,1.10
7268.00,1.10
7267.00,1.10
7266.00,1.09
7265.00,1.09
7264.00,1.09
7263.00,1.09
7262.00,1.09
7261.00,1.09
7260.00,1.09
7259.00,1.09
7258.00,1.08
7257.00,1.08
7256.00,1.08
7255.00,1.08
7254.00,1.08
7253.00,1.07
7252.00,1.07
7251.00,1.07
7250.00,1.07
7249.00,1.07
7248.00,1.06
7247.00,1.06
7246.00,1.06
7245.00,1.05
7244.00,1.05
7243.00,1.05
7242.00,1.05
7241.00,1.04
7240.00,1.04
7239.00,1.04
7238.00,1.04
7237.00,1.03
7236.00,1.03
7235.00,1.03
7234.00,1.02
7233.00,1.02
7232.00,1.02
7231.00,1.01
7230.00,1.01
7229.00,1.00
7228.00,1.00
7227.00,1.00
7226.00,0.99
7225.00,0.99
7224.00,0.98
7223.00,0.98
7222.00,0.98
7221.00,0.97
7220.00,0.97
7219.00,0.97
7218.00,0.96
7217.00,0.96
7216.00,0.95
7215.00,0.95
7214.00,0.95
7213.00,0.94
7212.00,0.94
7211.00,0.94
7210.00,0.94
7209.00,0.93
7208.00,0.93
7207.00,0.93
7206.00,0.92
7205.00,0.92
7204.00,0.92
7203.00,0.91
7202.00,0.91
7201.00,0.90
7200.00,0.90
7199.00,0.90
7198.00,0.89
7197.00,0.89
7196.00,0.89
7195.00,0.88
7194.00,0.88
7193.00,0.87
7192.00,0.87
7191.00,0.87
7190.00,0.86
7189.00,0.86
7188.00,0.85
7187.00,0.85
7186.00,0.85
7185.00,0.84
7184.00,0.84
7183.00,0.84
7182.00,0.83
7181.00,0.83
7180.00,0.83
7179.00,0.82
7178.00,0.82
7177.00,0.82
7176.00,0.81
7175.00,0.81
7174.00,0.81
7173.00,0.81
7172.00,0.80
7171.00,0.80
7170.00,0.80
7169.00,0.79
7168.00,0.79
7167.00,0.79
7166.00,0.78
7165.00,0.78
7164.00,0.78
7163.00,0.78
7162.00,0.77
7161.00,0.77
7160.00,0.77
7159.00,0.77
7158.00,0.76
7157.00,0.76
7156.00,0.76
7155.00,0.76
7154.00,0.75
7153.00,0.75
7152.00,0.75
7151.00,0.74
7150.00,0.74
7149.00,0.74
7148.00,0.73
7147.00,0.73
7146.00,0.73
7145.00,0.73
7144.00,0.72
7143.00,0.72
7142.00,0.72
7141.00,0.71
7140.00,0.71
7139.00,0.71
7138.00,0.71
7137.00,0.70
7136.00,0.70
7135.00,0.70
7134.00,0.70
7133.00,0.69
7132.00,0.69
7131.00,0.69
7130.00,0.69
7129.00,0.68
7128.00,0.68
7127.00,0.68
7126.00,0.68
7125.00,0.67
7124.00,0.67
7123.00,0.67
7122.00,0.67
7121.00,0.67
7120.00,0.66
7119.00,0.66
7118.00,0.66
7117.00,0.66
7116.00,0.66
7115.00,0.65
7114.00,0.65
7113.00,0.65
7112.00,0.65
7111.00,0.65
7110.00,0.64
7109.00,0.64
7108.00,0.64
7107.00,0.64
7106.00,0.63
7105.00,0.63
7104.00,0.63
7103.00,0.63
7102.00,0.62
7101.00,0.62
7100.00,0.62
7099.00,0.62
7098.00,0.61
7097.00,0.61
7096.00,0.61
7095.00,0.61
7094.00,0.61
7093.00,0.60
7092.00,0.60
7091.00,0.60
7090.00,0.60
7089.00,0.60
7088.00,0.59
7087.00,0.59
7086.00,0.59
7085.00,0.59
7084.00,0.59
7083.00,0.59
7082.00,0.59
7081.00,0.59
7080.00,0.58
7079.00,0.58
7078.00,0.58
7077.00,0.58
7076.00,0.58
7075.00,0.58
7074.00,0.58
7073.00,0.57
7072.00,0.57
7071.00,0.57
7070.00,0.57
7069.00,0.57
7068.00,0.57
7067.00,0.56
7066.00,0.56
7065.00,0.56
7064.00,0.56
7063.00,0.56
7062.00,0.56
7061.00,0.56
7060.00,0.55
7059.00,0.55
7058.00,0.55
7057.00,0.55
7056.00,0.55
7055.00,0.55
7054.00,0.54
7053.00,0.54
7052.00,0.54
7051.00,0.54
7050.00,0.54
7049.00,0.54
7048.00,0.53
7047.00,0.53
7046.00,0.53
7045.00,0.53
7044.00,0.53
7043.00,0.53
7042.00,0.53
7041.00,0.53
7040.00,0.53
7039.00,0.52
7038.00,0.52
7037.00,0.52
7036.00,0.52
7035.00,0.52
7034.00,0.52
7033.00,0.52
7032.00,0.52
7031.00,0.51
7030.00,0.51
7029.00,0.51
7028.00,0.51
7027.00,0.51
7026.00,0.51
7025.00,0.51
7024.00,0.51
7023.00,0.51
7022.00,0.50
7021.00,0.50
7020.00,0.50
7019.00,0.50
7018.00,0.50
7017.00,0.50
7016.00,0.50
7015.00,0.50
7014.00,0.50
7013.00,0.50
7012.00,0.50
7011.00,0.50
7010.00,0.50
7009.00,0.50
7008.00,0.50
7007.00,0.50
7006.00,0.50
7005.00,0.50
7004.00,0.50
7003.00,0.50
7002.00,0.50
7001.00,0.50
7000.00,0.50
6999.00,0.50
6998.00,0.49
6997.00,0.49
6996.00,0.49
6995.00,0.49
6994.00,0.49
6993.00,0.49
6992.00,0.49
6991.00,0.49
6990.00,0.49
6989.00,0.49
6988.00,0.49
6987.00,0.49
6986.00,0.49
6985.00,0.48
6984.00,0.48
6983.00,0.48
6982.00,0.48
6981.00,0.48
6980.00,0.48
6979.00,0.48
6978.00,0.48
6977.00,0.48
6976.00,0.48
6975.00,0.48
6974.00,0.48
6973.00,0.48
6972.00,0.48
6971.00,0.48
6970.00,0.48
6969.00,0.48
6968.00,0.48
6967.00,0.47
6966.00,0.47
6965.00,0.47
6964.00,0.47
6963.00,0.47
6962.00,0.47
6961.00,0.47
6960.00,0.47
6959.00,0.47
6958.00,0.47
6957.00,0.47
6956.00,0.47
6955.00,0.47
6954.00,0.47
6953.00,0.47
6952.00,0.47
6951.00,0.47
6950.00,0.47
6949.00,0.47
6948.00,0.47
6947.00,0.47
6946.00,0.47
6945.00,0.47
6944.00,0.47
6943.00,0.47
6942.00,0.47
6941.00,0.47
6940.00,0.47
6939.00,0.47
6938.00,0.47
6937.00,0.47
6936.00,0.47
6935.00,0.47
6934.00,0.46
6933.00,0.46
6932.00,0.46
6931.00,0.46
6930.00,0.46
6929.00,0.46
6928.00,0.46
6927.00,0.46
6926.00,0.46
6925.00,0.46
6924.00,0.46
6923.00,0.45
6922.00,0.45
6921.00,0.45
6920.00,0.45
6919.00,0.45
6918.00,0.45
6917.00,0.45
6916.00,0.45
6915.00,0.45
6914.00,0.45
6913.00,0.45
6912.00,0.45
6911.00,0.45
6910.00,0.45
6909.00,0.45
6908.00,0.45
6907.00,0.45
6906.00,0.45
6905.00,0.45
6904.00,0.45
6903.00,0.45
6902.00,0.45
6901.00,0.45
6900.00,0.45
6899.00,0.45
6898.00,0.45
6897.00,0.45
6896.00,0.45
6895.00,0.45
6894.00,0.45
6893.00,0.45
6892.00,0.45
6891.00,0.45
6890.00,0.45
6889.00,0.45
6888.00,0.45
6887.00,0.45
6886.00,0.45
6885.00,0.45
6884.00,0.45
6883.00,0.45
6882.00,0.45
6881.00,0.45
6880.00,0.45
6879.00,0.45
6878.00,0.45
6877.00,0.45
6876.00,0.45
6875.00,0.45
6874.00,0.45
6873.00,0.45
6872.00,0.45
6871.00,0.45
6870.00,0.45
6869.00,0.45
6868.00,0.45
6867.00,0.45
6866.00,0.45
6865.00,0.45
6864.00,0.45
6863.00,0.45
6862.00,0.45
6861.00,0.45
6860.00,0.45
6859.00,0.45
6858.00,0.45
6857.00,0.45
6856.00,0.45
6855.00,0.45
6854.00,0.45
6853.00,0.45
6852.00,0.45
6851.00,0.45
6850.00,0.45
6849.00,0.45
6848.00,0.45
6847.00,0.45
6846.00,0.45
6845.00,0.45
6844.00,0.45
6843.00,0.45
6842.00,0.45
6841.00,0.45
6840.00,0.45
6839.00,0.45
6838.00,0.45
6837.00,0.45
6836.00,0.45
6835.00,0.45
6834.00,0.45
6833.00,0.45
6832.00,0.45
6831.00,0.45
6830.00,0.45
6829.00,0.45
6828.00,0.45
6827.00,0.45
6826.00,0.45
6825.00,0.45
6824.00,0.45
6823.00,0.45
6822.00,0.45
6821.00,0.45
6820.00,0.45
6819.00,0.45
6818.00,0.45
6817.00,0.45
6816.00,0.45
6815.00,0.45
6814.00,0.45
6813.00,0.45
6812.00,0.45
6811.00,0.45
6810.00,0.45
6809.00,0.45
6808.00,0.45
6807.00,0.45
6806.00,0.46
6805.00,0.46
6804.00,0.46
6803.00,0.46
6802.00,0.46
6801.00,0.46
6800.00,0.46
6799.00,0.46
6798.00,0.46
6797.00,0.46
6796.00,0.46
6795.00,0.46
6794.00,0.46
6793.00,0.46
6792.00,0.46
6791.00,0.46
6790.00,0.46
6789.00,0.46
6788.00,0.46
6787.00,0.46
6786.00,0.46
6785.00,0.46
6784.00,0.46
6783.00,0.46
6782.00,0.46
6781.00,0.47
6780.00,0.47
6779.00,0.47
6778.00,0.47
6777.00,0.47
6776.00,0.47
6775.00,0.47
6774.00,0.47
6773.00,0.47
6772.00,0.47
6771.00,0.48
6770.00,0.48
6769.00,0.48
6768.00,0.48
6767.00,0.48
6766.00,0.48
6765.00,0.48
6764.00,0.48
6763.00,0.48
6762.00,0.48
6761.00,0.48
6760.00,0.48
6759.00,0.48
6758.00,0.48
6757.00,0.48
6756.00,0.48
6755.00,0.48
6754.00,0.48
6753.00,0.48
6752.00,0.48
6751.00,0.48
6750.00,0.48
6749.00,0.48
6748.00,0.48
6747.00,0.48
6746.00,0.48
6745.00,0.48
6744.00,0.49
6743.00,0.49
6742.00,0.49
6741.00,0.49
6740.00,0.49
6739.00,0.49
6738.00,0.49
6737.00,0.49
6736.00,0.49
6735.00,0.49
6734.00,0.49
6733.00,0.49
6732.00,0.49
6731.00,0.50
6730.00,0.50
6729.00,0.50
6728.00,0.50
6727.00,0.50
6726.00,0.50
6725.00,0.50
6724.00,0.50
6723.00,0.50
6722.00,0.50
6721.00,0.50
6720.00,0.50
6719.00,0.51
6718.00,0.51
6717.00,0.51
6716.00,0.51
6715.00,0.51
6714.00,0.51
6713.00,0.51
6712.00,0.51
6711.00,0.51
6710.00,0.51
6709.00,0.51
6708.00,0.51
6707.00,0.51
6706.00,0.51
6705.00,0.51
6704.00,0.51
6703.00,0.51
6702.00,0.51
6701.00,0.51
6700.00,0.51
6699.00,0.51
6698.00,0.51
6697.00,0.51
6696.00,0.51
6695.00,0.51
6694.00,0.51
6693.00,0.51
6692.00,0.52
6691.00,0.52
6690.00,0.52
6689.00,0.52
6688.00,0.52
6687.00,0.52
6686.00,0.52
6685.00,0.52
6684.00,0.52
6683.00,0.52
6682.00,0.53
6681.00,0.53
6680.00,0.53
6679.00,0.53
6678.00,0.53
6677.00,0.53
6676.00,0.53
6675.00,0.53
6674.00,0.53
6673.00,0.53
6672.00,0.54
6671.00,0.54
6670.00,0.54
6669.00,0.54
6668.00,0.54
6667.00,0.54
6666.00,0.54
6665.00,0.54
6664.00,0.54
6663.00,0.54
6662.00,0.55
6661.00,0.55
6660.00,0.55
6659.00,0.55
6658.00,0.55
6657.00,0.55
6656.00,0.55
6655.00,0.55
6654.00,0.55
6653.00,0.55
6652.00,0.55
6651.00,0.55
6650.00,0.55
6649.00,0.56
6648.00,0.56
6647.00,0.56
6646.00,0.56
6645.00,0.56
6644.00,0.56
6643.00,0.56
6642.00,0.56
6641.00,0.56
6640.00,0.56
6639.00,0.56
6638.00,0.57
6637.00,0.57
6636.00,0.57
6635.00,0.57
6634.00,0.57
6633.00,0.57
6632.00,0.57
6631.00,0.57
6630.00,0.57
6629.00,0.58
6628.00,0.58
6627.00,0.58
6626.00,0.58
6625.00,0.58
6624.00,0.58
6623.00,0.58
6622.00,0.58
6621.00,0.58
6620.00,0.58
6619.00,0.58
6618.00,0.58
6617.00,0.58
6616.00,0.58
6615.00,0.58
6614.00,0.58
6613.00,0.58
6612.00,0.59
6611.00,0.59
6610.00,0.59
6609.00,0.59
6608.00,0.59
6607.00,0.59
6606.00,0.59
6605.00,0.59
6604.00,0.59
6603.00,0.59
6602.00,0.60
6601.00,0.60
6600.00,0.60
6599.00,0.60
6598.00,0.60
6597.00,0.60
6596.00,0.60
6595.00,0.60
6594.00,0.60
6593.00,0.60
6592.00,0.61
6591.00,0.61
6590.00,0.61
6589.00,0.61
6588.00,0.61
6587.00,0.61
6586.00,0.61
6585.00,0.61
6584.00,0.61
6583.00,0.62
6582.00,0.62
6581.00,0.62
6580.00,0.62
6579.00,0.62
6578.00,0.62
6577.00,0.62
6576.00,0.62
6575.00,0.62
6574.00,0.62
6573.00,0.62
6572.00,0.62
6571.00,0.62
6570.00,0.62
6569.00,0.63
6568.00,0.63
6567.00,0.63
6566.00,0.63
6565.00,0.63
6564.00,0.63
6563.00,0.63
6562.00,0.63
6561.00,0.63
6560.00,0.63
6559.00,0.64
6558.00,0.64
6557.00,0.64
6556.00,0.64
6555.00,0.64
6554.00,0.64
6553.00,0.64
6552.00,0.64
6551.00,0.64
6550.00,0.65
6549.00,0.65
6548.00,0.65
6547.00,0.65
6546.00,0.65
6545.00,0.65
6544.00,0.65
6543.00,0.65
6542.00,0.65
6541.00,0.65
6540.00,0.65
6539.00,0.66
6538.00,0.66
6537.00,0.66
6536.00,0.66
6535.00,0.66
6534.00,0.66
6533.00,0.66
6532.00,0.66
6531.00,0.66
6530.00,0.66
6529.00,0.66
6528.00,0.66
6527.00,0.66
6526.00,0.66
6525.00,0.67
6524.00,0.67
6523.00,0.67
6522.00,0.67
6521.00,0.67
6520.00,0.67
6519.00,0.67
6518.00,0.67
6517.00,0.67
6516.00,0.67
6515.00,0.67
6514.00,0.67
6513.00,0.67
6512.00,0.67
6511.00,0.67
6510.00,0.67
6509.00,0.68
6508.00,0.68
6507.00,0.68
6506.00,0.68
6505.00,0.68
6504.00,0.68
6503.00,0.68
6502.00,0.68
6501.00,0.68
6500.00,0.68
6499.00,0.68
6498.00,0.68
6497.00,0.68
6496.00,0.68
6495.00,0.68
6494.00,0.68
6493.00,0.68
6492.00,0.69
6491.00,0.69
6490.00,0.69
6489.00,0.69
6488.00,0.69
6487.00,0.69
6486.00,0.69
6485.00,0.69
6484.00,0.69
6483.00,0.69
6482.00,0.69
6481.00,0.69
6480.00,0.69
6479.00,0.69
6478.00,0.69
6477.00,0.69
6476.00,0.69
6475.00,0.69
6474.00,0.70
6473.00,0.70
6472.00,0.70
6471.00,0.70
6470.00,0.70
6469.00,0.70
6468.00,0.70
6467.00,0.70
6466.00,0.70
6465.00,0.70
6464.00,0.71
6463.00,0.71
6462.00,0.71
6461.00,0.71
6460.00,0.71
6459.00,0.71
6458.00,0.71
6457.00,0.71
6456.00,0.71
6455.00,0.71
6454.00,0.71
6453.00,0.71
6452.00,0.71
6451.00,0.71
6450.00,0.71
6449.00,0.71
6448.00,0.71
6447.00,0.71
6446.00,0.71
6445.00,0.71
6444.00,0.71
6443.00,0.71
6442.00,0.71
6441.00,0.71
6440.00,0.71
6439.00,0.71
6438.00,0.72
6437.00,0.72
6436.00,0.72
6435.00,0.72
6434.00,0.72
6433.00,0.72
6432.00,0.72
6431.00,0.72
6430.00,0.72
6429.00,0.72
6428.00,0.72
6427.00,0.72
6426.00,0.72
6425.00,0.72
6424.00,0.72
6423.00,0.72
6422.00,0.72
6421.00,0.72
6420.00,0.72
6419.00,0.72
6418.00,0.72
6417.00,0.72
6416.00,0.72
6415.00,0.72
6414.00,0.73
6413.00,0.73
6412.00,0.73
6411.00,0.73
6410.00,0.73
6409.00,0.73
6408.00,0.73
6407.00,0.73
6406.00,0.73
6405.00,0.74
6404.00,0.74
6403.00,0.74
6402.00,0.74
6401.00,0.74
6400.00,0.74
6399.00,0.74
6398.00,0.74
6397.00,0.74
6396.00,0.74
6395.00,0.74
6394.00,0.74
6393.00,0.74
6392.00,0.74
6391.00,0.74
6390.00,0.74
6389.00,0.74
6388.00,0.74
6387.00,0.75
6386.00,0.75
6385.00,0.75
6384.00,0.75
6383.00,0.75
6382.00,0.75
6381.00,0.75
6380.00,0.75
6379.00,0.75
6378.00,0.75
6377.00,0.75
6376.00,0.75
6375.00,0.76
6374.00,0.76
6373.00,0.76
6372.00,0.76
6371.00,0.76
6370.00,0.76
6369.00,0.76
6368.00,0.76
6367.00,0.76
6366.00,0.77
6365.00,0.77
6364.00,0.77
6363.00,0.77
6362.00,0.77
6361.00,0.77
6360.00,0.77
6359.00,0.77
6358.00,0.77
6357.00,0.78
6356.00,0.78
6355.00,0.78
6354.00,0.78
6353.00,0.78
6352.00,0.78
6351.00,0.78
6350.00,0.78
6349.00,0.78
6348.00,0.78
6347.00,0.78
6346.00,0.78
6345.00,0.79
6344.00,0.79
6343.00,0.79
6342.00,0.79
6341.00,0.79
6340.00,0.79
6339.00,0.79
6338.00,0.79
6337.00,0.79
6336.00,0.79
6335.00,0.79
6334.00,0.79
6333.00,0.79
6332.00,0.80
6331.00,0.80
6330.00,0.80
6329.00,0.80
6328.00,0.80
6327.00,0.80
6326.00,0.80
6325.00,0.80
6324.00,0.80
6323.00,0.81
6322.00,0.81
6321.00,0.81
6320.00,0.81
6319.00,0.81
6318.00,0.81
6317.00,0.81
6316.00,0.82
6315.00,0.82
6314.00,0.82
6313.00,0.82
6312.00,0.82
6311.00,0.82
6310.00,0.82
6309.00,0.82
6308.00,0.82
6307.00,0.83
6306.00,0.83
6305.00,0.83
6304.00,0.83
6303.00,0.83
6302.00,0.83
6301.00,0.83
6300.00,0.83
6299.00,0.83
6298.00,0.83
6297.00,0.84
6296.00,0.84
6295.00,0.84
6294.00,0.84
6293.00,0.84
6292.00,0.84
6291.00,0.84
6290.00,0.84
6289.00,0.84
6288.00,0.84
6287.00,0.84
6286.00,0.84
6285.00,0.84
6284.00,0.84
6283.00,0.84
6282.00,0.85
6281.00,0.85
6280.00,0.85
6279.00,0.85
6278.00,0.85
6277.00,0.85
6276.00,0.85
6275.00,0.85
6274.00,0.85
6273.00,0.85
6272.00,0.85
6271.00,0.86
6270.00,0.86
6269.00,0.86
6268.00,0.86
6267.00,0.86
6266.00,0.86
6265.00,0.86
6264.00,0.87
6263.00,0.87
6262.00,0.87
6261.00,0.87
6260.00,0.87
6259.00,0.87
6258.00,0.88
6257.00,0.88
6256.00,0.88
6255.00,0.88
6254.00,0.88
6253.00,0.89
6252.00,0.89
6251.00,0.89
6250.00,0.89
6249.00,0.89
6248.00,0.89
6247.00,0.90
6246.00,0.90
6245.00,0.90
6244.00,0.90
6243.00,0.90
6242.00,0.90
6241.00,0.90
6240.00,0.90
6239.00,0.91
6238.00,0.91
6237.00,0.91
6236.00,0.91
6235.00,0.91
6234.00,0.91
6233.00,0.91
6232.00,0.91
6231.00,0.91
6230.00,0.92
6229.00,0.92
6228.00,0.92
6227.00,0.92
6226.00,0.92
6225.00,0.92
6224.00,0.92
6223.00,0.92
6222.00,0.92
6221.00,0.92
6220.00,0.92
6219.00,0.93
6218.00,0.93
6217.00,0.93
6216.00,0.93
6215.00,0.93
6214.00,0.93
6213.00,0.93
6212.00,0.93
6211.00,0.93
6210.00,0.94
6209.00,0.94
6208.00,0.94
6207.00,0.94
6206.00,0.94
6205.00,0.94
6204.00,0.94
6203.00,0.95
6202.00,0.95
6201.00,0.95
6200.00,0.95
6199.00,0.95
6198.00,0.95
6197.00,0.96
6196.00,0.96
6195.00,0.96
6194.00,0.96
6193.00,0.96
6192.00,0.96
6191.00,0.97
6190.00,0.97
6189.00,0.97
6188.00,0.97
6187.00,0.97
6186.00,0.97
6185.00,0.98
6184.00,0.98
6183.00,0.98
6182.00,0.98
6181.00,0.98
6180.00,0.98
6179.00,0.98
6178.00,0.99
6177.00,0.99
6176.00,0.99
6175.00,0.99
6174.00,0.99
6173.00,0.99
6172.00,0.99
6171.00,1.00
6170.00,1.00
6169.00,1.00
6168.00,1.00
6167.00,1.00
6166.00,1.00
6165.00,1.01
6164.00,1.01
6163.00,1.01
6162.00,1.01
6161.00,1.01
6160.00,1.01
6159.00,1.02
6158.00,1.02
6157.00,1.02
6156.00,1.02
6155.00,1.02
6154.00,1.02
6153.00,1.02
6152.00,1.03
6151.00,1.03
6150.00,1.03
6149.00,1.03
6148.00,1.03
6147.00,1.03
6146.00,1.04
6145.00,1.04
6144.00,1.04
6143.00,1.04
6142.00,1.05
6141.00,1.05
6140.00,1.05
6139.00,1.05
6138.00,1.05
6137.00,1.06
6136.00,1.06
6135.00,1.06
6134.00,1.06
6133.00,1.06
6132.00,1.07
6131.00,1.07
6130.00,1.07
6129.00,1.07
6128.00,1.07
6127.00,1.08
6126.00,1.08
6125.00,1.08
6124.00,1.08
6123.00,1.08
6122.00,1.08
6121.00,1.09
6120.00,1.09
6119.00,1.09
6118.00,1.09
6117.00,1.09
6116.00,1.09
6115.00,1.09
6114.00,1.10
6113.00,1.10
6112.00,1.10
6111.00,1.10
6110.00,1.10
6109.00,1.10
6108.00,1.10
6107.00,1.11
6106.00,1.11
6105.00,1.11
6104.00,1.11
6103.00,1.11
6102.00,1.11
6101.00,1.12
6100.00,1.12
6099.00,1.12
6098.00,1.12
6097.00,1.12
6096.00,1.12
6095.00,1.12
6094.00,1.13
6093.00,1.13
6092.00,1.13
6091.00,1.13
6090.00,1.13
6089.00,1.13
6088.00,1.13
6087.00,1.13
6086.00,1.14
6085.00,1.14
6084.00,1.14
6083.00,1.14
6082.00,1.14
6081.00,1.14
6080.00,1.14
6079.00,1.14
6078.00,1.15
6077.00,1.15
6076.00,1.15
6075.00,1.15
6074.00,1.15
6073.00,1.15
6072.00,1.15
6071.00,1.15
6070.00,1.15
6069.00,1.16
6068.00,1.16
6067.00,1.16
6066.00,1.16
6065.00,1.16
6064.00,1.16
6063.00,1.16
6062.00,1.16
6061.00,1.16
6060.00,1.17
6059.00,1.17
6058.00,1.17
6057.00,1.17
6056.00,1.17
6055.00,1.17
6054.00,1.17
6053.00,1.17
6052.00,1.18
6051.00,1.18
6050.00,1.18
6049.00,1.18
6048.00,1.18
6047.00,1.18
6046.00,1.18
6045.00,1.18
6044.00,1.18
6043.00,1.18
6042.00,1.18
6041.00,1.18
6040.00,1.18
6039.00,1.19
6038.00,1.19
6037.00,1.19
6036.00,1.19
6035.00,1.19
6034.00,1.19
6033.00,1.19
6032.00,1.19
6031.00,1.19
6030.00,1.19
6029.00,1.19
6028.00,1.19
6027.00,1.20
6026.00,1.20
6025.00,1.20
6024.00,1.20
6023.00,1.20
6022.00,1.20
6021.00,1.20
6020.00,1.20
6019.00,1.20
6018.00,1.20
6017.00,1.20
6016.00,1.20
6015.00,1.20
6014.00,1.20
6013.00,1.20
6012.00,1.20
6011.00,1.20
6010.00,1.20
6009.00,1.19
6008.00,1.19
6007.00,1.19
6006.00,1.19
6005.00,1.19
6004.00,1.19
6003.00,1.19
6002.00,1.19
6001.00,1.19
6000.00,1.19
5999.00,1.19
5998.00,1.19
5997.00,1.19
5996.00,1.19
5995.00,1.19
5994.00,1.19
5993.00,1.19
5992.00,1.18
5991.00,1.18
5990.00,1.18
5989.00,1.18
5988.00,1.18
5987.00,1.18
5986.00,1.17
5985.00,1.17
5984.00,1.17
5983.00,1.17
5982.00,1.16
5981.00,1.16
5980.00,1.15
5979.00,1.15
5978.00,1.15
5977.00,1.14
5976.00,1.14
5975.00,1.13
5974.00,1.12
5973.00,1.12
5972.00,1.11
5971.00,1.11
5970.00,1.10
5969.00,1.09
5968.00,1.08
5967.00,1.08
5966.00,1.07
5965.00,1.06
5964.00,1.05
5963.00,1.05
5962.00,1.04
5961.00,1.03
5960.00,1.02
5959.00,1.02
5958.00,1.01
5957.00,1.00
5956.00,0.99
5955.00,0.99
5954.00,0.98
5953.00,0.97
5952.00,0.97
5951.00,0.96
5950.00,0.96
5949.00,0.95
5948.00,0.95
5947.00,0.94
5946.00,0.94
5945.00,0.93
5944.00,0.93
5943.00,0.93
5942.00,0.92
5941.00,0.92
5940.00,0.92
5939.00,0.92
5938.00,0.92
5937.00,0.92
5936.00,0.91
5935.00,0.91
5934.00,0.91
5933.00,0.91
5932.00,0.91
5931.00,0.91
5930.00,0.91
5929.00,0.91
5928.00,0.91
5927.00,0.90
5926.00,0.90
5925.00,0.90
5924.00,0.90
5923.00,0.90
5922.00,0.89
5921.00,0.89
5920.00,0.89
5919.00,0.89
5918.00,0.88
5917.00,0.88
5916.00,0.88
5915.00,0.88
5914.00,0.87
5913.00,0.87
5912.00,0.87
5911.00,0.86
5910.00,0.86
5909.00,0.86
5908.00,0.86
5907.00,0.85
5906.00,0.85
5905.00,0.85
5904.00,0.85
5903.00,0.85
5902.00,0.85
5901.00,0.85
5900.00,0.85
5899.00,0.85
5898.00,0.85
5897.00,0.85
5896.00,0.85
5895.00,0.85
5894.00,0.85
5893.00,0.86
5892.00,0.86
5891.00,0.86
5890.00,0.86
5889.00,0.87
5888.00,0.87
5887.00,0.87
5886.00,0.87
5885.00,0.88
5884.00,0.88
5883.00,0.88
5882.00,0.89
5881.00,0.89
5880.00,0.89
5879.00,0.89
5878.00,0.90
5877.00,0.90
5876.00,0.90
5875.00,0.90
5874.00,0.91
5873.00,0.91
5872.00,0.91
5871.00,0.91
5870.00,0.92
5869.00,0.92
5868.00,0.92
5867.00,0.92
5866.00,0.92
5865.00,0.92
5864.00,0.93
5863.00,0.93
5862.00,0.93
5861.00,0.93
5860.00,0.93
5859.00,0.93
5858.00,0.94
5857.00,0.94
5856.00,0.94
5855.00,0.94
5854.00,0.94
5853.00,0.94
5852.00,0.94
5851.00,0.95
5850.00,0.95
5849.00,0.95
5848.00,0.95
5847.00,0.95
5846.00,0.95
5845.00,0.95
5844.00,0.95
5843.00,0.95
5842.00,0.95
5841.00,0.95
5840.00,0.95
5839.00,0.95
5838.00,0.94
5837.00,0.94
5836.00,0.94
5835.00,0.94
5834.00,0.94
5833.00,0.94
5832.00,0.94
5831.00,0.94
5830.00,0.94
5829.00,0.94
5828.00,0.94
5827.00,0.94
5826.00,0.94
5825.00,0.94
5824.00,0.94
5823.00,0.94
5822.00,0.94
5821.00,0.94
5820.00,0.94
5819.00,0.94
5818.00,0.94
5817.00,0.94
5816.00,0.94
5815.00,0.94
5814.00,0.94
5813.00,0.95
5812.00,0.95
5811.00,0.94
5810.00,0.94
5809.00,0.94
5808.00,0.94
5807.00,0.94
5806.00,0.94
5805.00,0.94
5804.00,0.94
5803.00,0.94
5802.00,0.94
5801.00,0.94
5800.00,0.94
5799.00,0.94
5798.00,0.94
5797.00,0.94
5796.00,0.93
5795.00,0.93
5794.00,0.93
5793.00,0.93
5792.00,0.93
5791.00,0.93
5790.00,0.92
5789.00,0.92
5788.00,0.92
5787.00,0.92
5786.00,0.92
5785.00,0.91
5784.00,0.91
5783.00,0.91
5782.00,0.91
5781.00,0.91
5780.00,0.91
5779.00,0.90
5778.00,0.90
5777.00,0.90
5776.00,0.90
5775.00,0.90
5774.00,0.90
5773.00,0.90
5772.00,0.90
5771.00,0.90
5770.00,0.90
5769.00,0.90
5768.00,0.90
5767.00,0.90
5766.00,0.90
5765.00,0.91
5764.00,0.91
5763.00,0.91
5762.00,0.91
5761.00,0.91
5760.00,0.92
5759.00,0.92
5758.00,0.92
5757.00,0.93
5756.00,0.93
5755.00,0.93
5754.00,0.93
5753.00,0.94
5752.00,0.94
5751.00,0.94
5750.00,0.95
5749.00,0.95
5748.00,0.95
5747.00,0.96
5746.00,0.96
5745.00,0.96
5744.00,0.97
5743.00,0.97
5742.00,0.97
5741.00,0.98
5740.00,0.98
5739.00,0.98
5738.00,0.99
5737.00,0.99
5736.00,0.99
5735.00,1.00
5734.00,1.00
5733.00,1.00
5732.00,1.00
5731.00,1.01
5730.00,1.01
5729.00,1.01
5728.00,1.01
5727.00,1.01
5726.00,1.01
5725.00,1.02
5724.00,1.02
5723.00,1.02
5722.00,1.02
5721.00,1.02
5720.00,1.02
5719.00,1.02
5718.00,1.02
5717.00,1.02
5716.00,1.02
5715.00,1.02
5714.00,1.02
5713.00,1.02
5712.00,1.02
5711.00,1.02
5710.00,1.02
5709.00,1.02
5708.00,1.02
5707.00,1.01
5706.00,1.01
5705.00,1.01
5704.00,1.01
5703.00,1.01
5702.00,1.01
5701.00,1.01
5700.00,1.01
5699.00,1.00
5698.00,1.00
5697.00,1.00
5696.00,1.00
5695.00,1.00
5694.00,1.00
5693.00,0.99
5692.00,0.99
5691.00,0.99
5690.00,0.99
5689.00,0.99
5688.00,0.99
5687.00,0.99
5686.00,0.99
5685.00,0.98
5684.00,0.98
5683.00,0.98
5682.00,0.98
5681.00,0.98
5680.00,0.98
5679.00,0.98
5678.00,0.98
5677.00,0.98
5676.00,0.98
5675.00,0.98
5674.00,0.98
5673.00,0.98
5672.00,0.98
5671.00,0.98
5670.00,0.98
5669.00,0.98
5668.00,0.98
5667.00,0.98
5666.00,0.98
5665.00,0.98
5664.00,0.98
5663.00,0.99
5662.00,0.99
5661.00,0.99
5660.00,0.99
5659.00,0.99
5658.00,0.99
5657.00,0.99
5656.00,1.00
5655.00,1.00
5654.00,1.00
5653.00,1.00
5652.00,1.00
5651.00,1.00
5650.00,1.01
5649.00,1.01
5648.00,1.01
5647.00,1.01
5646.00,1.01
5645.00,1.02
5644.00,1.02
5643.00,1.02
5642.00,1.02
5641.00,1.03
5640.00,1.03
5639.00,1.03
5638.00,1.03
5637.00,1.03
5636.00,1.04
5635.00,1.04
5634.00,1.04
5633.00,1.04
5632.00,1.04
5631.00,1.05
5630.00,1.05
5629.00,1.05
5628.00,1.05
5627.00,1.05
5626.00,1.05
5625.00,1.06
5624.00,1.06
5623.00,1.06
5622.00,1.06
5621.00,1.06
5620.00,1.06
5619.00,1.06
5618.00,1.07
5617.00,1.07
5616.00,1.07
5615.00,1.07
5614.00,1.07
5613.00,1.07
5612.00,1.08
5611.00,1.08
5610.00,1.08
5609.00,1.08
5608.00,1.08
5607.00,1.09
5606.00,1.09
5605.00,1.09
5604.00,1.09
5603.00,1.09
5602.00,1.10
5601.00,1.10
5600.00,1.10
5599.00,1.10
5598.00,1.10
5597.00,1.11
5596.00,1.11
5595.00,1.11
5594.00,1.11
5593.00,1.11
5592.00,1.11
5591.00,1.12
5590.00,1.12
5589.00,1.12
5588.00,1.12
5587.00,1.12
5586.00,1.13
5585.00,1.13
5584.00,1.13
5583.00,1.13
5582.00,1.13
5581.00,1.14
5580.00,1.14
5579.00,1.14
5578.00,1.14
5577.00,1.14
5576.00,1.14
5575.00,1.15
5574.00,1.15
5573.00,1.15
5572.00,1.15
5571.00,1.15
5570.00,1.15
5569.00,1.16
5568.00,1.16
5567.00,1.16
5566.00,1.16
5565.00,1.16
5564.00,1.17
5563.00,1.17
5562.00,1.17
5561.00,1.17
5560.00,1.17
5559.00,1.17
5558.00,1.18
5557.00,1.18
5556.00,1.18
5555.00,1.18
5554.00,1.18
5553.00,1.18
5552.00,1.19
5551.00,1.19
5550.00,1.19
5549.00,1.19
5548.00,1.19
5547.00,1.19
5546.00,1.19
5545.00,1.20
5544.00,1.20
5543.00,1.20
5542.00,1.20
5541.00,1.20
5540.00,1.20
5539.00,1.20
5538.00,1.21
5537.00,1.21
5536.00,1.21
5535.00,1.21
5534.00,1.21
5533.00,1.21
5532.00,1.21
5531.00,1.22
5530.00,1.22
5529.00,1.22
5528.00,1.22
5527.00,1.22
5526.00,1.22
5525.00,1.22
5524.00,1.22
5523.00,1.22
5522.00,1.22
5521.00,1.23
5520.00,1.23
5519.00,1.23
5518.00,1.23
5517.00,1.23
5516.00,1.23
5515.00,1.23
5514.00,1.23
5513.00,1.23
5512.00,1.23
5511.00,1.23
5510.00,1.23
5509.00,1.23
5508.00,1.23
5507.00,1.23
5506.00,1.23
5505.00,1.23
5504.00,1.23
5503.00,1.23
5502.00,1.23
5501.00,1.23
5500.00,1.23
5499.00,1.23
5498.00,1.23
5497.00,1.24
5496.00,1.24
5495.00,1.24
5494.00,1.24
5493.00,1.24
5492.00,1.24
5491.00,1.24
5490.00,1.25
5489.00,1.25
5488.00,1.25
5487.00,1.25
5486.00,1.26
5485.00,1.26
5484.00,1.26
5483.00,1.26
5482.00,1.26
5481.00,1.27
5480.00,1.27
5479.00,1.27
5478.00,1.27
5477.00,1.27
5476.00,1.27
5475.00,1.27
5474.00,1.28
5473.00,1.28
5472.00,1.28
5471.00,1.28
5470.00,1.28
5469.00,1.28
5468.00,1.28
5467.00,1.28
5466.00,1.29
5465.00,1.29
5464.00,1.29
5463.00,1.29
5462.00,1.29
5461.00,1.29
5460.00,1.29
5459.00,1.29
5458.00,1.29
5457.00,1.29
5456.00,1.29
5455.00,1.29
5454.00,1.30
5453.00,1.30
5452.00,1.30
5451.00,1.30
5450.00,1.30
5449.00,1.30
5448.00,1.30
5447.00,1.30
5446.00,1.30
5445.00,1.30
5444.00,1.30
5443.00,1.30
5442.00,1.30
5441.00,1.30
5440.00,1.30
5439.00,1.31
5438.00,1.31
5437.00,1.31
5436.00,1.31
5435.00,1.31
5434.00,1.31
5433.00,1.31
5432.00,1.31
5431.00,1.31
5430.00,1.31
5429.00,1.31
5428.00,1.31
5427.00,1.31
5426.00,1.31
5425.00,1.31
5424.00,1.31
5423.00,1.31
5422.00,1.31
5421.00,1.31
5420.00,1.31
5419.00,1.31
5418.00,1.31
5417.00,1.31
5416.00,1.31
5415.00,1.31
5414.00,1.31
5413.00,1.31
5412.00,1.31
5411.00,1.31
5410.00,1.31
5409.00,1.31
5408.00,1.31
5407.00,1.31
5406.00,1.31
5405.00,1.31
5404.00,1.31
5403.00,1.31
5402.00,1.31
5401.00,1.31
5400.00,1.31
5399.00,1.31
5398.00,1.31
5397.00,1.31
5396.00,1.31
5395.00,1.30
5394.00,1.30
5393.00,1.30
5392.00,1.30
5391.00,1.30
5390.00,1.29
5389.00,1.29
5388.00,1.29
5387.00,1.29
5386.00,1.29
5385.00,1.28
5384.00,1.28
5383.00,1.28
5382.00,1.28
5381.00,1.27
5380.00,1.27
5379.00,1.27
5378.00,1.26
5377.00,1.26
5376.00,1.26
5375.00,1.25
5374.00,1.25
5373.00,1.24
5372.00,1.24
5371.00,1.23
5370.00,1.23
5369.00,1.23
5368.00,1.22
5367.00,1.21
5366.00,1.21
5365.00,1.20
5364.00,1.20
5363.00,1.19
5362.00,1.18
5361.00,1.17
5360.00,1.17
5359.00,1.16
5358.00,1.15
5357.00,1.14
5356.00,1.13
5355.00,1.12
5354.00,1.12
5353.00,1.11
5352.00,1.10
5351.00,1.09
5350.00,1.08
5349.00,1.07
5348.00,1.06
5347.00,1.05
5346.00,1.04
5345.00,1.03
5344.00,1.02
5343.00,1.01
5342.00,1.00
5341.00,0.99
5340.00,0.98
5339.00,0.97
5338.00,0.96
5337.00,0.94
5336.00,0.93
5335.00,0.92
5334.00,0.91
5333.00,0.90
5332.00,0.89
5331.00,0.88
5330.00,0.87
5329.00,0.86
5328.00,0.85
5327.00,0.84
5326.00,0.83
5325.00,0.82
5324.00,0.81
5323.00,0.80
5322.00,0.79
5321.00,0.78
5320.00,0.77
5319.00,0.76
5318.00,0.75
5317.00,0.74
5316.00,0.73
5315.00,0.72
5314.00,0.71
5313.00,0.71
5312.00,0.70
5311.00,0.69
5310.00,0.68
5309.00,0.67
5308.00,0.67
5307.00,0.66
5306.00,0.65
5305.00,0.65
5304.00,0.64
5303.00,0.64
5302.00,0.63
5301.00,0.63
5300.00,0.62
5299.00,0.62
5298.00,0.61
5297.00,0.61
5296.00,0.60
5295.00,0.60
5294.00,0.60
5293.00,0.59
5292.00,0.59
5291.00,0.59
5290.00,0.59
5289.00,0.58
5288.00,0.58
5287.00,0.58
5286.00,0.58
5285.00,0.58
5284.00,0.58
5283.00,0.57
5282.00,0.57
5281.00,0.57
5280.00,0.57
5279.00,0.57
5278.00,0.57
5277.00,0.57
5276.00,0.57
5275.00,0.57
5274.00,0.57
5273.00,0.57
5272.00,0.57
5271.00,0.56
5270.00,0.56
5269.00,0.56
5268.00,0.56
5267.00,0.56
5266.00,0.56
5265.00,0.56
5264.00,0.56
5263.00,0.56
5262.00,0.56
5261.00,0.56
5260.00,0.56
5259.00,0.56
5258.00,0.56
5257.00,0.55
5256.00,0.55
5255.00,0.55
5254.00,0.55
5253.00,0.55
5252.00,0.55
5251.00,0.55
5250.00,0.55
5249.00,0.55
5248.00,0.55
5247.00,0.55
5246.00,0.55
5245.00,0.55
5244.00,0.55
5243.00,0.55
5242.00,0.55
5241.00,0.55
5240.00,0.55
5239.00,0.55
5238.00,0.55
5237.00,0.55
5236.00,0.55
5235.00,0.55
5234.00,0.56
5233.00,0.56
5232.00,0.56
5231.00,0.56
5230.00,0.56
5229.00,0.56
5228.00,0.56
5227.00,0.56
5226.00,0.56
5225.00,0.56
5224.00,0.56
5223.00,0.56
5222.00,0.56
5221.00,0.56
5220.00,0.56
5219.00,0.56
5218.00,0.56
5217.00,0.56
5216.00,0.56
5215.00,0.56
5214.00,0.56
5213.00,0.56
5212.00,0.56
5211.00,0.56
5210.00,0.56
5209.00,0.56
5208.00,0.56
5207.00,0.56
5206.00,0.56
5205.00,0.56
5204.00,0.56
5203.00,0.56
5202.00,0.56
5201.00,0.56
5200.00,0.56
5199.00,0.57
5198.00,0.57
5197.00,0.57
5196.00,0.57
5195.00,0.57
5194.00,0.57
5193.00,0.57
5192.00,0.57
5191.00,0.57
5190.00,0.57
5189.00,0.57
5188.00,0.57
5187.00,0.57
5186.00,0.57
5185.00,0.57
5184.00,0.57
5183.00,0.57
5182.00,0.57
5181.00,0.57
5180.00,0.57
5179.00,0.57
5178.00,0.57
5177.00,0.57
5176.00,0.57
5175.00,0.57
5174.00,0.57
5173.00,0.57
5172.00,0.57
5171.00,0.57
5170.00,0.57
5169.00,0.58
5168.00,0.58
5167.00,0.58
5166.00,0.58
5165.00,0.58
5164.00,0.58
5163.00,0.58
5162.00,0.58
5161.00,0.58
5160.00,0.58
5159.00,0.58
5158.00,0.58
5157.00,0.58
5156.00,0.59
5155.00,0.59
5154.00,0.59
5153.00,0.59
5152.00,0.59
5151.00,0.59
5150.00,0.59
5149.00,0.59
5148.00,0.59
5147.00,0.59
5146.00,0.59
5145.00,0.59
5144.00,0.59
5143.00,0.59
5142.00,0.59
5141.00,0.59
5140.00,0.59
5139.00,0.60
5138.00,0.60
5137.00,0.60
5136.00,0.60
5135.00,0.60
5134.00,0.60
5133.00,0.60
5132.00,0.60
5131.00,0.60
5130.00,0.60
5129.00,0.60
5128.00,0.60
5127.00,0.60
5126.00,0.60
5125.00,0.60
5124.00,0.60
5123.00,0.60
5122.00,0.60
5121.00,0.60
5120.00,0.60
5119.00,0.60
5118.00,0.60
5117.00,0.60
5116.00,0.60
5115.00,0.60
5114.00,0.61
5113.00,0.61
5112.00,0.61
5111.00,0.61
5110.00,0.61
5109.00,0.61
5108.00,0.61
5107.00,0.61
5106.00,0.61
5105.00,0.61
5104.00,0.61
5103.00,0.61
5102.00,0.61
5101.00,0.61
5100.00,0.61
5099.00,0.62
5098.00,0.62
5097.00,0.62
5096.00,0.62
5095.00,0.62
5094.00,0.62
5093.00,0.62
5092.00,0.62
5091.00,0.62
5090.00,0.62
5089.00,0.62
5088.00,0.62
5087.00,0.62
5086.00,0.63
5085.00,0.63
5084.00,0.63
5083.00,0.63
5082.00,0.63
5081.00,0.63
5080.00,0.63
5079.00,0.63
5078.00,0.63
5077.00,0.63
5076.00,0.63
5075.00,0.63
5074.00,0.63
5073.00,0.63
5072.00,0.63
5071.00,0.63
5070.00,0.63
5069.00,0.63
5068.00,0.63
5067.00,0.63
5066.00,0.63
5065.00,0.63
5064.00,0.63
5063.00,0.63
5062.00,0.63
5061.00,0.63
5060.00,0.63
5059.00,0.64
5058.00,0.64
5057.00,0.64
5056.00,0.64
5055.00,0.64
5054.00,0.64
5053.00,0.64
5052.00,0.64
5051.00,0.64
5050.00,0.64
5049.00,0.64
5048.00,0.64
5047.00,0.64
5046.00,0.64
5045.00,0.64
5044.00,0.64
5043.00,0.64
5042.00,0.64
5041.00,0.64
5040.00,0.65
5039.00,0.65
5038.00,0.65
5037.00,0.65
5036.00,0.65
5035.00,0.65
5034.00,0.65
5033.00,0.65
5032.00,0.65
5031.00,0.65
5030.00,0.65
5029.00,0.65
5028.00,0.65
5027.00,0.65
5026.00,0.65
5025.00,0.65
5024.00,0.65
5023.00,0.65
5022.00,0.65
5021.00,0.65
5020.00,0.65
5019.00,0.66
5018.00,0.66
5017.00,0.66
5016.00,0.66
5015.00,0.66
5014.00,0.66
5013.00,0.66
5012.00,0.66
5011.00,0.66
5010.00,0.67
5009.00,0.67
5008.00,0.67
5007.00,0.67
5006.00,0.67
5005.00,0.67
5004.00,0.67
5003.00,0.67
5002.00,0.68
5001.00,0.68
5000.00,0.68
4999.00,0.68
4998.00,0.68
4997.00,0.68
4996.00,0.68
4995.00,0.68
4994.00,0.68
4993.00,0.68
4992.00,0.68
4991.00,0.68
4990.00,0.68
4989.00,0.68
4988.00,0.68
4987.00,0.69
4986.00,0.69
4985.00,0.69
4984.00,0.69
4983.00,0.69
4982.00,0.69
4981.00,0.69
4980.00,0.69
4979.00,0.69
4978.00,0.69
4977.00,0.69
4976.00,0.70
4975.00,0.70
4974.00,0.70
4973.00,0.70
4972.00,0.70
4971.00,0.70
4970.00,0.70
4969.00,0.70
4968.00,0.70
4967.00,0.70
4966.00,0.70
4965.00,0.70
4964.00,0.70
4963.00,0.71
4962.00,0.71
4961.00,0.71
4960.00,0.71
4959.00,0.71
4958.00,0.71
4957.00,0.71
4956.00,0.71
4955.00,0.71
4954.00,0.71
4953.00,0.71
4952.00,0.71
4951.00,0.71
4950.00,0.71
4949.00,0.71
4948.00,0.71
4947.00,0.71
4946.00,0.71
4945.00,0.71
4944.00,0.72
4943.00,0.72
4942.00,0.72
4941.00,0.72
4940.00,0.72
4939.00,0.72
4938.00,0.72
4937.00,0.72
4936.00,0.72
4935.00,0.72
4934.00,0.72
4933.00,0.73
4932.00,0.73
4931.00,0.73
4930.00,0.73
4929.00,0.73
4928.00,0.73
4927.00,0.73
4926.00,0.73
4925.00,0.73
4924.00,0.73
4923.00,0.73
4922.00,0.73
4921.00,0.73
4920.00,0.73
4919.00,0.73
4918.00,0.73
4917.00,0.73
4916.00,0.74
4915.00,0.74
4914.00,0.74
4913.00,0.74
4912.00,0.74
4911.00,0.74
4910.00,0.74
4909.00,0.74
4908.00,0.74
4907.00,0.74
4906.00,0.74
4905.00,0.74
4904.00,0.75
4903.00,0.75
4902.00,0.75
4901.00,0.75
4900.00,0.75
4899.00,0.75
4898.00,0.75
4897.00,0.75
4896.00,0.75
4895.00,0.75
4894.00,0.75
4893.00,0.75
4892.00,0.75
4891.00,0.76
4890.00,0.76
4889.00,0.76
4888.00,0.76
4887.00,0.76
4886.00,0.76
4885.00,0.76
4884.00,0.76
4883.00,0.76
4882.00,0.76
4881.00,0.76
4880.00,0.76
4879.00,0.76
4878.00,0.76
4877.00,0.76
4876.00,0.76
4875.00,0.76
4874.00,0.77
4873.00,0.77
4872.00,0.77
4871.00,0.77
4870.00,0.77
4869.00,0.77
4868.00,0.77
4867.00,0.77
4866.00,0.77
4865.00,0.77
4864.00,0.77
4863.00,0.77
4862.00,0.77
4861.00,0.77
4860.00,0.77
4859.00,0.78
4858.00,0.78
4857.00,0.78
4856.00,0.78
4855.00,0.78
4854.00,0.78
4853.00,0.78
4852.00,0.78
4851.00,0.78
4850.00,0.78
4849.00,0.78
4848.00,0.78
4847.00,0.79
4846.00,0.79
4845.00,0.79
4844.00,0.79
4843.00,0.79
4842.00,0.79
4841.00,0.79
4840.00,0.79
4839.00,0.79
4838.00,0.79
4837.00,0.79
4836.00,0.79
4835.00,0.79
4834.00,0.79
4833.00,0.79
4832.00,0.79
4831.00,0.79
4830.00,0.79
4829.00,0.79
4828.00,0.79
4827.00,0.79
4826.00,0.80
4825.00,0.80
4824.00,0.80
4823.00,0.80
4822.00,0.80
4821.00,0.80
4820.00,0.80
4819.00,0.80
4818.00,0.80
4817.00,0.80
4816.00,0.80
4815.00,0.80
4814.00,0.80
4813.00,0.80
4812.00,0.80
4811.00,0.80
4810.00,0.80
4809.00,0.81
4808.00,0.81
4807.00,0.81
4806.00,0.81
4805.00,0.81
4804.00,0.81
4803.00,0.81
4802.00,0.81
4801.00,0.81
4800.00,0.81
4799.00,0.82
4798.00,0.82
4797.00,0.82
4796.00,0.82
4795.00,0.82
4794.00,0.82
4793.00,0.82
4792.00,0.82
4791.00,0.82
4790.00,0.82
4789.00,0.82
4788.00,0.82
4787.00,0.82
4786.00,0.83
4785.00,0.83
4784.00,0.83
4783.00,0.83
4782.00,0.83
4781.00,0.83
4780.00,0.83
4779.00,0.83
4778.00,0.83
4777.00,0.83
4776.00,0.83
4775.00,0.83
4774.00,0.83
4773.00,0.84
4772.00,0.84
4771.00,0.84
4770.00,0.84
4769.00,0.84
4768.00,0.84
4767.00,0.84
4766.00,0.85
4765.00,0.85
4764.00,0.85
4763.00,0.85
4762.00,0.85
4761.00,0.85
4760.00,0.86
4759.00,0.86
4758.00,0.86
4757.00,0.86
4756.00,0.86
4755.00,0.86
4754.00,0.87
4753.00,0.87
4752.00,0.87
4751.00,0.87
4750.00,0.87
4749.00,0.87
4748.00,0.87
4747.00,0.88
4746.00,0.88
4745.00,0.88
4744.00,0.88
4743.00,0.88
4742.00,0.88
4741.00,0.88
4740.00,0.88
4739.00,0.89
4738.00,0.89
4737.00,0.89
4736.00,0.89
4735.00,0.89
4734.00,0.89
4733.00,0.89
4732.00,0.90
4731.00,0.90
4730.00,0.90
4729.00,0.90
4728.00,0.90
4727.00,0.90
4726.00,0.91
4725.00,0.91
4724.00,0.91
4723.00,0.91
4722.00,0.91
4721.00,0.91
4720.00,0.91
4719.00,0.92
4718.00,0.92
4717.00,0.92
4716.00,0.92
4715.00,0.92
4714.00,0.92
4713.00,0.93
4712.00,0.93
4711.00,0.93
4710.00,0.93
4709.00,0.93
4708.00,0.93
4707.00,0.93
4706.00,0.94
4705.00,0.94
4704.00,0.94
4703.00,0.94
4702.00,0.94
4701.00,0.94
4700.00,0.95
4699.00,0.95
4698.00,0.95
4697.00,0.95
4696.00,0.95
4695.00,0.95
4694.00,0.95
4693.00,0.96
4692.00,0.96
4691.00,0.96
4690.00,0.96
4689.00,0.96
4688.00,0.96
4687.00,0.96
4686.00,0.96
4685.00,0.96
4684.00,0.97
4683.00,0.97
4682.00,0.97
4681.00,0.97
4680.00,0.97
4679.00,0.97
4678.00,0.97
4677.00,0.97
4676.00,0.97
4675.00,0.98
4674.00,0.98
4673.00,0.98
4672.00,0.98
4671.00,0.98
4670.00,0.98
4669.00,0.98
4668.00,0.98
4667.00,0.98
4666.00,0.99
4665.00,0.99
4664.00,0.99
4663.00,0.99
4662.00,0.99
4661.00,0.99
4660.00,0.99
4659.00,0.99
4658.00,1.00
4657.00,1.00
4656.00,1.00
4655.00,1.00
4654.00,1.01
4653.00,1.01
4652.00,1.01
4651.00,1.01
4650.00,1.01
4649.00,1.02
4648.00,1.02
4647.00,1.02
4646.00,1.02
4645.00,1.02
4644.00,1.03
4643.00,1.03
4642.00,1.03
4641.00,1.03
4640.00,1.03
4639.00,1.03
4638.00,1.03
4637.00,1.03
4636.00,1.04
4635.00,1.04
4634.00,1.04
4633.00,1.04
4632.00,1.04
4631.00,1.04
4630.00,1.04
4629.00,1.04
4628.00,1.04
4627.00,1.04
4626.00,1.04
4625.00,1.05
4624.00,1.05
4623.00,1.05
4622.00,1.05
4621.00,1.05
4620.00,1.05
4619.00,1.05
4618.00,1.05
4617.00,1.05
4616.00,1.05
4615.00,1.06
4614.00,1.06
4613.00,1.06
4612.00,1.06
4611.00,1.06
4610.00,1.06
4609.00,1.06
4608.00,1.06
4607.00,1.06
4606.00,1.07
4605.00,1.07
4604.00,1.07
4603.00,1.07
4602.00,1.07
4601.00,1.07
4600.00,1.07
4599.00,1.07
4598.00,1.07
4597.00,1.08
4596.00,1.08
4595.00,1.08
4594.00,1.08
4593.00,1.08
4592.00,1.08
4591.00,1.08
4590.00,1.09
4589.00,1.09
4588.00,1.09
4587.00,1.09
4586.00,1.09
4585.00,1.09
4584.00,1.09
4583.00,1.10
4582.00,1.10
4581.00,1.10
4580.00,1.10
4579.00,1.10
4578.00,1.10
4577.00,1.10
4576.00,1.10
4575.00,1.11
4574.00,1.11
4573.00,1.11
4572.00,1.11
4571.00,1.11
4570.00,1.11
4569.00,1.11
4568.00,1.11
4567.00,1.11
4566.00,1.11
4565.00,1.11
4564.00,1.11
4563.00,1.11
4562.00,1.11
4561.00,1.11
4560.00,1.11
4559.00,1.11
4558.00,1.11
4557.00,1.12
4556.00,1.12
4555.00,1.12
4554.00,1.12
4553.00,1.12
4552.00,1.12
4551.00,1.12
4550.00,1.12
4549.00,1.12
4548.00,1.12
4547.00,1.12
4546.00,1.12
4545.00,1.12
4544.00,1.12
4543.00,1.12
4542.00,1.12
4541.00,1.12
4540.00,1.12
4539.00,1.12
4538.00,1.12
4537.00,1.12
4536.00,1.12
4535.00,1.12
4534.00,1.12
4533.00,1.13
4532.00,1.13
4531.00,1.13
4530.00,1.13
4529.00,1.13
4528.00,1.13
4527.00,1.13
4526.00,1.14
4525.00,1.14
4524.00,1.14
4523.00,1.14
4522.00,1.14
4521.00,1.14
4520.00,1.14
4519.00,1.14
4518.00,1.14
4517.00,1.15
4516.00,1.15
4515.00,1.15
4514.00,1.15
4513.00,1.15
4512.00,1.15
4511.00,1.15
4510.00,1.15
4509.00,1.15
4508.00,1.15
4507.00,1.15
4506.00,1.15
4505.00,1.15
4504.00,1.15
4503.00,1.15
4502.00,1.15
4501.00,1.15
4500.00,1.15
4499.00,1.15
4498.00,1.15
4497.00,1.15
4496.00,1.14
4495.00,1.14
4494.00,1.14
4493.00,1.14
4492.00,1.14
4491.00,1.14
4490.00,1.14
4489.00,1.14
4488.00,1.14
4487.00,1.14
4486.00,1.14
4485.00,1.13
4484.00,1.13
4483.00,1.13
4482.00,1.13
4481.00,1.13
4480.00,1.13
4479.00,1.12
4478.00,1.12
4477.00,1.12
4476.00,1.12
4475.00,1.12
4474.00,1.11
4473.00,1.11
4472.00,1.11
4471.00,1.11
4470.00,1.11
4469.00,1.10
4468.00,1.10
4467.00,1.10
4466.00,1.10
4465.00,1.10
4464.00,1.09
4463.00,1.09
4462.00,1.09
4461.00,1.09
4460.00,1.09
4459.00,1.09
4458.00,1.08
4457.00,1.08
4456.00,1.08
4455.00,1.08
4454.00,1.07
4453.00,1.07
4452.00,1.07
4451.00,1.07
4450.00,1.06
4449.00,1.06
4448.00,1.06
4447.00,1.05
4446.00,1.05
4445.00,1.05
4444.00,1.04
4443.00,1.04
4442.00,1.03
4441.00,1.03
4440.00,1.03
4439.00,1.02
4438.00,1.02
4437.00,1.01
4436.00,1.01
4435.00,1.01
4434.00,1.01
4433.00,1.00
4432.00,1.00
4431.00,1.00
4430.00,1.00
4429.00,0.99
4428.00,0.99
4427.00,0.99
4426.00,0.99
4425.00,0.99
4424.00,0.99
4423.00,0.99
4422.00,0.99
4421.00,0.99
4420.00,0.99
4419.00,0.99
4418.00,0.98
4417.00,0.98
4416.00,0.99
4415.00,0.99
4414.00,0.99
4413.00,0.99
4412.00,0.99
4411.00,0.99
4410.00,0.99
4409.00,0.99
4408.00,0.99
4407.00,0.99
4406.00,0.99
4405.00,0.99
4404.00,0.99
4403.00,0.99
4402.00,0.99
4401.00,0.99
4400.00,0.99
4399.00,0.99
4398.00,0.99
4397.00,0.99
4396.00,0.99
4395.00,0.99
4394.00,0.99
4393.00,0.99
4392.00,1.00
4391.00,1.00
4390.00,1.00
4389.00,1.00
4388.00,1.00
4387.00,1.00
4386.00,1.01
4385.00,1.01
4384.00,1.01
4383.00,1.01
4382.00,1.01
4381.00,1.02
4380.00,1.02
4379.00,1.02
4378.00,1.02
4377.00,1.02
4376.00,1.02
4375.00,1.02
4374.00,1.03
4373.00,1.03
4372.00,1.03
4371.00,1.03
4370.00,1.03
4369.00,1.03
4368.00,1.03
4367.00,1.03
4366.00,1.03
4365.00,1.03
4364.00,1.03
4363.00,1.03
4362.00,1.03
4361.00,1.03
4360.00,1.03
4359.00,1.03
4358.00,1.03
4357.00,1.03
4356.00,1.03
4355.00,1.03
4354.00,1.03
4353.00,1.03
4352.00,1.03
4351.00,1.03
4350.00,1.03
4349.00,1.03
4348.00,1.03
4347.00,1.03
4346.00,1.03
4345.00,1.03
4344.00,1.03
4343.00,1.03
4342.00,1.03
4341.00,1.03
4340.00,1.03
4339.00,1.03
4338.00,1.03
4337.00,1.03
4336.00,1.04
4335.00,1.04
4334.00,1.04
4333.00,1.04
4332.00,1.04
4331.00,1.04
4330.00,1.04
4329.00,1.04
4328.00,1.04
4327.00,1.04
4326.00,1.04
4325.00,1.05
4324.00,1.05
4323.00,1.05
4322.00,1.05
4321.00,1.05
4320.00,1.05
4319.00,1.05
4318.00,1.06
4317.00,1.06
4316.00,1.06
4315.00,1.06
4314.00,1.07
4313.00,1.07
4312.00,1.07
4311.00,1.07
4310.00,1.07
4309.00,1.08
4308.00,1.08
4307.00,1.08
4306.00,1.08
4305.00,1.08
4304.00,1.08
4303.00,1.09
4302.00,1.09
4301.00,1.09
4300.00,1.09
4299.00,1.09
4298.00,1.09
4297.00,1.09
4296.00,1.09
4295.00,1.09
4294.00,1.09
4293.00,1.09
4292.00,1.09
4291.00,1.09
4290.00,1.10
4289.00,1.10
4288.00,1.10
4287.00,1.10
4286.00,1.10
4285.00,1.10
4284.00,1.10
4283.00,1.10
4282.00,1.10
4281.00,1.10
4280.00,1.11
4279.00,1.11
4278.00,1.11
4277.00,1.11
4276.00,1.11
4275.00,1.11
4274.00,1.11
4273.00,1.11
4272.00,1.11
4271.00,1.12
4270.00,1.12
4269.00,1.12
4268.00,1.12
4267.00,1.12
4266.00,1.12
4265.00,1.12
4264.00,1.12
4263.00,1.12
4262.00,1.12
4261.00,1.12
4260.00,1.12
4259.00,1.12
4258.00,1.12
4257.00,1.12
4256.00,1.12
4255.00,1.12
4254.00,1.12
4253.00,1.12
4252.00,1.12
4251.00,1.12
4250.00,1.12
4249.00,1.12
4248.00,1.12
4247.00,1.12
4246.00,1.13
4245.00,1.13
4244.00,1.13
4243.00,1.13
4242.00,1.13
4241.00,1.13
4240.00,1.13
4239.00,1.13
4238.00,1.13
4237.00,1.13
4236.00,1.13
4235.00,1.13
4234.00,1.13
4233.00,1.14
4232.00,1.14
4231.00,1.14
4230.00,1.14
4229.00,1.14
4228.00,1.14
4227.00,1.14
4226.00,1.14
4225.00,1.14
4224.00,1.15
4223.00,1.15
4222.00,1.15
4221.00,1.15
4220.00,1.15
4219.00,1.15
4218.00,1.15
4217.00,1.15
4216.00,1.15
4215.00,1.15
4214.00,1.15
4213.00,1.15
4212.00,1.15
4211.00,1.15
4210.00,1.15
4209.00,1.15
4208.00,1.15
4207.00,1.15
4206.00,1.15
4205.00,1.15
4204.00,1.15
4203.00,1.15
4202.00,1.16
4201.00,1.16
4200.00,1.16
4199.00,1.16
4198.00,1.16
4197.00,1.16
4196.00,1.16
4195.00,1.16
4194.00,1.16
4193.00,1.16
4192.00,1.16
4191.00,1.17
4190.00,1.17
4189.00,1.17
4188.00,1.17
4187.00,1.17
4186.00,1.17
4185.00,1.17
4184.00,1.17
4183.00,1.17
4182.00,1.17
4181.00,1.17
4180.00,1.17
4179.00,1.17
4178.00,1.17
4177.00,1.17
4176.00,1.17
4175.00,1.17
4174.00,1.17
4173.00,1.17
4172.00,1.17
4171.00,1.17
4170.00,1.17
4169.00,1.18
4168.00,1.18
4167.00,1.18
4166.00,1.18
4165.00,1.18
4164.00,1.18
4163.00,1.18
4162.00,1.18
4161.00,1.18
4160.00,1.18
4159.00,1.18
4158.00,1.18
4157.00,1.18
4156.00,1.19
4155.00,1.19
4154.00,1.19
4153.00,1.19
4152.00,1.19
4151.00,1.19
4150.00,1.19
4149.00,1.19
4148.00,1.19
4147.00,1.19
4146.00,1.19
4145.00,1.19
4144.00,1.19
4143.00,1.19
4142.00,1.19
4141.00,1.19
4140.00,1.19
4139.00,1.19
4138.00,1.19
4137.00,1.20
4136.00,1.20
4135.00,1.20
4134.00,1.20
4133.00,1.20
4132.00,1.20
4131.00,1.20
4130.00,1.21
4129.00,1.21
4128.00,1.21
4127.00,1.21
4126.00,1.21
4125.00,1.21
4124.00,1.21
4123.00,1.21
4122.00,1.21
4121.00,1.21
4120.00,1.22
4119.00,1.22
4118.00,1.22
4117.00,1.22
4116.00,1.22
4115.00,1.22
4114.00,1.22
4113.00,1.22
4112.00,1.22
4111.00,1.22
4110.00,1.22
4109.00,1.22
4108.00,1.22
4107.00,1.22
4106.00,1.22
4105.00,1.22
4104.00,1.22
4103.00,1.22
4102.00,1.22
4101.00,1.22
4100.00,1.22
4099.00,1.22
4098.00,1.22
4097.00,1.22
4096.00,1.22
4095.00,1.22
4094.00,1.22
4093.00,1.22
4092.00,1.22
4091.00,1.22
4090.00,1.23
4089.00,1.23
4088.00,1.23
4087.00,1.23
4086.00,1.23
4085.00,1.23
4084.00,1.23
4083.00,1.23
4082.00,1.24
4081.00,1.24
4080.00,1.24
4079.00,1.24
4078.00,1.24
4077.00,1.24
4076.00,1.24
4075.00,1.24
4074.00,1.24
4073.00,1.24
4072.00,1.24
4071.00,1.24
4070.00,1.24
4069.00,1.24
4068.00,1.24
4067.00,1.24
4066.00,1.24
4065.00,1.24
4064.00,1.24
4063.00,1.24
4062.00,1.24
4061.00,1.25
4060.00,1.25
4059.00,1.25
4058.00,1.25
4057.00,1.25
4056.00,1.25
4055.00,1.26
4054.00,1.26
4053.00,1.26
4052.00,1.26
4051.00,1.26
4050.00,1.26
4049.00,1.26
4048.00,1.26
4047.00,1.26
4046.00,1.26
4045.00,1.26
4044.00,1.26
4043.00,1.26
4042.00,1.26
4041.00,1.26
4040.00,1.26
4039.00,1.26
4038.00,1.26
4037.00,1.26
4036.00,1.26
4035.00,1.26
4034.00,1.26
4033.00,1.27
4032.00,1.27
4031.00,1.27
4030.00,1.27
4029.00,1.27
4028.00,1.27
4027.00,1.27
4026.00,1.27
4025.00,1.27
4024.00,1.28
4023.00,1.28
4022.00,1.28
4021.00,1.28
4020.00,1.28
4019.00,1.29
4018.00,1.29
4017.00,1.29
4016.00,1.29
4015.00,1.29
4014.00,1.29
4013.00,1.30
4012.00,1.30
4011.00,1.30
4010.00,1.30
4009.00,1.30
4008.00,1.30
4007.00,1.30
4006.00,1.30
4005.00,1.31
4004.00,1.31
4003.00,1.31
4002.00,1.31
4001.00,1.31
4000.00,1.31
