创建为新数据集,样品 393 用户 Administrator 日期 星期四, 三月 08 2018
cm-1,%T
10000.00,1.06
9999.00,1.06
9998.00,1.06
9997.00,1.06
9996.00,1.06
9995.00,1.05
9994.00,1.05
9993.00,1.05
9992.00,1.05
9991.00,1.05
9990.00,1.05
9989.00,1.05
9988.00,1.05
9987.00,1.05
9986.00,1.05
9985.00,1.05
9984.00,1.05
9983.00,1.05
9982.00,1.05
9981.00,1.05
9980.00,1.05
9979.00,1.05
9978.00,1.05
9977.00,1.06
9976.00,1.06
9975.00,1.06
9974.00,1.06
9973.00,1.06
9972.00,1.06
9971.00,1.06
9970.00,1.06
9969.00,1.06
9968.00,1.06
9967.00,1.06
9966.00,1.06
9965.00,1.06
9964.00,1.06
9963.00,1.06
9962.00,1.06
9961.00,1.06
9960.00,1.06
9959.00,1.06
9958.00,1.06
9957.00,1.06
9956.00,1.06
9955.00,1.06
9954.00,1.06
9953.00,1.06
9952.00,1.06
9951.00,1.06
9950.00,1.06
9949.00,1.06
9948.00,1.06
9947.00,1.06
9946.00,1.06
9945.00,1.06
9944.00,1.06
9943.00,1.06
9942.00,1.05
9941.00,1.05
9940.00,1.05
9939.00,1.04
9938.00,1.04
9937.00,1.03
9936.00,1.03
9935.00,1.02
9934.00,1.02
9933.00,1.01
9932.00,1.01
9931.00,1.01
9930.00,1.00
9929.00,1.00
9928.00,1.00
9927.00,1.00
9926.00,1.00
9925.00,1.00
9924.00,1.00
9923.00,1.00
9922.00,1.00
9921.00,1.01
9920.00,1.01
9919.00,1.01
9918.00,1.01
9917.00,1.02
9916.00,1.02
9915.00,1.02
9914.00,1.02
9913.00,1.03
9912.00,1.03
9911.00,1.03
9910.00,1.03
9909.00,1.03
9908.00,1.03
9907.00,1.03
9906.00,1.03
9905.00,1.03
9904.00,1.03
9903.00,1.03
9902.00,1.03
9901.00,1.02
9900.00,1.02
9899.00,1.02
9898.00,1.02
9897.00,1.02
9896.00,1.02
9895.00,1.02
9894.00,1.03
9893.00,1.03
9892.00,1.03
9891.00,1.03
9890.00,1.03
9889.00,1.03
9888.00,1.03
9887.00,1.03
9886.00,1.03
9885.00,1.03
9884.00,1.03
9883.00,1.03
9882.00,1.02
9881.00,1.02
9880.00,1.02
9879.00,1.02
9878.00,1.02
9877.00,1.02
9876.00,1.02
9875.00,1.02
9874.00,1.02
9873.00,1.02
9872.00,1.02
9871.00,1.02
9870.00,1.02
9869.00,1.02
9868.00,1.02
9867.00,1.02
9866.00,1.02
9865.00,1.02
9864.00,1.03
9863.00,1.03
9862.00,1.03
9861.00,1.03
9860.00,1.03
9859.00,1.03
9858.00,1.03
9857.00,1.03
9856.00,1.03
9855.00,1.03
9854.00,1.03
9853.00,1.03
9852.00,1.03
9851.00,1.02
9850.00,1.02
9849.00,1.02
9848.00,1.02
9847.00,1.02
9846.00,1.02
9845.00,1.02
9844.00,1.02
9843.00,1.02
9842.00,1.02
9841.00,1.02
9840.00,1.02
9839.00,1.02
9838.00,1.01
9837.00,1.01
9836.00,1.01
9835.00,1.01
9834.00,1.01
9833.00,1.01
9832.00,1.01
9831.00,1.01
9830.00,1.02
9829.00,1.02
9828.00,1.02
9827.00,1.02
9826.00,1.03
9825.00,1.03
9824.00,1.03
9823.00,1.03
9822.00,1.04
9821.00,1.04
9820.00,1.04
9819.00,1.04
9818.00,1.04
9817.00,1.04
9816.00,1.04
9815.00,1.04
9814.00,1.04
9813.00,1.04
9812.00,1.04
9811.00,1.04
9810.00,1.04
9809.00,1.03
9808.00,1.03
9807.00,1.03
9806.00,1.03
9805.00,1.03
9804.00,1.03
9803.00,1.03
9802.00,1.03
9801.00,1.03
9800.00,1.03
9799.00,1.03
9798.00,1.03
9797.00,1.03
9796.00,1.03
9795.00,1.03
9794.00,1.03
9793.00,1.03
9792.00,1.04
9791.00,1.04
9790.00,1.04
9789.00,1.04
9788.00,1.04
9787.00,1.04
9786.00,1.04
9785.00,1.05
9784.00,1.05
9783.00,1.05
9782.00,1.05
9781.00,1.05
9780.00,1.05
9779.00,1.05
9778.00,1.05
9777.00,1.05
9776.00,1.05
9775.00,1.05
9774.00,1.05
9773.00,1.05
9772.00,1.04
9771.00,1.04
9770.00,1.04
9769.00,1.04
9768.00,1.04
9767.00,1.04
9766.00,1.04
9765.00,1.04
9764.00,1.03
9763.00,1.03
9762.00,1.03
9761.00,1.03
9760.00,1.03
9759.00,1.03
9758.00,1.03
9757.00,1.02
9756.00,1.02
9755.00,1.02
9754.00,1.02
9753.00,1.02
9752.00,1.02
9751.00,1.02
9750.00,1.03
9749.00,1.03
9748.00,1.03
9747.00,1.03
9746.00,1.03
9745.00,1.03
9744.00,1.04
9743.00,1.04
9742.00,1.04
9741.00,1.04
9740.00,1.04
9739.00,1.05
9738.00,1.05
9737.00,1.05
9736.00,1.05
9735.00,1.05
9734.00,1.05
9733.00,1.05
9732.00,1.05
9731.00,1.05
9730.00,1.04
9729.00,1.04
9728.00,1.04
9727.00,1.04
9726.00,1.04
9725.00,1.04
9724.00,1.03
9723.00,1.03
9722.00,1.03
9721.00,1.03
9720.00,1.03
9719.00,1.03
9718.00,1.03
9717.00,1.03
9716.00,1.03
9715.00,1.03
9714.00,1.03
9713.00,1.03
9712.00,1.03
9711.00,1.03
9710.00,1.03
9709.00,1.04
9708.00,1.04
9707.00,1.04
9706.00,1.04
9705.00,1.04
9704.00,1.04
9703.00,1.04
9702.00,1.04
9701.00,1.04
9700.00,1.04
9699.00,1.03
9698.00,1.03
9697.00,1.03
9696.00,1.03
9695.00,1.03
9694.00,1.03
9693.00,1.04
9692.00,1.04
9691.00,1.04
9690.00,1.04
9689.00,1.04
9688.00,1.04
9687.00,1.04
9686.00,1.04
9685.00,1.04
9684.00,1.04
9683.00,1.04
9682.00,1.04
9681.00,1.05
9680.00,1.05
9679.00,1.05
9678.00,1.04
9677.00,1.04
9676.00,1.04
9675.00,1.04
9674.00,1.04
9673.00,1.04
9672.00,1.04
9671.00,1.04
9670.00,1.04
9669.00,1.04
9668.00,1.04
9667.00,1.04
9666.00,1.04
9665.00,1.04
9664.00,1.04
9663.00,1.04
9662.00,1.04
9661.00,1.04
9660.00,1.04
9659.00,1.04
9658.00,1.04
9657.00,1.04
9656.00,1.04
9655.00,1.04
9654.00,1.03
9653.00,1.03
9652.00,1.03
9651.00,1.03
9650.00,1.03
9649.00,1.03
9648.00,1.03
9647.00,1.02
9646.00,1.02
9645.00,1.02
9644.00,1.02
9643.00,1.02
9642.00,1.02
9641.00,1.02
9640.00,1.02
9639.00,1.03
9638.00,1.03
9637.00,1.03
9636.00,1.03
9635.00,1.03
9634.00,1.03
9633.00,1.03
9632.00,1.03
9631.00,1.03
9630.00,1.03
9629.00,1.03
9628.00,1.03
9627.00,1.04
9626.00,1.04
9625.00,1.04
9624.00,1.04
9623.00,1.04
9622.00,1.04
9621.00,1.04
9620.00,1.04
9619.00,1.04
9618.00,1.04
9617.00,1.04
9616.00,1.04
9615.00,1.04
9614.00,1.04
9613.00,1.04
9612.00,1.04
9611.00,1.04
9610.00,1.04
9609.00,1.04
9608.00,1.04
9607.00,1.04
9606.00,1.04
9605.00,1.04
9604.00,1.04
9603.00,1.04
9602.00,1.04
9601.00,1.04
9600.00,1.03
9599.00,1.03
9598.00,1.03
9597.00,1.03
9596.00,1.03
9595.00,1.03
9594.00,1.03
9593.00,1.03
9592.00,1.03
9591.00,1.03
9590.00,1.03
9589.00,1.03
9588.00,1.03
9587.00,1.03
9586.00,1.02
9585.00,1.02
9584.00,1.02
9583.00,1.02
9582.00,1.02
9581.00,1.02
9580.00,1.02
9579.00,1.02
9578.00,1.02
9577.00,1.02
9576.00,1.02
9575.00,1.03
9574.00,1.03
9573.00,1.03
9572.00,1.03
9571.00,1.03
9570.00,1.04
9569.00,1.04
9568.00,1.04
9567.00,1.04
9566.00,1.05
9565.00,1.05
9564.00,1.05
9563.00,1.05
9562.00,1.05
9561.00,1.05
9560.00,1.05
9559.00,1.05
9558.00,1.05
9557.00,1.05
9556.00,1.05
9555.00,1.04
9554.00,1.04
9553.00,1.04
9552.00,1.04
9551.00,1.04
9550.00,1.04
9549.00,1.04
9548.00,1.03
9547.00,1.03
9546.00,1.03
9545.00,1.03
9544.00,1.03
9543.00,1.03
9542.00,1.03
9541.00,1.03
9540.00,1.04
9539.00,1.04
9538.00,1.04
9537.00,1.04
9536.00,1.04
9535.00,1.04
9534.00,1.04
9533.00,1.04
9532.00,1.04
9531.00,1.04
9530.00,1.04
9529.00,1.04
9528.00,1.04
9527.00,1.04
9526.00,1.04
9525.00,1.04
9524.00,1.04
9523.00,1.04
9522.00,1.04
9521.00,1.04
9520.00,1.04
9519.00,1.03
9518.00,1.03
9517.00,1.03
9516.00,1.03
9515.00,1.03
9514.00,1.03
9513.00,1.02
9512.00,1.02
9511.00,1.02
9510.00,1.02
9509.00,1.02
9508.00,1.02
9507.00,1.02
9506.00,1.02
9505.00,1.02
9504.00,1.03
9503.00,1.03
9502.00,1.03
9501.00,1.03
9500.00,1.03
9499.00,1.03
9498.00,1.03
9497.00,1.03
9496.00,1.04
9495.00,1.04
9494.00,1.04
9493.00,1.04
9492.00,1.04
9491.00,1.04
9490.00,1.04
9489.00,1.04
9488.00,1.03
9487.00,1.03
9486.00,1.03
9485.00,1.03
9484.00,1.03
9483.00,1.03
9482.00,1.03
9481.00,1.03
9480.00,1.03
9479.00,1.03
9478.00,1.03
9477.00,1.03
9476.00,1.03
9475.00,1.03
9474.00,1.03
9473.00,1.03
9472.00,1.03
9471.00,1.03
9470.00,1.03
9469.00,1.03
9468.00,1.03
9467.00,1.04
9466.00,1.04
9465.00,1.04
9464.00,1.04
9463.00,1.04
9462.00,1.04
9461.00,1.04
9460.00,1.04
9459.00,1.04
9458.00,1.04
9457.00,1.04
9456.00,1.04
9455.00,1.04
9454.00,1.04
9453.00,1.04
9452.00,1.04
9451.00,1.03
9450.00,1.03
9449.00,1.03
9448.00,1.03
9447.00,1.03
9446.00,1.03
9445.00,1.03
9444.00,1.03
9443.00,1.03
9442.00,1.03
9441.00,1.03
9440.00,1.03
9439.00,1.03
9438.00,1.03
9437.00,1.03
9436.00,1.03
9435.00,1.03
9434.00,1.02
9433.00,1.02
9432.00,1.02
9431.00,1.02
9430.00,1.02
9429.00,1.02
9428.00,1.02
9427.00,1.02
9426.00,1.03
9425.00,1.03
9424.00,1.03
9423.00,1.03
9422.00,1.03
9421.00,1.03
9420.00,1.03
9419.00,1.03
9418.00,1.03
9417.00,1.03
9416.00,1.04
9415.00,1.04
9414.00,1.04
9413.00,1.04
9412.00,1.04
9411.00,1.04
9410.00,1.04
9409.00,1.04
9408.00,1.04
9407.00,1.04
9406.00,1.04
9405.00,1.04
9404.00,1.04
9403.00,1.04
9402.00,1.04
9401.00,1.04
9400.00,1.04
9399.00,1.04
9398.00,1.04
9397.00,1.04
9396.00,1.04
9395.00,1.04
9394.00,1.04
9393.00,1.04
9392.00,1.04
9391.00,1.04
9390.00,1.04
9389.00,1.04
9388.00,1.04
9387.00,1.04
9386.00,1.04
9385.00,1.04
9384.00,1.04
9383.00,1.04
9382.00,1.04
9381.00,1.04
9380.00,1.04
9379.00,1.04
9378.00,1.04
9377.00,1.04
9376.00,1.04
9375.00,1.04
9374.00,1.04
9373.00,1.03
9372.00,1.03
9371.00,1.03
9370.00,1.03
9369.00,1.03
9368.00,1.03
9367.00,1.03
9366.00,1.03
9365.00,1.03
9364.00,1.03
9363.00,1.03
9362.00,1.03
9361.00,1.03
9360.00,1.03
9359.00,1.03
9358.00,1.03
9357.00,1.03
9356.00,1.03
9355.00,1.03
9354.00,1.03
9353.00,1.03
9352.00,1.03
9351.00,1.03
9350.00,1.04
9349.00,1.04
9348.00,1.04
9347.00,1.04
9346.00,1.04
9345.00,1.04
9344.00,1.04
9343.00,1.03
9342.00,1.03
9341.00,1.03
9340.00,1.03
9339.00,1.03
9338.00,1.03
9337.00,1.02
9336.00,1.02
9335.00,1.02
9334.00,1.02
9333.00,1.02
9332.00,1.02
9331.00,1.01
9330.00,1.01
9329.00,1.01
9328.00,1.01
9327.00,1.01
9326.00,1.01
9325.00,1.01
9324.00,1.01
9323.00,1.02
9322.00,1.02
9321.00,1.02
9320.00,1.02
9319.00,1.02
9318.00,1.02
9317.00,1.03
9316.00,1.03
9315.00,1.03
9314.00,1.03
9313.00,1.03
9312.00,1.04
9311.00,1.04
9310.00,1.04
9309.00,1.04
9308.00,1.04
9307.00,1.04
9306.00,1.04
9305.00,1.04
9304.00,1.04
9303.00,1.04
9302.00,1.04
9301.00,1.04
9300.00,1.04
9299.00,1.04
9298.00,1.04
9297.00,1.04
9296.00,1.03
9295.00,1.03
9294.00,1.03
9293.00,1.03
9292.00,1.03
9291.00,1.03
9290.00,1.03
9289.00,1.03
9288.00,1.03
9287.00,1.03
9286.00,1.03
9285.00,1.03
9284.00,1.03
9283.00,1.03
9282.00,1.03
9281.00,1.03
9280.00,1.03
9279.00,1.03
9278.00,1.03
9277.00,1.03
9276.00,1.03
9275.00,1.03
9274.00,1.03
9273.00,1.03
9272.00,1.03
9271.00,1.03
9270.00,1.03
9269.00,1.03
9268.00,1.03
9267.00,1.03
9266.00,1.03
9265.00,1.03
9264.00,1.03
9263.00,1.03
9262.00,1.03
9261.00,1.03
9260.00,1.03
9259.00,1.03
9258.00,1.03
9257.00,1.02
9256.00,1.02
9255.00,1.02
9254.00,1.02
9253.00,1.02
9252.00,1.02
9251.00,1.02
9250.00,1.02
9249.00,1.02
9248.00,1.02
9247.00,1.02
9246.00,1.03
9245.00,1.03
9244.00,1.03
9243.00,1.03
9242.00,1.03
9241.00,1.04
9240.00,1.04
9239.00,1.04
9238.00,1.04
9237.00,1.05
9236.00,1.05
9235.00,1.05
9234.00,1.05
9233.00,1.05
9232.00,1.05
9231.00,1.06
9230.00,1.06
9229.00,1.06
9228.00,1.06
9227.00,1.06
9226.00,1.06
9225.00,1.05
9224.00,1.05
9223.00,1.05
9222.00,1.05
9221.00,1.05
9220.00,1.05
9219.00,1.05
9218.00,1.05
9217.00,1.04
9216.00,1.04
9215.00,1.04
9214.00,1.04
9213.00,1.04
9212.00,1.04
9211.00,1.04
9210.00,1.04
9209.00,1.04
9208.00,1.04
9207.00,1.04
9206.00,1.04
9205.00,1.04
9204.00,1.04
9203.00,1.04
9202.00,1.04
9201.00,1.04
9200.00,1.05
9199.00,1.05
9198.00,1.05
9197.00,1.05
9196.00,1.05
9195.00,1.05
9194.00,1.05
9193.00,1.05
9192.00,1.05
9191.00,1.05
9190.00,1.05
9189.00,1.05
9188.00,1.05
9187.00,1.05
9186.00,1.06
9185.00,1.06
9184.00,1.06
9183.00,1.06
9182.00,1.06
9181.00,1.06
9180.00,1.06
9179.00,1.06
9178.00,1.06
9177.00,1.06
9176.00,1.06
9175.00,1.06
9174.00,1.06
9173.00,1.06
9172.00,1.06
9171.00,1.06
9170.00,1.06
9169.00,1.06
9168.00,1.06
9167.00,1.05
9166.00,1.05
9165.00,1.05
9164.00,1.05
9163.00,1.05
9162.00,1.05
9161.00,1.04
9160.00,1.04
9159.00,1.04
9158.00,1.04
9157.00,1.04
9156.00,1.03
9155.00,1.03
9154.00,1.03
9153.00,1.03
9152.00,1.03
9151.00,1.03
9150.00,1.03
9149.00,1.03
9148.00,1.03
9147.00,1.03
9146.00,1.03
9145.00,1.03
9144.00,1.03
9143.00,1.03
9142.00,1.03
9141.00,1.03
9140.00,1.03
9139.00,1.03
9138.00,1.03
9137.00,1.03
9136.00,1.04
9135.00,1.04
9134.00,1.04
9133.00,1.04
9132.00,1.04
9131.00,1.04
9130.00,1.04
9129.00,1.04
9128.00,1.05
9127.00,1.05
9126.00,1.05
9125.00,1.05
9124.00,1.05
9123.00,1.05
9122.00,1.05
9121.00,1.05
9120.00,1.05
9119.00,1.05
9118.00,1.05
9117.00,1.05
9116.00,1.05
9115.00,1.05
9114.00,1.05
9113.00,1.04
9112.00,1.04
9111.00,1.04
9110.00,1.04
9109.00,1.04
9108.00,1.04
9107.00,1.04
9106.00,1.04
9105.00,1.04
9104.00,1.04
9103.00,1.04
9102.00,1.04
9101.00,1.04
9100.00,1.03
9099.00,1.03
9098.00,1.03
9097.00,1.03
9096.00,1.03
9095.00,1.03
9094.00,1.03
9093.00,1.03
9092.00,1.03
9091.00,1.03
9090.00,1.02
9089.00,1.03
9088.00,1.03
9087.00,1.03
9086.00,1.03
9085.00,1.03
9084.00,1.03
9083.00,1.03
9082.00,1.03
9081.00,1.03
9080.00,1.04
9079.00,1.04
9078.00,1.04
9077.00,1.04
9076.00,1.04
9075.00,1.04
9074.00,1.04
9073.00,1.04
9072.00,1.04
9071.00,1.04
9070.00,1.04
9069.00,1.04
9068.00,1.04
9067.00,1.04
9066.00,1.04
9065.00,1.04
9064.00,1.04
9063.00,1.04
9062.00,1.04
9061.00,1.04
9060.00,1.03
9059.00,1.03
9058.00,1.03
9057.00,1.03
9056.00,1.03
9055.00,1.03
9054.00,1.03
9053.00,1.03
9052.00,1.03
9051.00,1.03
9050.00,1.03
9049.00,1.03
9048.00,1.04
9047.00,1.04
9046.00,1.04
9045.00,1.04
9044.00,1.04
9043.00,1.04
9042.00,1.04
9041.00,1.04
9040.00,1.04
9039.00,1.04
9038.00,1.04
9037.00,1.04
9036.00,1.04
9035.00,1.04
9034.00,1.05
9033.00,1.05
9032.00,1.05
9031.00,1.05
9030.00,1.05
9029.00,1.05
9028.00,1.05
9027.00,1.04
9026.00,1.04
9025.00,1.04
9024.00,1.04
9023.00,1.04
9022.00,1.04
9021.00,1.04
9020.00,1.04
9019.00,1.04
9018.00,1.04
9017.00,1.04
9016.00,1.04
9015.00,1.04
9014.00,1.04
9013.00,1.04
9012.00,1.04
9011.00,1.04
9010.00,1.04
9009.00,1.04
9008.00,1.04
9007.00,1.04
9006.00,1.04
9005.00,1.04
9004.00,1.05
9003.00,1.05
9002.00,1.05
9001.00,1.05
9000.00,1.05
8999.00,1.06
8998.00,1.06
8997.00,1.06
8996.00,1.06
8995.00,1.06
8994.00,1.06
8993.00,1.06
8992.00,1.06
8991.00,1.06
8990.00,1.06
8989.00,1.06
8988.00,1.05
8987.00,1.05
8986.00,1.05
8985.00,1.05
8984.00,1.04
8983.00,1.04
8982.00,1.04
8981.00,1.04
8980.00,1.03
8979.00,1.03
8978.00,1.03
8977.00,1.03
8976.00,1.03
8975.00,1.03
8974.00,1.03
8973.00,1.03
8972.00,1.03
8971.00,1.03
8970.00,1.03
8969.00,1.03
8968.00,1.03
8967.00,1.03
8966.00,1.03
8965.00,1.03
8964.00,1.03
8963.00,1.03
8962.00,1.03
8961.00,1.03
8960.00,1.03
8959.00,1.03
8958.00,1.03
8957.00,1.03
8956.00,1.03
8955.00,1.03
8954.00,1.03
8953.00,1.03
8952.00,1.03
8951.00,1.03
8950.00,1.03
8949.00,1.03
8948.00,1.03
8947.00,1.03
8946.00,1.03
8945.00,1.03
8944.00,1.03
8943.00,1.04
8942.00,1.04
8941.00,1.04
8940.00,1.04
8939.00,1.04
8938.00,1.04
8937.00,1.04
8936.00,1.04
8935.00,1.04
8934.00,1.04
8933.00,1.04
8932.00,1.04
8931.00,1.03
8930.00,1.03
8929.00,1.03
8928.00,1.03
8927.00,1.03
8926.00,1.03
8925.00,1.02
8924.00,1.02
8923.00,1.02
8922.00,1.02
8921.00,1.02
8920.00,1.02
8919.00,1.02
8918.00,1.02
8917.00,1.02
8916.00,1.01
8915.00,1.02
8914.00,1.02
8913.00,1.02
8912.00,1.02
8911.00,1.02
8910.00,1.02
8909.00,1.02
8908.00,1.02
8907.00,1.02
8906.00,1.03
8905.00,1.03
8904.00,1.03
8903.00,1.03
8902.00,1.03
8901.00,1.03
8900.00,1.03
8899.00,1.04
8898.00,1.04
8897.00,1.04
8896.00,1.04
8895.00,1.04
8894.00,1.04
8893.00,1.04
8892.00,1.04
8891.00,1.04
8890.00,1.03
8889.00,1.03
8888.00,1.03
8887.00,1.03
8886.00,1.03
8885.00,1.03
8884.00,1.03
8883.00,1.03
8882.00,1.03
8881.00,1.03
8880.00,1.03
8879.00,1.03
8878.00,1.03
8877.00,1.03
8876.00,1.03
8875.00,1.03
8874.00,1.04
8873.00,1.04
8872.00,1.04
8871.00,1.04
8870.00,1.04
8869.00,1.04
8868.00,1.04
8867.00,1.04
8866.00,1.04
8865.00,1.04
8864.00,1.04
8863.00,1.04
8862.00,1.04
8861.00,1.04
8860.00,1.04
8859.00,1.04
8858.00,1.03
8857.00,1.03
8856.00,1.03
8855.00,1.03
8854.00,1.03
8853.00,1.02
8852.00,1.02
8851.00,1.02
8850.00,1.02
8849.00,1.02
8848.00,1.02
8847.00,1.02
8846.00,1.01
8845.00,1.01
8844.00,1.01
8843.00,1.01
8842.00,1.01
8841.00,1.01
8840.00,1.01
8839.00,1.01
8838.00,1.01
8837.00,1.01
8836.00,1.01
8835.00,1.01
8834.00,1.02
8833.00,1.02
8832.00,1.02
8831.00,1.02
8830.00,1.02
8829.00,1.02
8828.00,1.02
8827.00,1.02
8826.00,1.02
8825.00,1.02
8824.00,1.02
8823.00,1.02
8822.00,1.02
8821.00,1.02
8820.00,1.02
8819.00,1.02
8818.00,1.02
8817.00,1.02
8816.00,1.02
8815.00,1.02
8814.00,1.02
8813.00,1.02
8812.00,1.02
8811.00,1.02
8810.00,1.01
8809.00,1.01
8808.00,1.01
8807.00,1.01
8806.00,1.01
8805.00,1.01
8804.00,1.01
8803.00,1.01
8802.00,1.01
8801.00,1.00
8800.00,1.00
8799.00,1.00
8798.00,1.00
8797.00,1.00
8796.00,1.00
8795.00,1.00
8794.00,1.00
8793.00,1.00
8792.00,1.00
8791.00,1.00
8790.00,1.00
8789.00,1.00
8788.00,1.00
8787.00,1.00
8786.00,1.00
8785.00,1.00
8784.00,1.00
8783.00,1.00
8782.00,1.00
8781.00,1.00
8780.00,1.00
8779.00,0.99
8778.00,0.99
8777.00,0.99
8776.00,0.99
8775.00,0.99
8774.00,0.99
8773.00,0.99
8772.00,0.99
8771.00,0.99
8770.00,0.99
8769.00,0.99
8768.00,0.99
8767.00,0.99
8766.00,0.99
8765.00,0.99
8764.00,0.99
8763.00,0.99
8762.00,0.99
8761.00,0.99
8760.00,0.99
8759.00,0.99
8758.00,0.99
8757.00,0.99
8756.00,0.99
8755.00,0.99
8754.00,1.00
8753.00,1.00
8752.00,1.00
8751.00,1.00
8750.00,1.00
8749.00,1.00
8748.00,1.00
8747.00,1.00
8746.00,1.00
8745.00,1.00
8744.00,1.00
8743.00,1.00
8742.00,1.00
8741.00,1.00
8740.00,1.00
8739.00,1.00
8738.00,1.00
8737.00,1.00
8736.00,1.00
8735.00,1.00
8734.00,1.00
8733.00,1.00
8732.00,1.00
8731.00,1.00
8730.00,1.00
8729.00,1.00
8728.00,1.00
8727.00,1.00
8726.00,1.00
8725.00,1.00
8724.00,1.00
8723.00,0.99
8722.00,0.99
8721.00,0.99
8720.00,0.99
8719.00,0.99
8718.00,0.99
8717.00,0.99
8716.00,0.99
8715.00,0.99
8714.00,0.98
8713.00,0.98
8712.00,0.98
8711.00,0.98
8710.00,0.98
8709.00,0.98
8708.00,0.98
8707.00,0.98
8706.00,0.98
8705.00,0.98
8704.00,0.98
8703.00,0.98
8702.00,0.98
8701.00,0.98
8700.00,0.98
8699.00,0.98
8698.00,0.98
8697.00,0.98
8696.00,0.98
8695.00,0.98
8694.00,0.97
8693.00,0.97
8692.00,0.97
8691.00,0.97
8690.00,0.97
8689.00,0.97
8688.00,0.97
8687.00,0.97
8686.00,0.97
8685.00,0.97
8684.00,0.97
8683.00,0.97
8682.00,0.97
8681.00,0.97
8680.00,0.97
8679.00,0.97
8678.00,0.97
8677.00,0.97
8676.00,0.97
8675.00,0.97
8674.00,0.97
8673.00,0.97
8672.00,0.97
8671.00,0.97
8670.00,0.97
8669.00,0.97
8668.00,0.97
8667.00,0.97
8666.00,0.97
8665.00,0.97
8664.00,0.97
8663.00,0.97
8662.00,0.97
8661.00,0.97
8660.00,0.97
8659.00,0.97
8658.00,0.97
8657.00,0.97
8656.00,0.97
8655.00,0.97
8654.00,0.97
8653.00,0.97
8652.00,0.97
8651.00,0.97
8650.00,0.97
8649.00,0.97
8648.00,0.97
8647.00,0.97
8646.00,0.97
8645.00,0.97
8644.00,0.97
8643.00,0.97
8642.00,0.97
8641.00,0.97
8640.00,0.97
8639.00,0.97
8638.00,0.97
8637.00,0.97
8636.00,0.97
8635.00,0.97
8634.00,0.97
8633.00,0.97
8632.00,0.97
8631.00,0.97
8630.00,0.97
8629.00,0.97
8628.00,0.97
8627.00,0.97
8626.00,0.97
8625.00,0.97
8624.00,0.97
8623.00,0.97
8622.00,0.97
8621.00,0.97
8620.00,0.97
8619.00,0.97
8618.00,0.97
8617.00,0.96
8616.00,0.96
8615.00,0.96
8614.00,0.96
8613.00,0.96
8612.00,0.96
8611.00,0.96
8610.00,0.96
8609.00,0.96
8608.00,0.96
8607.00,0.96
8606.00,0.95
8605.00,0.95
8604.00,0.95
8603.00,0.95
8602.00,0.95
8601.00,0.95
8600.00,0.95
8599.00,0.95
8598.00,0.95
8597.00,0.95
8596.00,0.95
8595.00,0.95
8594.00,0.95
8593.00,0.96
8592.00,0.96
8591.00,0.96
8590.00,0.96
8589.00,0.96
8588.00,0.96
8587.00,0.96
8586.00,0.96
8585.00,0.95
8584.00,0.95
8583.00,0.95
8582.00,0.95
8581.00,0.95
8580.00,0.95
8579.00,0.94
8578.00,0.94
8577.00,0.94
8576.00,0.94
8575.00,0.94
8574.00,0.94
8573.00,0.93
8572.00,0.93
8571.00,0.93
8570.00,0.93
8569.00,0.93
8568.00,0.93
8567.00,0.93
8566.00,0.93
8565.00,0.93
8564.00,0.93
8563.00,0.93
8562.00,0.93
8561.00,0.93
8560.00,0.93
8559.00,0.93
8558.00,0.93
8557.00,0.93
8556.00,0.93
8555.00,0.93
8554.00,0.93
8553.00,0.93
8552.00,0.93
8551.00,0.93
8550.00,0.93
8549.00,0.93
8548.00,0.93
8547.00,0.93
8546.00,0.93
8545.00,0.93
8544.00,0.93
8543.00,0.93
8542.00,0.93
8541.00,0.93
8540.00,0.93
8539.00,0.93
8538.00,0.93
8537.00,0.93
8536.00,0.93
8535.00,0.93
8534.00,0.93
8533.00,0.93
8532.00,0.93
8531.00,0.93
8530.00,0.93
8529.00,0.92
8528.00,0.92
8527.00,0.92
8526.00,0.92
8525.00,0.92
8524.00,0.92
8523.00,0.92
8522.00,0.92
8521.00,0.92
8520.00,0.92
8519.00,0.92
8518.00,0.92
8517.00,0.92
8516.00,0.92
8515.00,0.92
8514.00,0.92
8513.00,0.92
8512.00,0.92
8511.00,0.92
8510.00,0.92
8509.00,0.92
8508.00,0.92
8507.00,0.92
8506.00,0.92
8505.00,0.92
8504.00,0.92
8503.00,0.92
8502.00,0.92
8501.00,0.91
8500.00,0.91
8499.00,0.91
8498.00,0.91
8497.00,0.91
8496.00,0.91
8495.00,0.91
8494.00,0.91
8493.00,0.91
8492.00,0.91
8491.00,0.90
8490.00,0.90
8489.00,0.90
8488.00,0.90
8487.00,0.90
8486.00,0.90
8485.00,0.90
8484.00,0.90
8483.00,0.90
8482.00,0.90
8481.00,0.90
8480.00,0.90
8479.00,0.90
8478.00,0.90
8477.00,0.90
8476.00,0.89
8475.00,0.89
8474.00,0.89
8473.00,0.89
8472.00,0.89
8471.00,0.89
8470.00,0.89
8469.00,0.89
8468.00,0.89
8467.00,0.89
8466.00,0.88
8465.00,0.88
8464.00,0.88
8463.00,0.88
8462.00,0.88
8461.00,0.88
8460.00,0.88
8459.00,0.88
8458.00,0.88
8457.00,0.88
8456.00,0.88
8455.00,0.87
8454.00,0.87
8453.00,0.87
8452.00,0.87
8451.00,0.87
8450.00,0.87
8449.00,0.87
8448.00,0.87
8447.00,0.87
8446.00,0.87
8445.00,0.87
8444.00,0.87
8443.00,0.87
8442.00,0.87
8441.00,0.87
8440.00,0.87
8439.00,0.87
8438.00,0.87
8437.00,0.87
8436.00,0.87
8435.00,0.87
8434.00,0.87
8433.00,0.87
8432.00,0.87
8431.00,0.88
8430.00,0.88
8429.00,0.88
8428.00,0.88
8427.00,0.88
8426.00,0.88
8425.00,0.88
8424.00,0.88
8423.00,0.88
8422.00,0.89
8421.00,0.89
8420.00,0.89
8419.00,0.89
8418.00,0.89
8417.00,0.89
8416.00,0.89
8415.00,0.89
8414.00,0.89
8413.00,0.89
8412.00,0.89
8411.00,0.89
8410.00,0.89
8409.00,0.89
8408.00,0.89
8407.00,0.89
8406.00,0.89
8405.00,0.89
8404.00,0.89
8403.00,0.89
8402.00,0.90
8401.00,0.90
8400.00,0.90
8399.00,0.90
8398.00,0.90
8397.00,0.90
8396.00,0.90
8395.00,0.90
8394.00,0.90
8393.00,0.90
8392.00,0.90
8391.00,0.91
8390.00,0.91
8389.00,0.91
8388.00,0.91
8387.00,0.91
8386.00,0.91
8385.00,0.91
8384.00,0.91
8383.00,0.91
8382.00,0.91
8381.00,0.91
8380.00,0.91
8379.00,0.92
8378.00,0.92
8377.00,0.92
8376.00,0.92
8375.00,0.92
8374.00,0.92
8373.00,0.91
8372.00,0.91
8371.00,0.91
8370.00,0.91
8369.00,0.91
8368.00,0.91
8367.00,0.91
8366.00,0.91
8365.00,0.91
8364.00,0.91
8363.00,0.91
8362.00,0.91
8361.00,0.91
8360.00,0.91
8359.00,0.91
8358.00,0.91
8357.00,0.91
8356.00,0.91
8355.00,0.92
8354.00,0.92
8353.00,0.92
8352.00,0.92
8351.00,0.92
8350.00,0.92
8349.00,0.92
8348.00,0.92
8347.00,0.92
8346.00,0.92
8345.00,0.92
8344.00,0.92
8343.00,0.92
8342.00,0.92
8341.00,0.92
8340.00,0.92
8339.00,0.92
8338.00,0.92
8337.00,0.92
8336.00,0.92
8335.00,0.92
8334.00,0.92
8333.00,0.92
8332.00,0.92
8331.00,0.92
8330.00,0.92
8329.00,0.92
8328.00,0.92
8327.00,0.93
8326.00,0.93
8325.00,0.93
8324.00,0.93
8323.00,0.93
8322.00,0.93
8321.00,0.93
8320.00,0.93
8319.00,0.93
8318.00,0.93
8317.00,0.92
8316.00,0.92
8315.00,0.92
8314.00,0.92
8313.00,0.92
8312.00,0.92
8311.00,0.92
8310.00,0.92
8309.00,0.92
8308.00,0.92
8307.00,0.92
8306.00,0.92
8305.00,0.92
8304.00,0.92
8303.00,0.92
8302.00,0.92
8301.00,0.92
8300.00,0.92
8299.00,0.92
8298.00,0.92
8297.00,0.92
8296.00,0.92
8295.00,0.92
8294.00,0.92
8293.00,0.92
8292.00,0.92
8291.00,0.92
8290.00,0.92
8289.00,0.93
8288.00,0.93
8287.00,0.93
8286.00,0.93
8285.00,0.93
8284.00,0.93
8283.00,0.93
8282.00,0.93
8281.00,0.93
8280.00,0.94
8279.00,0.94
8278.00,0.94
8277.00,0.94
8276.00,0.94
8275.00,0.94
8274.00,0.94
8273.00,0.94
8272.00,0.94
8271.00,0.94
8270.00,0.94
8269.00,0.93
8268.00,0.93
8267.00,0.93
8266.00,0.93
8265.00,0.93
8264.00,0.93
8263.00,0.93
8262.00,0.93
8261.00,0.93
8260.00,0.93
8259.00,0.93
8258.00,0.93
8257.00,0.93
8256.00,0.94
8255.00,0.94
8254.00,0.94
8253.00,0.94
8252.00,0.94
8251.00,0.94
8250.00,0.94
8249.00,0.94
8248.00,0.94
8247.00,0.94
8246.00,0.94
8245.00,0.94
8244.00,0.94
8243.00,0.94
8242.00,0.94
8241.00,0.94
8240.00,0.94
8239.00,0.94
8238.00,0.94
8237.00,0.94
8236.00,0.94
8235.00,0.94
8234.00,0.94
8233.00,0.94
8232.00,0.94
8231.00,0.94
8230.00,0.94
8229.00,0.94
8228.00,0.94
8227.00,0.94
8226.00,0.94
8225.00,0.94
8224.00,0.94
8223.00,0.94
8222.00,0.94
8221.00,0.94
8220.00,0.94
8219.00,0.94
8218.00,0.94
8217.00,0.94
8216.00,0.95
8215.00,0.95
8214.00,0.95
8213.00,0.95
8212.00,0.95
8211.00,0.95
8210.00,0.95
8209.00,0.96
8208.00,0.96
8207.00,0.96
8206.00,0.96
8205.00,0.96
8204.00,0.96
8203.00,0.96
8202.00,0.96
8201.00,0.96
8200.00,0.96
8199.00,0.97
8198.00,0.97
8197.00,0.97
8196.00,0.97
8195.00,0.97
8194.00,0.97
8193.00,0.97
8192.00,0.97
8191.00,0.97
8190.00,0.97
8189.00,0.97
8188.00,0.97
8187.00,0.97
8186.00,0.97
8185.00,0.97
8184.00,0.97
8183.00,0.97
8182.00,0.97
8181.00,0.97
8180.00,0.96
8179.00,0.96
8178.00,0.96
8177.00,0.96
8176.00,0.96
8175.00,0.96
8174.00,0.96
8173.00,0.96
8172.00,0.96
8171.00,0.96
8170.00,0.96
8169.00,0.96
8168.00,0.96
8167.00,0.96
8166.00,0.96
8165.00,0.96
8164.00,0.96
8163.00,0.96
8162.00,0.96
8161.00,0.96
8160.00,0.96
8159.00,0.96
8158.00,0.96
8157.00,0.96
8156.00,0.96
8155.00,0.96
8154.00,0.96
8153.00,0.96
8152.00,0.96
8151.00,0.97
8150.00,0.97
8149.00,0.97
8148.00,0.97
8147.00,0.97
8146.00,0.97
8145.00,0.97
8144.00,0.97
8143.00,0.97
8142.00,0.97
8141.00,0.97
8140.00,0.98
8139.00,0.98
8138.00,0.98
8137.00,0.98
8136.00,0.98
8135.00,0.98
8134.00,0.98
8133.00,0.98
8132.00,0.98
8131.00,0.98
8130.00,0.98
8129.00,0.98
8128.00,0.98
8127.00,0.98
8126.00,0.98
8125.00,0.98
8124.00,0.98
8123.00,0.98
8122.00,0.98
8121.00,0.98
8120.00,0.98
8119.00,0.98
8118.00,0.98
8117.00,0.98
8116.00,0.98
8115.00,0.98
8114.00,0.98
8113.00,0.98
8112.00,0.98
8111.00,0.98
8110.00,0.98
8109.00,0.98
8108.00,0.98
8107.00,0.98
8106.00,0.98
8105.00,0.98
8104.00,0.98
8103.00,0.98
8102.00,0.98
8101.00,0.98
8100.00,0.98
8099.00,0.98
8098.00,0.98
8097.00,0.98
8096.00,0.98
8095.00,0.98
8094.00,0.98
8093.00,0.98
8092.00,0.99
8091.00,0.99
8090.00,0.99
8089.00,0.99
8088.00,0.99
8087.00,0.99
8086.00,0.99
8085.00,0.99
8084.00,1.00
8083.00,1.00
8082.00,1.00
8081.00,1.00
8080.00,1.00
8079.00,1.00
8078.00,1.00
8077.00,1.00
8076.00,1.00
8075.00,1.00
8074.00,1.00
8073.00,1.00
8072.00,1.00
8071.00,1.00
8070.00,1.00
8069.00,1.00
8068.00,1.00
8067.00,1.00
8066.00,1.00
8065.00,1.00
8064.00,1.01
8063.00,1.01
8062.00,1.01
8061.00,1.01
8060.00,1.01
8059.00,1.01
8058.00,1.01
8057.00,1.01
8056.00,1.01
8055.00,1.01
8054.00,1.01
8053.00,1.01
8052.00,1.01
8051.00,1.01
8050.00,1.01
8049.00,1.01
8048.00,1.01
8047.00,1.01
8046.00,1.01
8045.00,1.01
8044.00,1.01
8043.00,1.01
8042.00,1.01
8041.00,1.01
8040.00,1.01
8039.00,1.01
8038.00,1.01
8037.00,1.01
8036.00,1.02
8035.00,1.02
8034.00,1.02
8033.00,1.02
8032.00,1.02
8031.00,1.02
8030.00,1.02
8029.00,1.02
8028.00,1.02
8027.00,1.02
8026.00,1.02
8025.00,1.02
8024.00,1.02
8023.00,1.02
8022.00,1.02
8021.00,1.02
8020.00,1.02
8019.00,1.02
8018.00,1.02
8017.00,1.02
8016.00,1.02
8015.00,1.02
8014.00,1.02
8013.00,1.02
8012.00,1.02
8011.00,1.02
8010.00,1.02
8009.00,1.02
8008.00,1.02
8007.00,1.02
8006.00,1.02
8005.00,1.02
8004.00,1.02
8003.00,1.02
8002.00,1.02
8001.00,1.02
8000.00,1.02
7999.00,1.02
7998.00,1.02
7997.00,1.02
7996.00,1.02
7995.00,1.02
7994.00,1.02
7993.00,1.02
7992.00,1.02
7991.00,1.02
7990.00,1.02
7989.00,1.02
7988.00,1.02
7987.00,1.01
7986.00,1.01
7985.00,1.01
7984.00,1.01
7983.00,1.01
7982.00,1.01
7981.00,1.01
7980.00,1.01
7979.00,1.01
7978.00,1.01
7977.00,1.01
7976.00,1.01
7975.00,1.01
7974.00,1.01
7973.00,1.01
7972.00,1.01
7971.00,1.01
7970.00,1.01
7969.00,1.01
7968.00,1.01
7967.00,1.01
7966.00,1.01
7965.00,1.01
7964.00,1.01
7963.00,1.01
7962.00,1.01
7961.00,1.01
7960.00,1.01
7959.00,1.01
7958.00,1.01
7957.00,1.02
7956.00,1.02
7955.00,1.02
7954.00,1.02
7953.00,1.02
7952.00,1.02
7951.00,1.02
7950.00,1.02
7949.00,1.02
7948.00,1.03
7947.00,1.03
7946.00,1.03
7945.00,1.03
7944.00,1.03
7943.00,1.03
7942.00,1.03
7941.00,1.03
7940.00,1.03
7939.00,1.03
7938.00,1.03
7937.00,1.03
7936.00,1.03
7935.00,1.03
7934.00,1.03
7933.00,1.03
7932.00,1.03
7931.00,1.03
7930.00,1.03
7929.00,1.03
7928.00,1.03
7927.00,1.03
7926.00,1.03
7925.00,1.03
7924.00,1.04
7923.00,1.04
7922.00,1.04
7921.00,1.04
7920.00,1.04
7919.00,1.04
7918.00,1.04
7917.00,1.04
7916.00,1.03
7915.00,1.03
7914.00,1.03
7913.00,1.03
7912.00,1.03
7911.00,1.03
7910.00,1.03
7909.00,1.03
7908.00,1.03
7907.00,1.03
7906.00,1.03
7905.00,1.03
7904.00,1.03
7903.00,1.03
7902.00,1.03
7901.00,1.03
7900.00,1.03
7899.00,1.03
7898.00,1.03
7897.00,1.03
7896.00,1.03
7895.00,1.03
7894.00,1.03
7893.00,1.03
7892.00,1.03
7891.00,1.03
7890.00,1.03
7889.00,1.03
7888.00,1.03
7887.00,1.03
7886.00,1.03
7885.00,1.03
7884.00,1.03
7883.00,1.03
7882.00,1.03
7881.00,1.03
7880.00,1.03
7879.00,1.03
7878.00,1.03
7877.00,1.03
7876.00,1.03
7875.00,1.03
7874.00,1.03
7873.00,1.03
7872.00,1.03
7871.00,1.03
7870.00,1.03
7869.00,1.03
7868.00,1.04
7867.00,1.04
7866.00,1.04
7865.00,1.04
7864.00,1.04
7863.00,1.04
7862.00,1.04
7861.00,1.04
7860.00,1.04
7859.00,1.04
7858.00,1.04
7857.00,1.04
7856.00,1.04
7855.00,1.04
7854.00,1.04
7853.00,1.04
7852.00,1.04
7851.00,1.04
7850.00,1.04
7849.00,1.04
7848.00,1.04
7847.00,1.04
7846.00,1.04
7845.00,1.04
7844.00,1.04
7843.00,1.04
7842.00,1.04
7841.00,1.04
7840.00,1.04
7839.00,1.04
7838.00,1.04
7837.00,1.04
7836.00,1.04
7835.00,1.04
7834.00,1.04
7833.00,1.04
7832.00,1.04
7831.00,1.04
7830.00,1.04
7829.00,1.04
7828.00,1.04
7827.00,1.04
7826.00,1.04
7825.00,1.04
7824.00,1.04
7823.00,1.04
7822.00,1.04
7821.00,1.04
7820.00,1.04
7819.00,1.04
7818.00,1.04
7817.00,1.04
7816.00,1.04
7815.00,1.04
7814.00,1.04
7813.00,1.05
7812.00,1.05
7811.00,1.05
7810.00,1.05
7809.00,1.05
7808.00,1.05
7807.00,1.05
7806.00,1.05
7805.00,1.05
7804.00,1.05
7803.00,1.05
7802.00,1.05
7801.00,1.05
7800.00,1.05
7799.00,1.05
7798.00,1.05
7797.00,1.05
7796.00,1.05
7795.00,1.05
7794.00,1.05
7793.00,1.05
7792.00,1.05
7791.00,1.05
7790.00,1.05
7789.00,1.05
7788.00,1.05
7787.00,1.05
7786.00,1.05
7785.00,1.05
7784.00,1.05
7783.00,1.05
7782.00,1.05
7781.00,1.05
7780.00,1.05
7779.00,1.05
7778.00,1.05
7777.00,1.05
7776.00,1.05
7775.00,1.05
7774.00,1.05
7773.00,1.05
7772.00,1.05
7771.00,1.05
7770.00,1.05
7769.00,1.05
7768.00,1.05
7767.00,1.05
7766.00,1.05
7765.00,1.05
7764.00,1.05
7763.00,1.05
7762.00,1.05
7761.00,1.05
7760.00,1.05
7759.00,1.05
7758.00,1.05
7757.00,1.05
7756.00,1.06
7755.00,1.06
7754.00,1.06
7753.00,1.06
7752.00,1.06
7751.00,1.06
7750.00,1.06
7749.00,1.06
7748.00,1.06
7747.00,1.06
7746.00,1.06
7745.00,1.06
7744.00,1.06
7743.00,1.06
7742.00,1.06
7741.00,1.06
7740.00,1.06
7739.00,1.06
7738.00,1.05
7737.00,1.05
7736.00,1.05
7735.00,1.05
7734.00,1.05
7733.00,1.05
7732.00,1.05
7731.00,1.05
7730.00,1.05
7729.00,1.05
7728.00,1.05
7727.00,1.05
7726.00,1.05
7725.00,1.05
7724.00,1.05
7723.00,1.05
7722.00,1.06
7721.00,1.06
7720.00,1.06
7719.00,1.06
7718.00,1.06
7717.00,1.06
7716.00,1.06
7715.00,1.06
7714.00,1.05
7713.00,1.05
7712.00,1.05
7711.00,1.05
7710.00,1.05
7709.00,1.05
7708.00,1.05
7707.00,1.05
7706.00,1.05
7705.00,1.05
7704.00,1.05
7703.00,1.05
7702.00,1.05
7701.00,1.05
7700.00,1.05
7699.00,1.05
7698.00,1.05
7697.00,1.05
7696.00,1.05
7695.00,1.05
7694.00,1.05
7693.00,1.05
7692.00,1.05
7691.00,1.05
7690.00,1.05
7689.00,1.06
7688.00,1.06
7687.00,1.06
7686.00,1.06
7685.00,1.06
7684.00,1.06
7683.00,1.06
7682.00,1.06
7681.00,1.06
7680.00,1.06
7679.00,1.06
7678.00,1.06
7677.00,1.06
7676.00,1.06
7675.00,1.06
7674.00,1.06
7673.00,1.06
7672.00,1.06
7671.00,1.06
7670.00,1.06
7669.00,1.06
7668.00,1.06
7667.00,1.06
7666.00,1.06
7665.00,1.06
7664.00,1.06
7663.00,1.06
7662.00,1.06
7661.00,1.06
7660.00,1.06
7659.00,1.06
7658.00,1.06
7657.00,1.06
7656.00,1.06
7655.00,1.06
7654.00,1.06
7653.00,1.06
7652.00,1.06
7651.00,1.06
7650.00,1.06
7649.00,1.06
7648.00,1.06
7647.00,1.06
7646.00,1.06
7645.00,1.06
7644.00,1.06
7643.00,1.06
7642.00,1.06
7641.00,1.06
7640.00,1.06
7639.00,1.06
7638.00,1.06
7637.00,1.06
7636.00,1.06
7635.00,1.06
7634.00,1.06
7633.00,1.06
7632.00,1.06
7631.00,1.06
7630.00,1.06
7629.00,1.06
7628.00,1.06
7627.00,1.05
7626.00,1.05
7625.00,1.05
7624.00,1.05
7623.00,1.05
7622.00,1.05
7621.00,1.05
7620.00,1.05
7619.00,1.06
7618.00,1.06
7617.00,1.06
7616.00,1.06
7615.00,1.06
7614.00,1.06
7613.00,1.06
7612.00,1.06
7611.00,1.06
7610.00,1.06
7609.00,1.06
7608.00,1.06
7607.00,1.06
7606.00,1.06
7605.00,1.06
7604.00,1.06
7603.00,1.06
7602.00,1.06
7601.00,1.06
7600.00,1.06
7599.00,1.06
7598.00,1.06
7597.00,1.06
7596.00,1.06
7595.00,1.06
7594.00,1.06
7593.00,1.06
7592.00,1.05
7591.00,1.05
7590.00,1.05
7589.00,1.05
7588.00,1.05
7587.00,1.05
7586.00,1.05
7585.00,1.05
7584.00,1.05
7583.00,1.05
7582.00,1.05
7581.00,1.05
7580.00,1.05
7579.00,1.05
7578.00,1.05
7577.00,1.05
7576.00,1.06
7575.00,1.06
7574.00,1.06
7573.00,1.06
7572.00,1.06
7571.00,1.06
7570.00,1.06
7569.00,1.06
7568.00,1.06
7567.00,1.06
7566.00,1.06
7565.00,1.06
7564.00,1.06
7563.00,1.06
7562.00,1.06
7561.00,1.06
7560.00,1.06
7559.00,1.06
7558.00,1.06
7557.00,1.06
7556.00,1.06
7555.00,1.06
7554.00,1.06
7553.00,1.06
7552.00,1.06
7551.00,1.06
7550.00,1.06
7549.00,1.06
7548.00,1.06
7547.00,1.06
7546.00,1.06
7545.00,1.06
7544.00,1.06
7543.00,1.05
7542.00,1.05
7541.00,1.05
7540.00,1.05
7539.00,1.05
7538.00,1.05
7537.00,1.05
7536.00,1.05
7535.00,1.05
7534.00,1.05
7533.00,1.05
7532.00,1.05
7531.00,1.05
7530.00,1.05
7529.00,1.05
7528.00,1.06
7527.00,1.06
7526.00,1.06
7525.00,1.06
7524.00,1.06
7523.00,1.06
7522.00,1.06
7521.00,1.06
7520.00,1.06
7519.00,1.06
7518.00,1.06
7517.00,1.05
7516.00,1.05
7515.00,1.05
7514.00,1.05
7513.00,1.05
7512.00,1.05
7511.00,1.05
7510.00,1.05
7509.00,1.05
7508.00,1.05
7507.00,1.04
7506.00,1.04
7505.00,1.04
7504.00,1.04
7503.00,1.04
7502.00,1.04
7501.00,1.04
7500.00,1.04
7499.00,1.04
7498.00,1.04
7497.00,1.04
7496.00,1.04
7495.00,1.04
7494.00,1.04
7493.00,1.04
7492.00,1.04
7491.00,1.04
7490.00,1.04
7489.00,1.04
7488.00,1.04
7487.00,1.04
7486.00,1.04
7485.00,1.04
7484.00,1.04
7483.00,1.04
7482.00,1.04
7481.00,1.04
7480.00,1.03
7479.00,1.03
7478.00,1.03
7477.00,1.03
7476.00,1.03
7475.00,1.03
7474.00,1.03
7473.00,1.03
7472.00,1.03
7471.00,1.03
7470.00,1.03
7469.00,1.03
7468.00,1.03
7467.00,1.03
7466.00,1.03
7465.00,1.02
7464.00,1.02
7463.00,1.02
7462.00,1.02
7461.00,1.02
7460.00,1.02
7459.00,1.02
7458.00,1.02
7457.00,1.02
7456.00,1.02
7455.00,1.02
7454.00,1.02
7453.00,1.02
7452.00,1.02
7451.00,1.01
7450.00,1.01
7449.00,1.01
7448.00,1.01
7447.00,1.01
7446.00,1.01
7445.00,1.01
7444.00,1.01
7443.00,1.01
7442.00,1.01
7441.00,1.01
7440.00,1.01
7439.00,1.01
7438.00,1.01
7437.00,1.01
7436.00,1.00
7435.00,1.00
7434.00,1.00
7433.00,1.00
7432.00,1.00
7431.00,1.00
7430.00,1.00
7429.00,1.00
7428.00,1.00
7427.00,1.00
7426.00,1.00
7425.00,1.00
7424.00,1.00
7423.00,1.00
7422.00,1.00
7421.00,1.00
7420.00,0.99
7419.00,0.99
7418.00,0.99
7417.00,0.99
7416.00,0.99
7415.00,0.99
7414.00,0.99
7413.00,0.99
7412.00,0.99
7411.00,0.99
7410.00,0.99
7409.00,0.99
7408.00,0.98
7407.00,0.98
7406.00,0.98
7405.00,0.98
7404.00,0.98
7403.00,0.98
7402.00,0.98
7401.00,0.98
7400.00,0.98
7399.00,0.98
7398.00,0.98
7397.00,0.98
7396.00,0.97
7395.00,0.97
7394.00,0.97
7393.00,0.97
7392.00,0.97
7391.00,0.97
7390.00,0.97
7389.00,0.96
7388.00,0.96
7387.00,0.96
7386.00,0.96
7385.00,0.96
7384.00,0.96
7383.00,0.96
7382.00,0.95
7381.00,0.95
7380.00,0.95
7379.00,0.95
7378.00,0.95
7377.00,0.95
7376.00,0.95
7375.00,0.95
7374.00,0.95
7373.00,0.95
7372.00,0.95
7371.00,0.95
7370.00,0.95
7369.00,0.95
7368.00,0.95
7367.00,0.95
7366.00,0.95
7365.00,0.95
7364.00,0.95
7363.00,0.95
7362.00,0.95
7361.00,0.95
7360.00,0.95
7359.00,0.95
7358.00,0.95
7357.00,0.95
7356.00,0.95
7355.00,0.95
7354.00,0.95
7353.00,0.95
7352.00,0.95
7351.00,0.95
7350.00,0.95
7349.00,0.95
7348.00,0.94
7347.00,0.94
7346.00,0.94
7345.00,0.94
7344.00,0.94
7343.00,0.94
7342.00,0.94
7341.00,0.94
7340.00,0.94
7339.00,0.94
7338.00,0.94
7337.00,0.93
7336.00,0.93
7335.00,0.93
7334.00,0.93
7333.00,0.93
7332.00,0.93
7331.00,0.93
7330.00,0.93
7329.00,0.93
7328.00,0.94
7327.00,0.94
7326.00,0.94
7325.00,0.94
7324.00,0.94
7323.00,0.94
7322.00,0.94
7321.00,0.94
7320.00,0.94
7319.00,0.94
7318.00,0.94
7317.00,0.94
7316.00,0.94
7315.00,0.93
7314.00,0.93
7313.00,0.93
7312.00,0.93
7311.00,0.93
7310.00,0.93
7309.00,0.93
7308.00,0.92
7307.00,0.92
7306.00,0.92
7305.00,0.92
7304.00,0.92
7303.00,0.92
7302.00,0.92
7301.00,0.92
7300.00,0.92
7299.00,0.92
7298.00,0.91
7297.00,0.91
7296.00,0.91
7295.00,0.91
7294.00,0.91
7293.00,0.91
7292.00,0.91
7291.00,0.91
7290.00,0.91
7289.00,0.90
7288.00,0.90
7287.00,0.90
7286.00,0.90
7285.00,0.90
7284.00,0.90
7283.00,0.90
7282.00,0.90
7281.00,0.89
7280.00,0.89
7279.00,0.89
7278.00,0.89
7277.00,0.89
7276.00,0.89
7275.00,0.89
7274.00,0.89
7273.00,0.89
7272.00,0.89
7271.00,0.89
7270.00,0.89
7269.00,0.89
7268.00,0.89
7267.00,0.89
7266.00,0.89
7265.00,0.89
7264.00,0.89
7263.00,0.89
7262.00,0.89
7261.00,0.88
7260.00,0.88
7259.00,0.88
7258.00,0.88
7257.00,0.88
7256.00,0.88
7255.00,0.88
7254.00,0.87
7253.00,0.87
7252.00,0.87
7251.00,0.87
7250.00,0.87
7249.00,0.87
7248.00,0.86
7247.00,0.86
7246.00,0.86
7245.00,0.86
7244.00,0.86
7243.00,0.85
7242.00,0.85
7241.00,0.85
7240.00,0.85
7239.00,0.85
7238.00,0.84
7237.00,0.84
7236.00,0.84
7235.00,0.84
7234.00,0.83
7233.00,0.83
7232.00,0.83
7231.00,0.83
7230.00,0.83
7229.00,0.82
7228.00,0.82
7227.00,0.82
7226.00,0.82
7225.00,0.81
7224.00,0.81
7223.00,0.81
7222.00,0.81
7221.00,0.80
7220.00,0.80
7219.00,0.80
7218.00,0.80
7217.00,0.79
7216.00,0.79
7215.00,0.79
7214.00,0.79
7213.00,0.78
7212.00,0.78
7211.00,0.78
7210.00,0.77
7209.00,0.77
7208.00,0.77
7207.00,0.76
7206.00,0.76
7205.00,0.76
7204.00,0.75
7203.00,0.75
7202.00,0.75
7201.00,0.74
7200.00,0.74
7199.00,0.74
7198.00,0.73
7197.00,0.73
7196.00,0.73
7195.00,0.73
7194.00,0.72
7193.00,0.72
7192.00,0.72
7191.00,0.72
7190.00,0.72
7189.00,0.71
7188.00,0.71
7187.00,0.71
7186.00,0.71
7185.00,0.71
7184.00,0.70
7183.00,0.70
7182.00,0.70
7181.00,0.70
7180.00,0.69
7179.00,0.69
7178.00,0.69
7177.00,0.69
7176.00,0.68
7175.00,0.68
7174.00,0.68
7173.00,0.68
7172.00,0.67
7171.00,0.67
7170.00,0.67
7169.00,0.67
7168.00,0.66
7167.00,0.66
7166.00,0.66
7165.00,0.66
7164.00,0.66
7163.00,0.65
7162.00,0.65
7161.00,0.65
7160.00,0.65
7159.00,0.65
7158.00,0.65
7157.00,0.64
7156.00,0.64
7155.00,0.64
7154.00,0.64
7153.00,0.64
7152.00,0.64
7151.00,0.63
7150.00,0.63
7149.00,0.63
7148.00,0.63
7147.00,0.63
7146.00,0.63
7145.00,0.62
7144.00,0.62
7143.00,0.62
7142.00,0.62
7141.00,0.62
7140.00,0.62
7139.00,0.61
7138.00,0.61
7137.00,0.61
7136.00,0.61
7135.00,0.61
7134.00,0.61
7133.00,0.60
7132.00,0.60
7131.00,0.60
7130.00,0.60
7129.00,0.60
7128.00,0.60
7127.00,0.59
7126.00,0.59
7125.00,0.59
7124.00,0.59
7123.00,0.59
7122.00,0.58
7121.00,0.58
7120.00,0.58
7119.00,0.58
7118.00,0.58
7117.00,0.57
7116.00,0.57
7115.00,0.57
7114.00,0.56
7113.00,0.56
7112.00,0.56
7111.00,0.56
7110.00,0.55
7109.00,0.55
7108.00,0.55
7107.00,0.55
7106.00,0.55
7105.00,0.54
7104.00,0.54
7103.00,0.54
7102.00,0.54
7101.00,0.54
7100.00,0.53
7099.00,0.53
7098.00,0.53
7097.00,0.53
7096.00,0.53
7095.00,0.53
7094.00,0.53
7093.00,0.52
7092.00,0.52
7091.00,0.52
7090.00,0.52
7089.00,0.52
7088.00,0.52
7087.00,0.52
7086.00,0.51
7085.00,0.51
7084.00,0.51
7083.00,0.51
7082.00,0.51
7081.00,0.51
7080.00,0.51
7079.00,0.50
7078.00,0.50
7077.00,0.50
7076.00,0.50
7075.00,0.50
7074.00,0.50
7073.00,0.50
7072.00,0.50
7071.00,0.50
7070.00,0.50
7069.00,0.50
7068.00,0.49
7067.00,0.49
7066.00,0.49
7065.00,0.49
7064.00,0.49
7063.00,0.49
7062.00,0.49
7061.00,0.49
7060.00,0.49
7059.00,0.49
7058.00,0.49
7057.00,0.48
7056.00,0.48
7055.00,0.48
7054.00,0.48
7053.00,0.48
7052.00,0.48
7051.00,0.48
7050.00,0.47
7049.00,0.47
7048.00,0.47
7047.00,0.47
7046.00,0.47
7045.00,0.47
7044.00,0.47
7043.00,0.47
7042.00,0.47
7041.00,0.46
7040.00,0.46
7039.00,0.46
7038.00,0.46
7037.00,0.46
7036.00,0.46
7035.00,0.46
7034.00,0.46
7033.00,0.46
7032.00,0.46
7031.00,0.46
7030.00,0.46
7029.00,0.46
7028.00,0.46
7027.00,0.46
7026.00,0.46
7025.00,0.46
7024.00,0.46
7023.00,0.46
7022.00,0.46
7021.00,0.46
7020.00,0.46
7019.00,0.46
7018.00,0.46
7017.00,0.45
7016.00,0.45
7015.00,0.45
7014.00,0.45
7013.00,0.45
7012.00,0.45
7011.00,0.45
7010.00,0.45
7009.00,0.45
7008.00,0.45
7007.00,0.45
7006.00,0.45
7005.00,0.45
7004.00,0.45
7003.00,0.45
7002.00,0.45
7001.00,0.45
7000.00,0.45
6999.00,0.44
6998.00,0.44
6997.00,0.44
6996.00,0.44
6995.00,0.44
6994.00,0.44
6993.00,0.44
6992.00,0.44
6991.00,0.44
6990.00,0.44
6989.00,0.44
6988.00,0.44
6987.00,0.44
6986.00,0.44
6985.00,0.44
6984.00,0.44
6983.00,0.44
6982.00,0.43
6981.00,0.43
6980.00,0.43
6979.00,0.43
6978.00,0.43
6977.00,0.43
6976.00,0.43
6975.00,0.43
6974.00,0.43
6973.00,0.43
6972.00,0.43
6971.00,0.43
6970.00,0.43
6969.00,0.43
6968.00,0.43
6967.00,0.43
6966.00,0.43
6965.00,0.43
6964.00,0.43
6963.00,0.43
6962.00,0.43
6961.00,0.43
6960.00,0.43
6959.00,0.43
6958.00,0.43
6957.00,0.43
6956.00,0.43
6955.00,0.43
6954.00,0.43
6953.00,0.43
6952.00,0.43
6951.00,0.43
6950.00,0.43
6949.00,0.42
6948.00,0.42
6947.00,0.42
6946.00,0.42
6945.00,0.42
6944.00,0.42
6943.00,0.42
6942.00,0.42
6941.00,0.42
6940.00,0.42
6939.00,0.42
6938.00,0.42
6937.00,0.42
6936.00,0.42
6935.00,0.42
6934.00,0.42
6933.00,0.42
6932.00,0.42
6931.00,0.42
6930.00,0.42
6929.00,0.42
6928.00,0.42
6927.00,0.42
6926.00,0.42
6925.00,0.42
6924.00,0.42
6923.00,0.42
6922.00,0.42
6921.00,0.42
6920.00,0.42
6919.00,0.42
6918.00,0.42
6917.00,0.42
6916.00,0.42
6915.00,0.42
6914.00,0.42
6913.00,0.42
6912.00,0.42
6911.00,0.42
6910.00,0.42
6909.00,0.42
6908.00,0.42
6907.00,0.42
6906.00,0.42
6905.00,0.42
6904.00,0.42
6903.00,0.42
6902.00,0.42
6901.00,0.42
6900.00,0.42
6899.00,0.42
6898.00,0.42
6897.00,0.42
6896.00,0.42
6895.00,0.42
6894.00,0.42
6893.00,0.42
6892.00,0.42
6891.00,0.42
6890.00,0.42
6889.00,0.42
6888.00,0.42
6887.00,0.42
6886.00,0.42
6885.00,0.42
6884.00,0.42
6883.00,0.42
6882.00,0.42
6881.00,0.42
6880.00,0.42
6879.00,0.42
6878.00,0.42
6877.00,0.42
6876.00,0.42
6875.00,0.42
6874.00,0.42
6873.00,0.42
6872.00,0.42
6871.00,0.42
6870.00,0.42
6869.00,0.42
6868.00,0.42
6867.00,0.42
6866.00,0.42
6865.00,0.42
6864.00,0.42
6863.00,0.42
6862.00,0.42
6861.00,0.42
6860.00,0.42
6859.00,0.42
6858.00,0.42
6857.00,0.42
6856.00,0.42
6855.00,0.42
6854.00,0.42
6853.00,0.42
6852.00,0.42
6851.00,0.42
6850.00,0.42
6849.00,0.42
6848.00,0.42
6847.00,0.42
6846.00,0.42
6845.00,0.42
6844.00,0.42
6843.00,0.42
6842.00,0.42
6841.00,0.42
6840.00,0.42
6839.00,0.42
6838.00,0.42
6837.00,0.42
6836.00,0.42
6835.00,0.42
6834.00,0.42
6833.00,0.42
6832.00,0.42
6831.00,0.42
6830.00,0.42
6829.00,0.42
6828.00,0.42
6827.00,0.42
6826.00,0.42
6825.00,0.42
6824.00,0.42
6823.00,0.42
6822.00,0.42
6821.00,0.42
6820.00,0.42
6819.00,0.42
6818.00,0.42
6817.00,0.42
6816.00,0.42
6815.00,0.42
6814.00,0.42
6813.00,0.43
6812.00,0.43
6811.00,0.43
6810.00,0.43
6809.00,0.43
6808.00,0.43
6807.00,0.43
6806.00,0.43
6805.00,0.43
6804.00,0.43
6803.00,0.43
6802.00,0.43
6801.00,0.43
6800.00,0.43
6799.00,0.43
6798.00,0.43
6797.00,0.43
6796.00,0.43
6795.00,0.43
6794.00,0.43
6793.00,0.43
6792.00,0.43
6791.00,0.43
6790.00,0.43
6789.00,0.43
6788.00,0.43
6787.00,0.43
6786.00,0.43
6785.00,0.43
6784.00,0.44
6783.00,0.44
6782.00,0.44
6781.00,0.44
6780.00,0.44
6779.00,0.44
6778.00,0.44
6777.00,0.44
6776.00,0.44
6775.00,0.44
6774.00,0.44
6773.00,0.44
6772.00,0.44
6771.00,0.44
6770.00,0.44
6769.00,0.44
6768.00,0.44
6767.00,0.44
6766.00,0.44
6765.00,0.44
6764.00,0.44
6763.00,0.44
6762.00,0.44
6761.00,0.44
6760.00,0.44
6759.00,0.44
6758.00,0.44
6757.00,0.44
6756.00,0.44
6755.00,0.44
6754.00,0.44
6753.00,0.44
6752.00,0.44
6751.00,0.44
6750.00,0.44
6749.00,0.44
6748.00,0.44
6747.00,0.44
6746.00,0.44
6745.00,0.44
6744.00,0.44
6743.00,0.44
6742.00,0.45
6741.00,0.45
6740.00,0.45
6739.00,0.45
6738.00,0.45
6737.00,0.45
6736.00,0.45
6735.00,0.45
6734.00,0.45
6733.00,0.45
6732.00,0.45
6731.00,0.46
6730.00,0.46
6729.00,0.46
6728.00,0.46
6727.00,0.46
6726.00,0.46
6725.00,0.46
6724.00,0.46
6723.00,0.46
6722.00,0.46
6721.00,0.46
6720.00,0.46
6719.00,0.46
6718.00,0.46
6717.00,0.47
6716.00,0.47
6715.00,0.47
6714.00,0.47
6713.00,0.47
6712.00,0.47
6711.00,0.47
6710.00,0.47
6709.00,0.47
6708.00,0.47
6707.00,0.47
6706.00,0.47
6705.00,0.47
6704.00,0.47
6703.00,0.47
6702.00,0.47
6701.00,0.47
6700.00,0.47
6699.00,0.47
6698.00,0.47
6697.00,0.47
6696.00,0.47
6695.00,0.47
6694.00,0.47
6693.00,0.47
6692.00,0.47
6691.00,0.47
6690.00,0.47
6689.00,0.47
6688.00,0.47
6687.00,0.47
6686.00,0.47
6685.00,0.47
6684.00,0.47
6683.00,0.47
6682.00,0.48
6681.00,0.48
6680.00,0.48
6679.00,0.48
6678.00,0.48
6677.00,0.48
6676.00,0.48
6675.00,0.48
6674.00,0.48
6673.00,0.48
6672.00,0.48
6671.00,0.48
6670.00,0.48
6669.00,0.48
6668.00,0.49
6667.00,0.49
6666.00,0.49
6665.00,0.49
6664.00,0.49
6663.00,0.49
6662.00,0.49
6661.00,0.49
6660.00,0.49
6659.00,0.49
6658.00,0.49
6657.00,0.49
6656.00,0.49
6655.00,0.49
6654.00,0.50
6653.00,0.50
6652.00,0.50
6651.00,0.50
6650.00,0.50
6649.00,0.50
6648.00,0.50
6647.00,0.50
6646.00,0.50
6645.00,0.50
6644.00,0.50
6643.00,0.50
6642.00,0.50
6641.00,0.50
6640.00,0.50
6639.00,0.50
6638.00,0.50
6637.00,0.50
6636.00,0.50
6635.00,0.50
6634.00,0.50
6633.00,0.50
6632.00,0.50
6631.00,0.50
6630.00,0.50
6629.00,0.50
6628.00,0.50
6627.00,0.51
6626.00,0.51
6625.00,0.51
6624.00,0.51
6623.00,0.51
6622.00,0.51
6621.00,0.51
6620.00,0.51
6619.00,0.51
6618.00,0.51
6617.00,0.51
6616.00,0.51
6615.00,0.51
6614.00,0.51
6613.00,0.51
6612.00,0.52
6611.00,0.52
6610.00,0.52
6609.00,0.52
6608.00,0.52
6607.00,0.52
6606.00,0.52
6605.00,0.52
6604.00,0.52
6603.00,0.52
6602.00,0.52
6601.00,0.52
6600.00,0.52
6599.00,0.52
6598.00,0.52
6597.00,0.53
6596.00,0.53
6595.00,0.53
6594.00,0.53
6593.00,0.53
6592.00,0.53
6591.00,0.53
6590.00,0.53
6589.00,0.53
6588.00,0.53
6587.00,0.53
6586.00,0.53
6585.00,0.53
6584.00,0.53
6583.00,0.53
6582.00,0.54
6581.00,0.54
6580.00,0.54
6579.00,0.54
6578.00,0.54
6577.00,0.54
6576.00,0.54
6575.00,0.54
6574.00,0.54
6573.00,0.54
6572.00,0.54
6571.00,0.54
6570.00,0.55
6569.00,0.55
6568.00,0.55
6567.00,0.55
6566.00,0.55
6565.00,0.55
6564.00,0.55
6563.00,0.55
6562.00,0.55
6561.00,0.55
6560.00,0.55
6559.00,0.55
6558.00,0.55
6557.00,0.55
6556.00,0.55
6555.00,0.56
6554.00,0.56
6553.00,0.56
6552.00,0.56
6551.00,0.56
6550.00,0.56
6549.00,0.56
6548.00,0.56
6547.00,0.56
6546.00,0.56
6545.00,0.56
6544.00,0.56
6543.00,0.56
6542.00,0.56
6541.00,0.56
6540.00,0.56
6539.00,0.56
6538.00,0.56
6537.00,0.56
6536.00,0.56
6535.00,0.56
6534.00,0.56
6533.00,0.57
6532.00,0.57
6531.00,0.57
6530.00,0.57
6529.00,0.57
6528.00,0.57
6527.00,0.57
6526.00,0.57
6525.00,0.57
6524.00,0.57
6523.00,0.57
6522.00,0.57
6521.00,0.57
6520.00,0.57
6519.00,0.57
6518.00,0.57
6517.00,0.57
6516.00,0.57
6515.00,0.57
6514.00,0.57
6513.00,0.57
6512.00,0.57
6511.00,0.57
6510.00,0.57
6509.00,0.57
6508.00,0.57
6507.00,0.57
6506.00,0.57
6505.00,0.57
6504.00,0.57
6503.00,0.57
6502.00,0.57
6501.00,0.57
6500.00,0.57
6499.00,0.57
6498.00,0.58
6497.00,0.58
6496.00,0.58
6495.00,0.58
6494.00,0.58
6493.00,0.58
6492.00,0.58
6491.00,0.58
6490.00,0.58
6489.00,0.58
6488.00,0.58
6487.00,0.58
6486.00,0.58
6485.00,0.58
6484.00,0.59
6483.00,0.59
6482.00,0.59
6481.00,0.59
6480.00,0.59
6479.00,0.59
6478.00,0.59
6477.00,0.59
6476.00,0.59
6475.00,0.59
6474.00,0.59
6473.00,0.59
6472.00,0.59
6471.00,0.59
6470.00,0.59
6469.00,0.59
6468.00,0.59
6467.00,0.59
6466.00,0.59
6465.00,0.59
6464.00,0.59
6463.00,0.59
6462.00,0.59
6461.00,0.59
6460.00,0.59
6459.00,0.60
6458.00,0.60
6457.00,0.60
6456.00,0.60
6455.00,0.60
6454.00,0.60
6453.00,0.60
6452.00,0.60
6451.00,0.60
6450.00,0.60
6449.00,0.60
6448.00,0.60
6447.00,0.60
6446.00,0.60
6445.00,0.60
6444.00,0.60
6443.00,0.60
6442.00,0.60
6441.00,0.60
6440.00,0.60
6439.00,0.60
6438.00,0.61
6437.00,0.61
6436.00,0.61
6435.00,0.61
6434.00,0.61
6433.00,0.61
6432.00,0.61
6431.00,0.61
6430.00,0.61
6429.00,0.61
6428.00,0.61
6427.00,0.61
6426.00,0.61
6425.00,0.61
6424.00,0.61
6423.00,0.62
6422.00,0.62
6421.00,0.62
6420.00,0.62
6419.00,0.62
6418.00,0.62
6417.00,0.62
6416.00,0.62
6415.00,0.62
6414.00,0.62
6413.00,0.62
6412.00,0.62
6411.00,0.62
6410.00,0.62
6409.00,0.62
6408.00,0.62
6407.00,0.62
6406.00,0.62
6405.00,0.62
6404.00,0.62
6403.00,0.62
6402.00,0.62
6401.00,0.63
6400.00,0.63
6399.00,0.63
6398.00,0.63
6397.00,0.63
6396.00,0.63
6395.00,0.63
6394.00,0.63
6393.00,0.63
6392.00,0.63
6391.00,0.63
6390.00,0.63
6389.00,0.63
6388.00,0.63
6387.00,0.63
6386.00,0.63
6385.00,0.63
6384.00,0.63
6383.00,0.63
6382.00,0.63
6381.00,0.63
6380.00,0.63
6379.00,0.63
6378.00,0.63
6377.00,0.63
6376.00,0.63
6375.00,0.64
6374.00,0.64
6373.00,0.64
6372.00,0.64
6371.00,0.64
6370.00,0.64
6369.00,0.64
6368.00,0.64
6367.00,0.64
6366.00,0.64
6365.00,0.64
6364.00,0.64
6363.00,0.64
6362.00,0.64
6361.00,0.64
6360.00,0.64
6359.00,0.64
6358.00,0.65
6357.00,0.65
6356.00,0.65
6355.00,0.65
6354.00,0.65
6353.00,0.65
6352.00,0.65
6351.00,0.65
6350.00,0.65
6349.00,0.65
6348.00,0.65
6347.00,0.65
6346.00,0.65
6345.00,0.65
6344.00,0.65
6343.00,0.65
6342.00,0.66
6341.00,0.66
6340.00,0.66
6339.00,0.66
6338.00,0.66
6337.00,0.66
6336.00,0.66
6335.00,0.66
6334.00,0.66
6333.00,0.66
6332.00,0.66
6331.00,0.66
6330.00,0.66
6329.00,0.66
6328.00,0.67
6327.00,0.67
6326.00,0.67
6325.00,0.67
6324.00,0.67
6323.00,0.67
6322.00,0.67
6321.00,0.67
6320.00,0.67
6319.00,0.67
6318.00,0.67
6317.00,0.67
6316.00,0.67
6315.00,0.67
6314.00,0.67
6313.00,0.68
6312.00,0.68
6311.00,0.68
6310.00,0.68
6309.00,0.68
6308.00,0.68
6307.00,0.68
6306.00,0.68
6305.00,0.68
6304.00,0.68
6303.00,0.68
6302.00,0.68
6301.00,0.69
6300.00,0.69
6299.00,0.69
6298.00,0.69
6297.00,0.69
6296.00,0.69
6295.00,0.69
6294.00,0.69
6293.00,0.69
6292.00,0.69
6291.00,0.69
6290.00,0.70
6289.00,0.70
6288.00,0.70
6287.00,0.70
6286.00,0.70
6285.00,0.70
6284.00,0.70
6283.00,0.70
6282.00,0.70
6281.00,0.70
6280.00,0.70
6279.00,0.70
6278.00,0.70
6277.00,0.71
6276.00,0.71
6275.00,0.71
6274.00,0.71
6273.00,0.71
6272.00,0.71
6271.00,0.71
6270.00,0.71
6269.00,0.71
6268.00,0.71
6267.00,0.71
6266.00,0.72
6265.00,0.72
6264.00,0.72
6263.00,0.72
6262.00,0.72
6261.00,0.72
6260.00,0.72
6259.00,0.72
6258.00,0.72
6257.00,0.72
6256.00,0.72
6255.00,0.72
6254.00,0.72
6253.00,0.72
6252.00,0.73
6251.00,0.73
6250.00,0.73
6249.00,0.73
6248.00,0.73
6247.00,0.73
6246.00,0.73
6245.00,0.73
6244.00,0.73
6243.00,0.73
6242.00,0.73
6241.00,0.73
6240.00,0.73
6239.00,0.74
6238.00,0.74
6237.00,0.74
6236.00,0.74
6235.00,0.74
6234.00,0.74
6233.00,0.74
6232.00,0.74
6231.00,0.74
6230.00,0.75
6229.00,0.75
6228.00,0.75
6227.00,0.75
6226.00,0.75
6225.00,0.75
6224.00,0.75
6223.00,0.75
6222.00,0.75
6221.00,0.75
6220.00,0.76
6219.00,0.76
6218.00,0.76
6217.00,0.76
6216.00,0.76
6215.00,0.76
6214.00,0.76
6213.00,0.76
6212.00,0.76
6211.00,0.77
6210.00,0.77
6209.00,0.77
6208.00,0.77
6207.00,0.77
6206.00,0.77
6205.00,0.77
6204.00,0.77
6203.00,0.77
6202.00,0.77
6201.00,0.78
6200.00,0.78
6199.00,0.78
6198.00,0.78
6197.00,0.78
6196.00,0.78
6195.00,0.78
6194.00,0.78
6193.00,0.78
6192.00,0.79
6191.00,0.79
6190.00,0.79
6189.00,0.79
6188.00,0.79
6187.00,0.79
6186.00,0.79
6185.00,0.79
6184.00,0.79
6183.00,0.79
6182.00,0.79
6181.00,0.79
6180.00,0.80
6179.00,0.80
6178.00,0.80
6177.00,0.80
6176.00,0.80
6175.00,0.80
6174.00,0.80
6173.00,0.80
6172.00,0.81
6171.00,0.81
6170.00,0.81
6169.00,0.81
6168.00,0.81
6167.00,0.81
6166.00,0.81
6165.00,0.82
6164.00,0.82
6163.00,0.82
6162.00,0.82
6161.00,0.82
6160.00,0.82
6159.00,0.83
6158.00,0.83
6157.00,0.83
6156.00,0.83
6155.00,0.83
6154.00,0.83
6153.00,0.83
6152.00,0.83
6151.00,0.84
6150.00,0.84
6149.00,0.84
6148.00,0.84
6147.00,0.84
6146.00,0.84
6145.00,0.84
6144.00,0.84
6143.00,0.85
6142.00,0.85
6141.00,0.85
6140.00,0.85
6139.00,0.85
6138.00,0.85
6137.00,0.85
6136.00,0.85
6135.00,0.85
6134.00,0.86
6133.00,0.86
6132.00,0.86
6131.00,0.86
6130.00,0.86
6129.00,0.86
6128.00,0.86
6127.00,0.86
6126.00,0.86
6125.00,0.86
6124.00,0.86
6123.00,0.87
6122.00,0.87
6121.00,0.87
6120.00,0.87
6119.00,0.87
6118.00,0.87
6117.00,0.87
6116.00,0.87
6115.00,0.88
6114.00,0.88
6113.00,0.88
6112.00,0.88
6111.00,0.88
6110.00,0.88
6109.00,0.88
6108.00,0.88
6107.00,0.88
6106.00,0.89
6105.00,0.89
6104.00,0.89
6103.00,0.89
6102.00,0.89
6101.00,0.89
6100.00,0.89
6099.00,0.89
6098.00,0.90
6097.00,0.90
6096.00,0.90
6095.00,0.90
6094.00,0.90
6093.00,0.90
6092.00,0.90
6091.00,0.91
6090.00,0.91
6089.00,0.91
6088.00,0.91
6087.00,0.91
6086.00,0.91
6085.00,0.91
6084.00,0.91
6083.00,0.92
6082.00,0.92
6081.00,0.92
6080.00,0.92
6079.00,0.92
6078.00,0.92
6077.00,0.92
6076.00,0.92
6075.00,0.92
6074.00,0.93
6073.00,0.93
6072.00,0.93
6071.00,0.93
6070.00,0.93
6069.00,0.93
6068.00,0.93
6067.00,0.93
6066.00,0.93
6065.00,0.93
6064.00,0.93
6063.00,0.93
6062.00,0.93
6061.00,0.93
6060.00,0.93
6059.00,0.93
6058.00,0.93
6057.00,0.93
6056.00,0.93
6055.00,0.94
6054.00,0.94
6053.00,0.94
6052.00,0.94
6051.00,0.94
6050.00,0.94
6049.00,0.94
6048.00,0.94
6047.00,0.94
6046.00,0.94
6045.00,0.95
6044.00,0.95
6043.00,0.95
6042.00,0.95
6041.00,0.95
6040.00,0.95
6039.00,0.95
6038.00,0.95
6037.00,0.95
6036.00,0.95
6035.00,0.95
6034.00,0.95
6033.00,0.95
6032.00,0.95
6031.00,0.95
6030.00,0.95
6029.00,0.95
6028.00,0.95
6027.00,0.95
6026.00,0.95
6025.00,0.95
6024.00,0.95
6023.00,0.95
6022.00,0.95
6021.00,0.95
6020.00,0.96
6019.00,0.96
6018.00,0.96
6017.00,0.96
6016.00,0.96
6015.00,0.96
6014.00,0.96
6013.00,0.96
6012.00,0.96
6011.00,0.96
6010.00,0.96
6009.00,0.96
6008.00,0.96
6007.00,0.96
6006.00,0.96
6005.00,0.96
6004.00,0.95
6003.00,0.95
6002.00,0.95
6001.00,0.95
6000.00,0.95
5999.00,0.95
5998.00,0.95
5997.00,0.95
5996.00,0.95
5995.00,0.95
5994.00,0.95
5993.00,0.95
5992.00,0.94
5991.00,0.94
5990.00,0.94
5989.00,0.94
5988.00,0.94
5987.00,0.94
5986.00,0.93
5985.00,0.93
5984.00,0.93
5983.00,0.93
5982.00,0.92
5981.00,0.92
5980.00,0.92
5979.00,0.92
5978.00,0.91
5977.00,0.91
5976.00,0.90
5975.00,0.90
5974.00,0.90
5973.00,0.89
5972.00,0.89
5971.00,0.88
5970.00,0.88
5969.00,0.87
5968.00,0.87
5967.00,0.86
5966.00,0.86
5965.00,0.85
5964.00,0.85
5963.00,0.84
5962.00,0.83
5961.00,0.83
5960.00,0.82
5959.00,0.82
5958.00,0.81
5957.00,0.81
5956.00,0.80
5955.00,0.79
5954.00,0.79
5953.00,0.78
5952.00,0.78
5951.00,0.77
5950.00,0.77
5949.00,0.77
5948.00,0.76
5947.00,0.76
5946.00,0.76
5945.00,0.75
5944.00,0.75
5943.00,0.75
5942.00,0.74
5941.00,0.74
5940.00,0.74
5939.00,0.74
5938.00,0.74
5937.00,0.74
5936.00,0.74
5935.00,0.74
5934.00,0.73
5933.00,0.73
5932.00,0.73
5931.00,0.73
5930.00,0.73
5929.00,0.73
5928.00,0.73
5927.00,0.73
5926.00,0.73
5925.00,0.73
5924.00,0.72
5923.00,0.72
5922.00,0.72
5921.00,0.72
5920.00,0.72
5919.00,0.72
5918.00,0.71
5917.00,0.71
5916.00,0.71
5915.00,0.71
5914.00,0.70
5913.00,0.70
5912.00,0.70
5911.00,0.70
5910.00,0.70
5909.00,0.70
5908.00,0.69
5907.00,0.69
5906.00,0.69
5905.00,0.69
5904.00,0.69
5903.00,0.69
5902.00,0.69
5901.00,0.69
5900.00,0.69
5899.00,0.69
5898.00,0.69
5897.00,0.69
5896.00,0.69
5895.00,0.69
5894.00,0.69
5893.00,0.70
5892.00,0.70
5891.00,0.70
5890.00,0.70
5889.00,0.70
5888.00,0.70
5887.00,0.71
5886.00,0.71
5885.00,0.71
5884.00,0.71
5883.00,0.71
5882.00,0.72
5881.00,0.72
5880.00,0.72
5879.00,0.73
5878.00,0.73
5877.00,0.73
5876.00,0.73
5875.00,0.74
5874.00,0.74
5873.00,0.74
5872.00,0.75
5871.00,0.75
5870.00,0.75
5869.00,0.75
5868.00,0.75
5867.00,0.76
5866.00,0.76
5865.00,0.76
5864.00,0.76
5863.00,0.76
5862.00,0.76
5861.00,0.77
5860.00,0.77
5859.00,0.77
5858.00,0.77
5857.00,0.77
5856.00,0.77
5855.00,0.77
5854.00,0.77
5853.00,0.77
5852.00,0.77
5851.00,0.77
5850.00,0.77
5849.00,0.78
5848.00,0.78
5847.00,0.78
5846.00,0.78
5845.00,0.78
5844.00,0.78
5843.00,0.78
5842.00,0.78
5841.00,0.77
5840.00,0.77
5839.00,0.77
5838.00,0.77
5837.00,0.77
5836.00,0.77
5835.00,0.77
5834.00,0.77
5833.00,0.77
5832.00,0.77
5831.00,0.77
5830.00,0.77
5829.00,0.77
5828.00,0.77
5827.00,0.77
5826.00,0.77
5825.00,0.77
5824.00,0.77
5823.00,0.77
5822.00,0.77
5821.00,0.77
5820.00,0.77
5819.00,0.77
5818.00,0.77
5817.00,0.78
5816.00,0.78
5815.00,0.78
5814.00,0.78
5813.00,0.78
5812.00,0.78
5811.00,0.78
5810.00,0.78
5809.00,0.78
5808.00,0.78
5807.00,0.78
5806.00,0.78
5805.00,0.78
5804.00,0.78
5803.00,0.77
5802.00,0.77
5801.00,0.77
5800.00,0.77
5799.00,0.77
5798.00,0.77
5797.00,0.77
5796.00,0.76
5795.00,0.76
5794.00,0.76
5793.00,0.76
5792.00,0.76
5791.00,0.76
5790.00,0.75
5789.00,0.75
5788.00,0.75
5787.00,0.75
5786.00,0.75
5785.00,0.75
5784.00,0.74
5783.00,0.74
5782.00,0.74
5781.00,0.74
5780.00,0.74
5779.00,0.74
5778.00,0.74
5777.00,0.73
5776.00,0.73
5775.00,0.73
5774.00,0.73
5773.00,0.73
5772.00,0.73
5771.00,0.73
5770.00,0.73
5769.00,0.73
5768.00,0.74
5767.00,0.74
5766.00,0.74
5765.00,0.74
5764.00,0.74
5763.00,0.74
5762.00,0.75
5761.00,0.75
5760.00,0.75
5759.00,0.75
5758.00,0.75
5757.00,0.76
5756.00,0.76
5755.00,0.76
5754.00,0.77
5753.00,0.77
5752.00,0.77
5751.00,0.77
5750.00,0.78
5749.00,0.78
5748.00,0.78
5747.00,0.78
5746.00,0.79
5745.00,0.79
5744.00,0.79
5743.00,0.80
5742.00,0.80
5741.00,0.80
5740.00,0.80
5739.00,0.81
5738.00,0.81
5737.00,0.81
5736.00,0.81
5735.00,0.81
5734.00,0.81
5733.00,0.82
5732.00,0.82
5731.00,0.82
5730.00,0.82
5729.00,0.82
5728.00,0.82
5727.00,0.82
5726.00,0.82
5725.00,0.82
5724.00,0.83
5723.00,0.83
5722.00,0.83
5721.00,0.83
5720.00,0.83
5719.00,0.83
5718.00,0.83
5717.00,0.83
5716.00,0.83
5715.00,0.83
5714.00,0.83
5713.00,0.83
5712.00,0.83
5711.00,0.83
5710.00,0.83
5709.00,0.83
5708.00,0.83
5707.00,0.83
5706.00,0.83
5705.00,0.83
5704.00,0.83
5703.00,0.83
5702.00,0.83
5701.00,0.82
5700.00,0.82
5699.00,0.82
5698.00,0.82
5697.00,0.82
5696.00,0.82
5695.00,0.82
5694.00,0.82
5693.00,0.82
5692.00,0.82
5691.00,0.82
5690.00,0.82
5689.00,0.82
5688.00,0.81
5687.00,0.81
5686.00,0.81
5685.00,0.81
5684.00,0.81
5683.00,0.81
5682.00,0.81
5681.00,0.81
5680.00,0.81
5679.00,0.81
5678.00,0.81
5677.00,0.81
5676.00,0.80
5675.00,0.80
5674.00,0.80
5673.00,0.80
5672.00,0.80
5671.00,0.80
5670.00,0.80
5669.00,0.81
5668.00,0.81
5667.00,0.81
5666.00,0.81
5665.00,0.81
5664.00,0.81
5663.00,0.81
5662.00,0.81
5661.00,0.81
5660.00,0.81
5659.00,0.81
5658.00,0.82
5657.00,0.82
5656.00,0.82
5655.00,0.82
5654.00,0.82
5653.00,0.82
5652.00,0.82
5651.00,0.83
5650.00,0.83
5649.00,0.83
5648.00,0.83
5647.00,0.83
5646.00,0.83
5645.00,0.84
5644.00,0.84
5643.00,0.84
5642.00,0.84
5641.00,0.84
5640.00,0.85
5639.00,0.85
5638.00,0.85
5637.00,0.85
5636.00,0.85
5635.00,0.86
5634.00,0.86
5633.00,0.86
5632.00,0.86
5631.00,0.86
5630.00,0.86
5629.00,0.86
5628.00,0.87
5627.00,0.87
5626.00,0.87
5625.00,0.87
5624.00,0.87
5623.00,0.87
5622.00,0.87
5621.00,0.87
5620.00,0.88
5619.00,0.88
5618.00,0.88
5617.00,0.88
5616.00,0.88
5615.00,0.88
5614.00,0.89
5613.00,0.89
5612.00,0.89
5611.00,0.89
5610.00,0.89
5609.00,0.89
5608.00,0.90
5607.00,0.90
5606.00,0.90
5605.00,0.90
5604.00,0.90
5603.00,0.90
5602.00,0.91
5601.00,0.91
5600.00,0.91
5599.00,0.91
5598.00,0.91
5597.00,0.91
5596.00,0.91
5595.00,0.92
5594.00,0.92
5593.00,0.92
5592.00,0.92
5591.00,0.92
5590.00,0.92
5589.00,0.92
5588.00,0.92
5587.00,0.93
5586.00,0.93
5585.00,0.93
5584.00,0.93
5583.00,0.93
5582.00,0.93
5581.00,0.93
5580.00,0.93
5579.00,0.93
5578.00,0.93
5577.00,0.94
5576.00,0.94
5575.00,0.94
5574.00,0.94
5573.00,0.94
5572.00,0.94
5571.00,0.94
5570.00,0.94
5569.00,0.94
5568.00,0.95
5567.00,0.95
5566.00,0.95
5565.00,0.95
5564.00,0.95
5563.00,0.95
5562.00,0.95
5561.00,0.96
5560.00,0.96
5559.00,0.96
5558.00,0.96
5557.00,0.96
5556.00,0.96
5555.00,0.96
5554.00,0.97
5553.00,0.97
5552.00,0.97
5551.00,0.97
5550.00,0.97
5549.00,0.97
5548.00,0.97
5547.00,0.97
5546.00,0.97
5545.00,0.98
5544.00,0.98
5543.00,0.98
5542.00,0.98
5541.00,0.98
5540.00,0.98
5539.00,0.98
5538.00,0.98
5537.00,0.98
5536.00,0.98
5535.00,0.98
5534.00,0.98
5533.00,0.98
5532.00,0.98
5531.00,0.98
5530.00,0.99
5529.00,0.99
5528.00,0.99
5527.00,0.99
5526.00,0.99
5525.00,0.99
5524.00,0.99
5523.00,0.99
5522.00,0.99
5521.00,0.99
5520.00,0.99
5519.00,0.99
5518.00,1.00
5517.00,1.00
5516.00,1.00
5515.00,1.00
5514.00,1.00
5513.00,1.00
5512.00,1.00
5511.00,1.00
5510.00,1.00
5509.00,1.00
5508.00,1.00
5507.00,1.00
5506.00,1.00
5505.00,1.00
5504.00,1.00
5503.00,1.00
5502.00,1.00
5501.00,1.01
5500.00,1.01
5499.00,1.01
5498.00,1.01
5497.00,1.01
5496.00,1.01
5495.00,1.01
5494.00,1.01
5493.00,1.01
5492.00,1.01
5491.00,1.01
5490.00,1.01
5489.00,1.01
5488.00,1.01
5487.00,1.02
5486.00,1.02
5485.00,1.02
5484.00,1.02
5483.00,1.02
5482.00,1.02
5481.00,1.02
5480.00,1.03
5479.00,1.03
5478.00,1.03
5477.00,1.03
5476.00,1.03
5475.00,1.03
5474.00,1.03
5473.00,1.03
5472.00,1.04
5471.00,1.04
5470.00,1.04
5469.00,1.04
5468.00,1.04
5467.00,1.04
5466.00,1.04
5465.00,1.04
5464.00,1.04
5463.00,1.04
5462.00,1.05
5461.00,1.05
5460.00,1.05
5459.00,1.05
5458.00,1.05
5457.00,1.05
5456.00,1.05
5455.00,1.05
5454.00,1.05
5453.00,1.05
5452.00,1.05
5451.00,1.05
5450.00,1.05
5449.00,1.05
5448.00,1.05
5447.00,1.05
5446.00,1.05
5445.00,1.05
5444.00,1.05
5443.00,1.05
5442.00,1.05
5441.00,1.05
5440.00,1.05
5439.00,1.05
5438.00,1.05
5437.00,1.05
5436.00,1.05
5435.00,1.05
5434.00,1.06
5433.00,1.06
5432.00,1.06
5431.00,1.06
5430.00,1.06
5429.00,1.06
5428.00,1.06
5427.00,1.06
5426.00,1.06
5425.00,1.06
5424.00,1.06
5423.00,1.06
5422.00,1.06
5421.00,1.06
5420.00,1.06
5419.00,1.06
5418.00,1.06
5417.00,1.06
5416.00,1.06
5415.00,1.06
5414.00,1.06
5413.00,1.06
5412.00,1.06
5411.00,1.06
5410.00,1.06
5409.00,1.06
5408.00,1.06
5407.00,1.06
5406.00,1.06
5405.00,1.06
5404.00,1.06
5403.00,1.06
5402.00,1.06
5401.00,1.06
5400.00,1.06
5399.00,1.06
5398.00,1.06
5397.00,1.06
5396.00,1.06
5395.00,1.06
5394.00,1.06
5393.00,1.06
5392.00,1.06
5391.00,1.06
5390.00,1.06
5389.00,1.05
5388.00,1.05
5387.00,1.05
5386.00,1.05
5385.00,1.05
5384.00,1.04
5383.00,1.04
5382.00,1.04
5381.00,1.04
5380.00,1.03
5379.00,1.03
5378.00,1.03
5377.00,1.02
5376.00,1.02
5375.00,1.02
5374.00,1.02
5373.00,1.01
5372.00,1.01
5371.00,1.01
5370.00,1.00
5369.00,1.00
5368.00,1.00
5367.00,0.99
5366.00,0.99
5365.00,0.98
5364.00,0.98
5363.00,0.97
5362.00,0.97
5361.00,0.96
5360.00,0.96
5359.00,0.95
5358.00,0.95
5357.00,0.94
5356.00,0.94
5355.00,0.93
5354.00,0.92
5353.00,0.92
5352.00,0.91
5351.00,0.90
5350.00,0.90
5349.00,0.89
5348.00,0.88
5347.00,0.88
5346.00,0.87
5345.00,0.86
5344.00,0.85
5343.00,0.84
5342.00,0.84
5341.00,0.83
5340.00,0.82
5339.00,0.81
5338.00,0.81
5337.00,0.80
5336.00,0.79
5335.00,0.78
5334.00,0.78
5333.00,0.77
5332.00,0.76
5331.00,0.75
5330.00,0.75
5329.00,0.74
5328.00,0.73
5327.00,0.72
5326.00,0.72
5325.00,0.71
5324.00,0.70
5323.00,0.70
5322.00,0.69
5321.00,0.68
5320.00,0.68
5319.00,0.67
5318.00,0.66
5317.00,0.66
5316.00,0.65
5315.00,0.65
5314.00,0.64
5313.00,0.63
5312.00,0.63
5311.00,0.62
5310.00,0.62
5309.00,0.61
5308.00,0.61
5307.00,0.60
5306.00,0.60
5305.00,0.60
5304.00,0.59
5303.00,0.59
5302.00,0.58
5301.00,0.58
5300.00,0.58
5299.00,0.57
5298.00,0.57
5297.00,0.57
5296.00,0.57
5295.00,0.57
5294.00,0.56
5293.00,0.56
5292.00,0.56
5291.00,0.56
5290.00,0.56
5289.00,0.56
5288.00,0.55
5287.00,0.55
5286.00,0.55
5285.00,0.55
5284.00,0.55
5283.00,0.55
5282.00,0.55
5281.00,0.55
5280.00,0.55
5279.00,0.55
5278.00,0.55
5277.00,0.55
5276.00,0.55
5275.00,0.55
5274.00,0.55
5273.00,0.55
5272.00,0.54
5271.00,0.54
5270.00,0.54
5269.00,0.54
5268.00,0.54
5267.00,0.54
5266.00,0.54
5265.00,0.54
5264.00,0.54
5263.00,0.54
5262.00,0.54
5261.00,0.54
5260.00,0.54
5259.00,0.54
5258.00,0.54
5257.00,0.54
5256.00,0.54
5255.00,0.54
5254.00,0.54
5253.00,0.54
5252.00,0.54
5251.00,0.54
5250.00,0.54
5249.00,0.54
5248.00,0.54
5247.00,0.54
5246.00,0.54
5245.00,0.54
5244.00,0.54
5243.00,0.54
5242.00,0.54
5241.00,0.54
5240.00,0.54
5239.00,0.54
5238.00,0.54
5237.00,0.54
5236.00,0.54
5235.00,0.55
5234.00,0.55
5233.00,0.55
5232.00,0.55
5231.00,0.55
5230.00,0.55
5229.00,0.55
5228.00,0.55
5227.00,0.55
5226.00,0.55
5225.00,0.55
5224.00,0.55
5223.00,0.55
5222.00,0.55
5221.00,0.55
5220.00,0.55
5219.00,0.55
5218.00,0.55
5217.00,0.55
5216.00,0.55
5215.00,0.55
5214.00,0.55
5213.00,0.55
5212.00,0.55
5211.00,0.55
5210.00,0.55
5209.00,0.55
5208.00,0.55
5207.00,0.55
5206.00,0.55
5205.00,0.55
5204.00,0.55
5203.00,0.55
5202.00,0.55
5201.00,0.55
5200.00,0.55
5199.00,0.55
5198.00,0.55
5197.00,0.55
5196.00,0.56
5195.00,0.56
5194.00,0.56
5193.00,0.56
5192.00,0.56
5191.00,0.56
5190.00,0.56
5189.00,0.56
5188.00,0.56
5187.00,0.56
5186.00,0.56
5185.00,0.56
5184.00,0.56
5183.00,0.56
5182.00,0.56
5181.00,0.56
5180.00,0.56
5179.00,0.56
5178.00,0.56
5177.00,0.56
5176.00,0.56
5175.00,0.56
5174.00,0.56
5173.00,0.56
5172.00,0.56
5171.00,0.56
5170.00,0.56
5169.00,0.56
5168.00,0.56
5167.00,0.56
5166.00,0.56
5165.00,0.56
5164.00,0.56
5163.00,0.56
5162.00,0.56
5161.00,0.56
5160.00,0.56
5159.00,0.57
5158.00,0.57
5157.00,0.57
5156.00,0.57
5155.00,0.57
5154.00,0.57
5153.00,0.57
5152.00,0.57
5151.00,0.57
5150.00,0.57
5149.00,0.57
5148.00,0.57
5147.00,0.57
5146.00,0.57
5145.00,0.57
5144.00,0.58
5143.00,0.58
5142.00,0.58
5141.00,0.58
5140.00,0.58
5139.00,0.58
5138.00,0.58
5137.00,0.58
5136.00,0.58
5135.00,0.58
5134.00,0.58
5133.00,0.58
5132.00,0.58
5131.00,0.58
5130.00,0.58
5129.00,0.58
5128.00,0.58
5127.00,0.58
5126.00,0.58
5125.00,0.58
5124.00,0.58
5123.00,0.58
5122.00,0.58
5121.00,0.58
5120.00,0.58
5119.00,0.58
5118.00,0.58
5117.00,0.58
5116.00,0.58
5115.00,0.58
5114.00,0.58
5113.00,0.58
5112.00,0.58
5111.00,0.58
5110.00,0.58
5109.00,0.59
5108.00,0.59
5107.00,0.59
5106.00,0.59
5105.00,0.59
5104.00,0.59
5103.00,0.59
5102.00,0.59
5101.00,0.59
5100.00,0.59
5099.00,0.59
5098.00,0.59
5097.00,0.59
5096.00,0.59
5095.00,0.59
5094.00,0.59
5093.00,0.60
5092.00,0.60
5091.00,0.60
5090.00,0.60
5089.00,0.60
5088.00,0.60
5087.00,0.60
5086.00,0.60
5085.00,0.60
5084.00,0.60
5083.00,0.60
5082.00,0.60
5081.00,0.60
5080.00,0.60
5079.00,0.60
5078.00,0.60
5077.00,0.61
5076.00,0.61
5075.00,0.61
5074.00,0.61
5073.00,0.61
5072.00,0.61
5071.00,0.61
5070.00,0.61
5069.00,0.61
5068.00,0.61
5067.00,0.61
5066.00,0.61
5065.00,0.61
5064.00,0.61
5063.00,0.61
5062.00,0.61
5061.00,0.61
5060.00,0.61
5059.00,0.61
5058.00,0.61
5057.00,0.61
5056.00,0.61
5055.00,0.61
5054.00,0.61
5053.00,0.61
5052.00,0.61
5051.00,0.61
5050.00,0.61
5049.00,0.61
5048.00,0.61
5047.00,0.61
5046.00,0.61
5045.00,0.62
5044.00,0.62
5043.00,0.62
5042.00,0.62
5041.00,0.62
5040.00,0.62
5039.00,0.62
5038.00,0.62
5037.00,0.62
5036.00,0.62
5035.00,0.62
5034.00,0.62
5033.00,0.62
5032.00,0.62
5031.00,0.62
5030.00,0.62
5029.00,0.62
5028.00,0.62
5027.00,0.62
5026.00,0.62
5025.00,0.62
5024.00,0.62
5023.00,0.62
5022.00,0.62
5021.00,0.62
5020.00,0.62
5019.00,0.62
5018.00,0.62
5017.00,0.62
5016.00,0.63
5015.00,0.63
5014.00,0.63
5013.00,0.63
5012.00,0.63
5011.00,0.63
5010.00,0.63
5009.00,0.63
5008.00,0.63
5007.00,0.63
5006.00,0.63
5005.00,0.63
5004.00,0.63
5003.00,0.63
5002.00,0.63
5001.00,0.63
5000.00,0.64
4999.00,0.64
4998.00,0.64
4997.00,0.64
4996.00,0.64
4995.00,0.64
4994.00,0.64
4993.00,0.64
4992.00,0.64
4991.00,0.64
4990.00,0.64
4989.00,0.64
4988.00,0.64
4987.00,0.64
4986.00,0.65
4985.00,0.65
4984.00,0.65
4983.00,0.65
4982.00,0.65
4981.00,0.65
4980.00,0.65
4979.00,0.65
4978.00,0.65
4977.00,0.65
4976.00,0.65
4975.00,0.65
4974.00,0.65
4973.00,0.65
4972.00,0.66
4971.00,0.66
4970.00,0.66
4969.00,0.66
4968.00,0.66
4967.00,0.66
4966.00,0.66
4965.00,0.66
4964.00,0.66
4963.00,0.66
4962.00,0.66
4961.00,0.66
4960.00,0.66
4959.00,0.66
4958.00,0.66
4957.00,0.66
4956.00,0.66
4955.00,0.66
4954.00,0.66
4953.00,0.66
4952.00,0.66
4951.00,0.66
4950.00,0.66
4949.00,0.67
4948.00,0.67
4947.00,0.67
4946.00,0.67
4945.00,0.67
4944.00,0.67
4943.00,0.67
4942.00,0.67
4941.00,0.67
4940.00,0.67
4939.00,0.67
4938.00,0.67
4937.00,0.67
4936.00,0.67
4935.00,0.67
4934.00,0.67
4933.00,0.67
4932.00,0.67
4931.00,0.67
4930.00,0.67
4929.00,0.67
4928.00,0.68
4927.00,0.68
4926.00,0.68
4925.00,0.68
4924.00,0.68
4923.00,0.68
4922.00,0.68
4921.00,0.68
4920.00,0.68
4919.00,0.68
4918.00,0.68
4917.00,0.68
4916.00,0.68
4915.00,0.68
4914.00,0.68
4913.00,0.68
4912.00,0.69
4911.00,0.69
4910.00,0.69
4909.00,0.69
4908.00,0.69
4907.00,0.69
4906.00,0.69
4905.00,0.69
4904.00,0.69
4903.00,0.69
4902.00,0.69
4901.00,0.69
4900.00,0.69
4899.00,0.69
4898.00,0.69
4897.00,0.69
4896.00,0.69
4895.00,0.69
4894.00,0.69
4893.00,0.69
4892.00,0.69
4891.00,0.69
4890.00,0.69
4889.00,0.69
4888.00,0.69
4887.00,0.69
4886.00,0.69
4885.00,0.69
4884.00,0.69
4883.00,0.69
4882.00,0.69
4881.00,0.69
4880.00,0.69
4879.00,0.69
4878.00,0.69
4877.00,0.69
4876.00,0.69
4875.00,0.69
4874.00,0.70
4873.00,0.70
4872.00,0.70
4871.00,0.70
4870.00,0.70
4869.00,0.70
4868.00,0.70
4867.00,0.70
4866.00,0.70
4865.00,0.70
4864.00,0.70
4863.00,0.70
4862.00,0.70
4861.00,0.71
4860.00,0.71
4859.00,0.71
4858.00,0.71
4857.00,0.71
4856.00,0.71
4855.00,0.71
4854.00,0.71
4853.00,0.71
4852.00,0.71
4851.00,0.71
4850.00,0.71
4849.00,0.71
4848.00,0.71
4847.00,0.71
4846.00,0.71
4845.00,0.71
4844.00,0.71
4843.00,0.71
4842.00,0.71
4841.00,0.71
4840.00,0.71
4839.00,0.71
4838.00,0.71
4837.00,0.71
4836.00,0.71
4835.00,0.71
4834.00,0.71
4833.00,0.71
4832.00,0.71
4831.00,0.71
4830.00,0.71
4829.00,0.71
4828.00,0.71
4827.00,0.71
4826.00,0.71
4825.00,0.71
4824.00,0.71
4823.00,0.71
4822.00,0.71
4821.00,0.71
4820.00,0.72
4819.00,0.72
4818.00,0.72
4817.00,0.72
4816.00,0.72
4815.00,0.72
4814.00,0.72
4813.00,0.72
4812.00,0.72
4811.00,0.72
4810.00,0.72
4809.00,0.72
4808.00,0.72
4807.00,0.72
4806.00,0.72
4805.00,0.72
4804.00,0.72
4803.00,0.73
4802.00,0.73
4801.00,0.73
4800.00,0.73
4799.00,0.73
4798.00,0.73
4797.00,0.73
4796.00,0.73
4795.00,0.73
4794.00,0.73
4793.00,0.73
4792.00,0.73
4791.00,0.73
4790.00,0.74
4789.00,0.74
4788.00,0.74
4787.00,0.74
4786.00,0.74
4785.00,0.74
4784.00,0.74
4783.00,0.74
4782.00,0.74
4781.00,0.74
4780.00,0.74
4779.00,0.74
4778.00,0.74
4777.00,0.74
4776.00,0.74
4775.00,0.74
4774.00,0.74
4773.00,0.75
4772.00,0.75
4771.00,0.75
4770.00,0.75
4769.00,0.75
4768.00,0.75
4767.00,0.75
4766.00,0.75
4765.00,0.75
4764.00,0.75
4763.00,0.75
4762.00,0.76
4761.00,0.76
4760.00,0.76
4759.00,0.76
4758.00,0.76
4757.00,0.76
4756.00,0.76
4755.00,0.76
4754.00,0.76
4753.00,0.76
4752.00,0.76
4751.00,0.76
4750.00,0.76
4749.00,0.76
4748.00,0.76
4747.00,0.76
4746.00,0.77
4745.00,0.77
4744.00,0.77
4743.00,0.77
4742.00,0.77
4741.00,0.77
4740.00,0.77
4739.00,0.77
4738.00,0.77
4737.00,0.77
4736.00,0.78
4735.00,0.78
4734.00,0.78
4733.00,0.78
4732.00,0.78
4731.00,0.78
4730.00,0.78
4729.00,0.79
4728.00,0.79
4727.00,0.79
4726.00,0.79
4725.00,0.79
4724.00,0.79
4723.00,0.79
4722.00,0.79
4721.00,0.79
4720.00,0.79
4719.00,0.80
4718.00,0.80
4717.00,0.80
4716.00,0.80
4715.00,0.80
4714.00,0.80
4713.00,0.80
4712.00,0.80
4711.00,0.80
4710.00,0.80
4709.00,0.80
4708.00,0.80
4707.00,0.80
4706.00,0.80
4705.00,0.80
4704.00,0.80
4703.00,0.80
4702.00,0.80
4701.00,0.80
4700.00,0.81
4699.00,0.81
4698.00,0.81
4697.00,0.81
4696.00,0.81
4695.00,0.81
4694.00,0.81
4693.00,0.81
4692.00,0.81
4691.00,0.81
4690.00,0.82
4689.00,0.82
4688.00,0.82
4687.00,0.82
4686.00,0.82
4685.00,0.82
4684.00,0.82
4683.00,0.82
4682.00,0.82
4681.00,0.82
4680.00,0.83
4679.00,0.83
4678.00,0.83
4677.00,0.83
4676.00,0.83
4675.00,0.83
4674.00,0.83
4673.00,0.83
4672.00,0.83
4671.00,0.83
4670.00,0.83
4669.00,0.83
4668.00,0.83
4667.00,0.84
4666.00,0.84
4665.00,0.84
4664.00,0.84
4663.00,0.84
4662.00,0.84
4661.00,0.84
4660.00,0.84
4659.00,0.84
4658.00,0.84
4657.00,0.84
4656.00,0.84
4655.00,0.85
4654.00,0.85
4653.00,0.85
4652.00,0.85
4651.00,0.85
4650.00,0.85
4649.00,0.85
4648.00,0.85
4647.00,0.85
4646.00,0.85
4645.00,0.85
4644.00,0.85
4643.00,0.85
4642.00,0.86
4641.00,0.86
4640.00,0.86
4639.00,0.86
4638.00,0.86
4637.00,0.86
4636.00,0.86
4635.00,0.86
4634.00,0.86
4633.00,0.86
4632.00,0.86
4631.00,0.86
4630.00,0.86
4629.00,0.86
4628.00,0.86
4627.00,0.86
4626.00,0.86
4625.00,0.86
4624.00,0.86
4623.00,0.87
4622.00,0.87
4621.00,0.87
4620.00,0.87
4619.00,0.87
4618.00,0.87
4617.00,0.87
4616.00,0.87
4615.00,0.87
4614.00,0.87
4613.00,0.87
4612.00,0.87
4611.00,0.88
4610.00,0.88
4609.00,0.88
4608.00,0.88
4607.00,0.88
4606.00,0.88
4605.00,0.88
4604.00,0.88
4603.00,0.88
4602.00,0.88
4601.00,0.88
4600.00,0.88
4599.00,0.88
4598.00,0.88
4597.00,0.88
4596.00,0.88
4595.00,0.88
4594.00,0.88
4593.00,0.88
4592.00,0.88
4591.00,0.88
4590.00,0.88
4589.00,0.88
4588.00,0.88
4587.00,0.88
4586.00,0.88
4585.00,0.89
4584.00,0.89
4583.00,0.89
4582.00,0.89
4581.00,0.89
4580.00,0.89
4579.00,0.89
4578.00,0.89
4577.00,0.89
4576.00,0.89
4575.00,0.89
4574.00,0.89
4573.00,0.89
4572.00,0.89
4571.00,0.90
4570.00,0.90
4569.00,0.90
4568.00,0.90
4567.00,0.90
4566.00,0.90
4565.00,0.90
4564.00,0.90
4563.00,0.90
4562.00,0.90
4561.00,0.90
4560.00,0.90
4559.00,0.90
4558.00,0.90
4557.00,0.90
4556.00,0.90
4555.00,0.90
4554.00,0.91
4553.00,0.91
4552.00,0.91
4551.00,0.91
4550.00,0.91
4549.00,0.91
4548.00,0.91
4547.00,0.91
4546.00,0.91
4545.00,0.91
4544.00,0.91
4543.00,0.91
4542.00,0.92
4541.00,0.92
4540.00,0.92
4539.00,0.92
4538.00,0.92
4537.00,0.92
4536.00,0.92
4535.00,0.92
4534.00,0.92
4533.00,0.92
4532.00,0.93
4531.00,0.93
4530.00,0.93
4529.00,0.93
4528.00,0.93
4527.00,0.93
4526.00,0.93
4525.00,0.93
4524.00,0.93
4523.00,0.93
4522.00,0.93
4521.00,0.93
4520.00,0.93
4519.00,0.93
4518.00,0.93
4517.00,0.93
4516.00,0.93
4515.00,0.93
4514.00,0.93
4513.00,0.93
4512.00,0.93
4511.00,0.93
4510.00,0.93
4509.00,0.93
4508.00,0.93
4507.00,0.93
4506.00,0.93
4505.00,0.93
4504.00,0.93
4503.00,0.93
4502.00,0.93
4501.00,0.93
4500.00,0.93
4499.00,0.93
4498.00,0.93
4497.00,0.93
4496.00,0.93
4495.00,0.93
4494.00,0.93
4493.00,0.93
4492.00,0.93
4491.00,0.92
4490.00,0.92
4489.00,0.92
4488.00,0.92
4487.00,0.92
4486.00,0.92
4485.00,0.92
4484.00,0.92
4483.00,0.92
4482.00,0.92
4481.00,0.92
4480.00,0.92
4479.00,0.92
4478.00,0.92
4477.00,0.92
4476.00,0.92
4475.00,0.92
4474.00,0.92
4473.00,0.92
4472.00,0.92
4471.00,0.92
4470.00,0.91
4469.00,0.91
4468.00,0.91
4467.00,0.91
4466.00,0.91
4465.00,0.91
4464.00,0.91
4463.00,0.90
4462.00,0.90
4461.00,0.90
4460.00,0.90
4459.00,0.90
4458.00,0.90
4457.00,0.89
4456.00,0.89
4455.00,0.89
4454.00,0.89
4453.00,0.89
4452.00,0.89
4451.00,0.88
4450.00,0.88
4449.00,0.88
4448.00,0.88
4447.00,0.88
4446.00,0.88
4445.00,0.87
4444.00,0.87
4443.00,0.87
4442.00,0.87
4441.00,0.87
4440.00,0.86
4439.00,0.86
4438.00,0.86
4437.00,0.86
4436.00,0.86
4435.00,0.86
4434.00,0.86
4433.00,0.86
4432.00,0.85
4431.00,0.85
4430.00,0.85
4429.00,0.85
4428.00,0.85
4427.00,0.85
4426.00,0.85
4425.00,0.85
4424.00,0.85
4423.00,0.85
4422.00,0.85
4421.00,0.85
4420.00,0.85
4419.00,0.85
4418.00,0.85
4417.00,0.86
4416.00,0.86
4415.00,0.86
4414.00,0.86
4413.00,0.86
4412.00,0.86
4411.00,0.86
4410.00,0.86
4409.00,0.86
4408.00,0.86
4407.00,0.86
4406.00,0.86
4405.00,0.86
4404.00,0.86
4403.00,0.86
4402.00,0.86
4401.00,0.86
4400.00,0.86
4399.00,0.86
4398.00,0.86
4397.00,0.86
4396.00,0.86
4395.00,0.86
4394.00,0.86
4393.00,0.86
4392.00,0.87
4391.00,0.87
4390.00,0.87
4389.00,0.87
4388.00,0.87
4387.00,0.87
4386.00,0.87
4385.00,0.87
4384.00,0.87
4383.00,0.87
4382.00,0.88
4381.00,0.88
4380.00,0.88
4379.00,0.88
4378.00,0.88
4377.00,0.88
4376.00,0.88
4375.00,0.88
4374.00,0.88
4373.00,0.88
4372.00,0.88
4371.00,0.88
4370.00,0.88
4369.00,0.88
4368.00,0.88
4367.00,0.88
4366.00,0.88
4365.00,0.88
4364.00,0.88
4363.00,0.88
4362.00,0.88
4361.00,0.88
4360.00,0.88
4359.00,0.88
4358.00,0.88
4357.00,0.88
4356.00,0.88
4355.00,0.88
4354.00,0.88
4353.00,0.88
4352.00,0.88
4351.00,0.88
4350.00,0.88
4349.00,0.89
4348.00,0.89
4347.00,0.89
4346.00,0.89
4345.00,0.89
4344.00,0.89
4343.00,0.89
4342.00,0.89
4341.00,0.89
4340.00,0.89
4339.00,0.89
4338.00,0.89
4337.00,0.89
4336.00,0.89
4335.00,0.89
4334.00,0.89
4333.00,0.89
4332.00,0.89
4331.00,0.89
4330.00,0.89
4329.00,0.89
4328.00,0.89
4327.00,0.89
4326.00,0.90
4325.00,0.90
4324.00,0.90
4323.00,0.90
4322.00,0.90
4321.00,0.90
4320.00,0.90
4319.00,0.91
4318.00,0.91
4317.00,0.91
4316.00,0.91
4315.00,0.91
4314.00,0.91
4313.00,0.92
4312.00,0.92
4311.00,0.92
4310.00,0.92
4309.00,0.92
4308.00,0.92
4307.00,0.92
4306.00,0.92
4305.00,0.92
4304.00,0.92
4303.00,0.92
4302.00,0.92
4301.00,0.92
4300.00,0.92
4299.00,0.92
4298.00,0.92
4297.00,0.92
4296.00,0.92
4295.00,0.92
4294.00,0.92
4293.00,0.92
4292.00,0.92
4291.00,0.92
4290.00,0.92
4289.00,0.92
4288.00,0.93
4287.00,0.93
4286.00,0.93
4285.00,0.93
4284.00,0.93
4283.00,0.93
4282.00,0.93
4281.00,0.93
4280.00,0.93
4279.00,0.93
4278.00,0.93
4277.00,0.93
4276.00,0.94
4275.00,0.94
4274.00,0.94
4273.00,0.94
4272.00,0.94
4271.00,0.94
4270.00,0.94
4269.00,0.94
4268.00,0.94
4267.00,0.94
4266.00,0.94
4265.00,0.94
4264.00,0.94
4263.00,0.94
4262.00,0.94
4261.00,0.94
4260.00,0.94
4259.00,0.94
4258.00,0.95
4257.00,0.95
4256.00,0.95
4255.00,0.95
4254.00,0.95
4253.00,0.95
4252.00,0.95
4251.00,0.95
4250.00,0.95
4249.00,0.95
4248.00,0.95
4247.00,0.95
4246.00,0.95
4245.00,0.95
4244.00,0.95
4243.00,0.95
4242.00,0.95
4241.00,0.95
4240.00,0.95
4239.00,0.95
4238.00,0.95
4237.00,0.95
4236.00,0.96
4235.00,0.96
4234.00,0.96
4233.00,0.96
4232.00,0.96
4231.00,0.96
4230.00,0.96
4229.00,0.96
4228.00,0.96
4227.00,0.96
4226.00,0.96
4225.00,0.96
4224.00,0.97
4223.00,0.97
4222.00,0.97
4221.00,0.97
4220.00,0.97
4219.00,0.97
4218.00,0.97
4217.00,0.97
4216.00,0.97
4215.00,0.97
4214.00,0.97
4213.00,0.97
4212.00,0.97
4211.00,0.97
4210.00,0.97
4209.00,0.97
4208.00,0.97
4207.00,0.97
4206.00,0.97
4205.00,0.97
4204.00,0.97
4203.00,0.97
4202.00,0.97
4201.00,0.97
4200.00,0.97
4199.00,0.97
4198.00,0.98
4197.00,0.98
4196.00,0.98
4195.00,0.98
4194.00,0.98
4193.00,0.98
4192.00,0.98
4191.00,0.98
4190.00,0.98
4189.00,0.98
4188.00,0.98
4187.00,0.98
4186.00,0.98
4185.00,0.98
4184.00,0.98
4183.00,0.98
4182.00,0.98
4181.00,0.98
4180.00,0.98
4179.00,0.98
4178.00,0.98
4177.00,0.98
4176.00,0.98
4175.00,0.98
4174.00,0.98
4173.00,0.98
4172.00,0.98
4171.00,0.98
4170.00,0.98
4169.00,0.98
4168.00,0.98
4167.00,0.98
4166.00,0.98
4165.00,0.98
4164.00,0.98
4163.00,0.98
4162.00,0.98
4161.00,0.98
4160.00,0.98
4159.00,0.98
4158.00,0.99
4157.00,0.99
4156.00,0.99
4155.00,0.99
4154.00,0.99
4153.00,0.99
4152.00,0.99
4151.00,0.99
4150.00,0.99
4149.00,1.00
4148.00,1.00
4147.00,1.00
4146.00,1.00
4145.00,1.00
4144.00,1.00
4143.00,1.00
4142.00,1.00
4141.00,1.00
4140.00,1.00
4139.00,1.00
4138.00,1.00
4137.00,1.00
4136.00,1.00
4135.00,1.00
4134.00,1.00
4133.00,1.00
4132.00,1.00
4131.00,1.00
4130.00,1.00
4129.00,1.00
4128.00,1.00
4127.00,1.00
4126.00,1.00
4125.00,1.00
4124.00,1.00
4123.00,1.00
4122.00,1.00
4121.00,1.00
4120.00,1.00
4119.00,1.00
4118.00,1.00
4117.00,1.00
4116.00,1.00
4115.00,1.00
4114.00,1.00
4113.00,1.00
4112.00,1.00
4111.00,1.01
4110.00,1.01
4109.00,1.01
4108.00,1.01
4107.00,1.01
4106.00,1.01
4105.00,1.01
4104.00,1.01
4103.00,1.01
4102.00,1.01
4101.00,1.01
4100.00,1.01
4099.00,1.01
4098.00,1.01
4097.00,1.01
4096.00,1.01
4095.00,1.01
4094.00,1.02
4093.00,1.02
4092.00,1.02
4091.00,1.02
4090.00,1.02
4089.00,1.02
4088.00,1.02
4087.00,1.02
4086.00,1.02
4085.00,1.02
4084.00,1.02
4083.00,1.02
4082.00,1.02
4081.00,1.02
4080.00,1.02
4079.00,1.02
4078.00,1.02
4077.00,1.02
4076.00,1.02
4075.00,1.02
4074.00,1.02
4073.00,1.02
4072.00,1.02
4071.00,1.02
4070.00,1.02
4069.00,1.03
4068.00,1.03
4067.00,1.03
4066.00,1.03
4065.00,1.03
4064.00,1.03
4063.00,1.03
4062.00,1.04
4061.00,1.04
4060.00,1.04
4059.00,1.04
4058.00,1.04
4057.00,1.04
4056.00,1.04
4055.00,1.04
4054.00,1.04
4053.00,1.04
4052.00,1.04
4051.00,1.04
4050.00,1.04
4049.00,1.04
4048.00,1.04
4047.00,1.04
4046.00,1.04
4045.00,1.04
4044.00,1.04
4043.00,1.04
4042.00,1.04
4041.00,1.04
4040.00,1.04
4039.00,1.04
4038.00,1.04
4037.00,1.04
4036.00,1.04
4035.00,1.04
4034.00,1.04
4033.00,1.04
4032.00,1.04
4031.00,1.04
4030.00,1.04
4029.00,1.05
4028.00,1.05
4027.00,1.05
4026.00,1.05
4025.00,1.05
4024.00,1.05
4023.00,1.05
4022.00,1.05
4021.00,1.05
4020.00,1.05
4019.00,1.05
4018.00,1.05
4017.00,1.06
4016.00,1.06
4015.00,1.06
4014.00,1.06
4013.00,1.06
4012.00,1.06
4011.00,1.06
4010.00,1.06
4009.00,1.06
4008.00,1.06
4007.00,1.06
4006.00,1.06
4005.00,1.06
4004.00,1.06
4003.00,1.06
4002.00,1.06
4001.00,1.06
4000.00,1.06
