创建为新数据集,样品 396 用户 Administrator 日期 星期四, 三月 08 2018
cm-1,%T
10000.00,1.14
9999.00,1.14
9998.00,1.14
9997.00,1.13
9996.00,1.13
9995.00,1.13
9994.00,1.13
9993.00,1.13
9992.00,1.13
9991.00,1.12
9990.00,1.12
9989.00,1.12
9988.00,1.12
9987.00,1.12
9986.00,1.12
9985.00,1.13
9984.00,1.13
9983.00,1.13
9982.00,1.13
9981.00,1.13
9980.00,1.13
9979.00,1.13
9978.00,1.13
9977.00,1.13
9976.00,1.13
9975.00,1.13
9974.00,1.13
9973.00,1.13
9972.00,1.12
9971.00,1.12
9970.00,1.12
9969.00,1.12
9968.00,1.12
9967.00,1.12
9966.00,1.12
9965.00,1.12
9964.00,1.12
9963.00,1.13
9962.00,1.13
9961.00,1.13
9960.00,1.13
9959.00,1.13
9958.00,1.13
9957.00,1.13
9956.00,1.13
9955.00,1.13
9954.00,1.14
9953.00,1.14
9952.00,1.14
9951.00,1.14
9950.00,1.14
9949.00,1.14
9948.00,1.14
9947.00,1.14
9946.00,1.13
9945.00,1.13
9944.00,1.13
9943.00,1.13
9942.00,1.13
9941.00,1.13
9940.00,1.13
9939.00,1.13
9938.00,1.13
9937.00,1.13
9936.00,1.13
9935.00,1.13
9934.00,1.13
9933.00,1.13
9932.00,1.13
9931.00,1.13
9930.00,1.13
9929.00,1.13
9928.00,1.12
9927.00,1.12
9926.00,1.12
9925.00,1.12
9924.00,1.12
9923.00,1.12
9922.00,1.12
9921.00,1.12
9920.00,1.11
9919.00,1.11
9918.00,1.12
9917.00,1.12
9916.00,1.12
9915.00,1.12
9914.00,1.12
9913.00,1.12
9912.00,1.12
9911.00,1.13
9910.00,1.13
9909.00,1.13
9908.00,1.13
9907.00,1.13
9906.00,1.13
9905.00,1.13
9904.00,1.13
9903.00,1.13
9902.00,1.13
9901.00,1.13
9900.00,1.13
9899.00,1.13
9898.00,1.13
9897.00,1.13
9896.00,1.13
9895.00,1.13
9894.00,1.12
9893.00,1.12
9892.00,1.12
9891.00,1.12
9890.00,1.12
9889.00,1.12
9888.00,1.12
9887.00,1.12
9886.00,1.12
9885.00,1.12
9884.00,1.11
9883.00,1.11
9882.00,1.11
9881.00,1.11
9880.00,1.12
9879.00,1.12
9878.00,1.12
9877.00,1.12
9876.00,1.12
9875.00,1.12
9874.00,1.12
9873.00,1.12
9872.00,1.12
9871.00,1.12
9870.00,1.13
9869.00,1.13
9868.00,1.13
9867.00,1.13
9866.00,1.13
9865.00,1.13
9864.00,1.13
9863.00,1.13
9862.00,1.12
9861.00,1.12
9860.00,1.12
9859.00,1.12
9858.00,1.12
9857.00,1.12
9856.00,1.12
9855.00,1.12
9854.00,1.12
9853.00,1.11
9852.00,1.11
9851.00,1.12
9850.00,1.12
9849.00,1.12
9848.00,1.12
9847.00,1.12
9846.00,1.12
9845.00,1.12
9844.00,1.12
9843.00,1.12
9842.00,1.12
9841.00,1.13
9840.00,1.13
9839.00,1.13
9838.00,1.13
9837.00,1.13
9836.00,1.13
9835.00,1.13
9834.00,1.13
9833.00,1.13
9832.00,1.13
9831.00,1.13
9830.00,1.13
9829.00,1.13
9828.00,1.13
9827.00,1.13
9826.00,1.13
9825.00,1.13
9824.00,1.13
9823.00,1.13
9822.00,1.12
9821.00,1.12
9820.00,1.12
9819.00,1.12
9818.00,1.12
9817.00,1.12
9816.00,1.11
9815.00,1.11
9814.00,1.11
9813.00,1.11
9812.00,1.10
9811.00,1.10
9810.00,1.10
9809.00,1.10
9808.00,1.10
9807.00,1.10
9806.00,1.10
9805.00,1.10
9804.00,1.10
9803.00,1.10
9802.00,1.11
9801.00,1.11
9800.00,1.11
9799.00,1.12
9798.00,1.12
9797.00,1.12
9796.00,1.12
9795.00,1.13
9794.00,1.13
9793.00,1.13
9792.00,1.13
9791.00,1.13
9790.00,1.14
9789.00,1.14
9788.00,1.14
9787.00,1.14
9786.00,1.14
9785.00,1.14
9784.00,1.14
9783.00,1.14
9782.00,1.13
9781.00,1.13
9780.00,1.13
9779.00,1.13
9778.00,1.13
9777.00,1.14
9776.00,1.14
9775.00,1.14
9774.00,1.14
9773.00,1.14
9772.00,1.14
9771.00,1.14
9770.00,1.14
9769.00,1.14
9768.00,1.14
9767.00,1.14
9766.00,1.14
9765.00,1.14
9764.00,1.13
9763.00,1.13
9762.00,1.13
9761.00,1.13
9760.00,1.13
9759.00,1.13
9758.00,1.13
9757.00,1.12
9756.00,1.12
9755.00,1.12
9754.00,1.12
9753.00,1.12
9752.00,1.11
9751.00,1.11
9750.00,1.11
9749.00,1.11
9748.00,1.11
9747.00,1.11
9746.00,1.11
9745.00,1.11
9744.00,1.10
9743.00,1.10
9742.00,1.10
9741.00,1.10
9740.00,1.10
9739.00,1.10
9738.00,1.10
9737.00,1.10
9736.00,1.10
9735.00,1.10
9734.00,1.10
9733.00,1.10
9732.00,1.10
9731.00,1.10
9730.00,1.10
9729.00,1.10
9728.00,1.10
9727.00,1.10
9726.00,1.10
9725.00,1.10
9724.00,1.10
9723.00,1.10
9722.00,1.10
9721.00,1.10
9720.00,1.10
9719.00,1.10
9718.00,1.10
9717.00,1.10
9716.00,1.10
9715.00,1.10
9714.00,1.10
9713.00,1.10
9712.00,1.10
9711.00,1.10
9710.00,1.10
9709.00,1.10
9708.00,1.10
9707.00,1.10
9706.00,1.10
9705.00,1.10
9704.00,1.11
9703.00,1.11
9702.00,1.11
9701.00,1.11
9700.00,1.12
9699.00,1.12
9698.00,1.12
9697.00,1.12
9696.00,1.13
9695.00,1.13
9694.00,1.13
9693.00,1.13
9692.00,1.13
9691.00,1.13
9690.00,1.13
9689.00,1.13
9688.00,1.13
9687.00,1.13
9686.00,1.13
9685.00,1.13
9684.00,1.12
9683.00,1.12
9682.00,1.12
9681.00,1.12
9680.00,1.12
9679.00,1.12
9678.00,1.12
9677.00,1.12
9676.00,1.12
9675.00,1.12
9674.00,1.12
9673.00,1.12
9672.00,1.12
9671.00,1.12
9670.00,1.12
9669.00,1.12
9668.00,1.12
9667.00,1.12
9666.00,1.12
9665.00,1.12
9664.00,1.12
9663.00,1.12
9662.00,1.12
9661.00,1.12
9660.00,1.13
9659.00,1.13
9658.00,1.13
9657.00,1.13
9656.00,1.13
9655.00,1.13
9654.00,1.13
9653.00,1.13
9652.00,1.13
9651.00,1.13
9650.00,1.13
9649.00,1.13
9648.00,1.13
9647.00,1.13
9646.00,1.12
9645.00,1.12
9644.00,1.12
9643.00,1.12
9642.00,1.12
9641.00,1.12
9640.00,1.12
9639.00,1.12
9638.00,1.11
9637.00,1.11
9636.00,1.11
9635.00,1.11
9634.00,1.11
9633.00,1.10
9632.00,1.10
9631.00,1.10
9630.00,1.10
9629.00,1.10
9628.00,1.10
9627.00,1.10
9626.00,1.10
9625.00,1.10
9624.00,1.10
9623.00,1.10
9622.00,1.10
9621.00,1.11
9620.00,1.11
9619.00,1.11
9618.00,1.11
9617.00,1.11
9616.00,1.11
9615.00,1.11
9614.00,1.11
9613.00,1.12
9612.00,1.12
9611.00,1.12
9610.00,1.12
9609.00,1.12
9608.00,1.12
9607.00,1.12
9606.00,1.12
9605.00,1.12
9604.00,1.13
9603.00,1.13
9602.00,1.13
9601.00,1.13
9600.00,1.13
9599.00,1.13
9598.00,1.13
9597.00,1.13
9596.00,1.13
9595.00,1.13
9594.00,1.13
9593.00,1.13
9592.00,1.13
9591.00,1.13
9590.00,1.13
9589.00,1.13
9588.00,1.13
9587.00,1.13
9586.00,1.13
9585.00,1.13
9584.00,1.12
9583.00,1.12
9582.00,1.12
9581.00,1.12
9580.00,1.12
9579.00,1.11
9578.00,1.11
9577.00,1.11
9576.00,1.11
9575.00,1.11
9574.00,1.11
9573.00,1.10
9572.00,1.10
9571.00,1.10
9570.00,1.10
9569.00,1.10
9568.00,1.10
9567.00,1.10
9566.00,1.10
9565.00,1.10
9564.00,1.10
9563.00,1.11
9562.00,1.11
9561.00,1.11
9560.00,1.11
9559.00,1.11
9558.00,1.11
9557.00,1.11
9556.00,1.11
9555.00,1.11
9554.00,1.12
9553.00,1.12
9552.00,1.12
9551.00,1.12
9550.00,1.12
9549.00,1.12
9548.00,1.12
9547.00,1.13
9546.00,1.13
9545.00,1.13
9544.00,1.13
9543.00,1.13
9542.00,1.13
9541.00,1.13
9540.00,1.13
9539.00,1.13
9538.00,1.13
9537.00,1.13
9536.00,1.13
9535.00,1.13
9534.00,1.12
9533.00,1.12
9532.00,1.12
9531.00,1.12
9530.00,1.12
9529.00,1.12
9528.00,1.11
9527.00,1.11
9526.00,1.11
9525.00,1.11
9524.00,1.11
9523.00,1.11
9522.00,1.11
9521.00,1.11
9520.00,1.11
9519.00,1.12
9518.00,1.12
9517.00,1.12
9516.00,1.12
9515.00,1.12
9514.00,1.12
9513.00,1.12
9512.00,1.12
9511.00,1.12
9510.00,1.12
9509.00,1.12
9508.00,1.12
9507.00,1.12
9506.00,1.12
9505.00,1.12
9504.00,1.12
9503.00,1.12
9502.00,1.11
9501.00,1.11
9500.00,1.11
9499.00,1.11
9498.00,1.11
9497.00,1.11
9496.00,1.11
9495.00,1.11
9494.00,1.11
9493.00,1.12
9492.00,1.12
9491.00,1.12
9490.00,1.12
9489.00,1.12
9488.00,1.12
9487.00,1.13
9486.00,1.13
9485.00,1.13
9484.00,1.13
9483.00,1.13
9482.00,1.14
9481.00,1.14
9480.00,1.14
9479.00,1.14
9478.00,1.14
9477.00,1.14
9476.00,1.14
9475.00,1.14
9474.00,1.13
9473.00,1.13
9472.00,1.13
9471.00,1.13
9470.00,1.13
9469.00,1.13
9468.00,1.13
9467.00,1.12
9466.00,1.12
9465.00,1.12
9464.00,1.12
9463.00,1.12
9462.00,1.12
9461.00,1.11
9460.00,1.11
9459.00,1.11
9458.00,1.11
9457.00,1.11
9456.00,1.11
9455.00,1.11
9454.00,1.10
9453.00,1.10
9452.00,1.10
9451.00,1.10
9450.00,1.10
9449.00,1.10
9448.00,1.10
9447.00,1.10
9446.00,1.10
9445.00,1.10
9444.00,1.10
9443.00,1.10
9442.00,1.11
9441.00,1.11
9440.00,1.11
9439.00,1.11
9438.00,1.11
9437.00,1.11
9436.00,1.11
9435.00,1.12
9434.00,1.12
9433.00,1.12
9432.00,1.12
9431.00,1.12
9430.00,1.11
9429.00,1.11
9428.00,1.11
9427.00,1.11
9426.00,1.11
9425.00,1.11
9424.00,1.11
9423.00,1.11
9422.00,1.10
9421.00,1.10
9420.00,1.10
9419.00,1.10
9418.00,1.10
9417.00,1.10
9416.00,1.10
9415.00,1.10
9414.00,1.10
9413.00,1.10
9412.00,1.10
9411.00,1.10
9410.00,1.11
9409.00,1.11
9408.00,1.11
9407.00,1.11
9406.00,1.11
9405.00,1.11
9404.00,1.11
9403.00,1.11
9402.00,1.11
9401.00,1.11
9400.00,1.12
9399.00,1.12
9398.00,1.12
9397.00,1.12
9396.00,1.12
9395.00,1.12
9394.00,1.12
9393.00,1.12
9392.00,1.12
9391.00,1.12
9390.00,1.12
9389.00,1.12
9388.00,1.12
9387.00,1.12
9386.00,1.12
9385.00,1.12
9384.00,1.11
9383.00,1.11
9382.00,1.11
9381.00,1.11
9380.00,1.11
9379.00,1.11
9378.00,1.11
9377.00,1.11
9376.00,1.11
9375.00,1.11
9374.00,1.11
9373.00,1.10
9372.00,1.10
9371.00,1.10
9370.00,1.10
9369.00,1.10
9368.00,1.10
9367.00,1.10
9366.00,1.10
9365.00,1.10
9364.00,1.10
9363.00,1.10
9362.00,1.09
9361.00,1.09
9360.00,1.10
9359.00,1.10
9358.00,1.10
9357.00,1.10
9356.00,1.10
9355.00,1.10
9354.00,1.10
9353.00,1.10
9352.00,1.10
9351.00,1.10
9350.00,1.10
9349.00,1.10
9348.00,1.10
9347.00,1.10
9346.00,1.10
9345.00,1.10
9344.00,1.10
9343.00,1.10
9342.00,1.10
9341.00,1.10
9340.00,1.10
9339.00,1.10
9338.00,1.10
9337.00,1.11
9336.00,1.11
9335.00,1.11
9334.00,1.11
9333.00,1.12
9332.00,1.12
9331.00,1.12
9330.00,1.12
9329.00,1.13
9328.00,1.13
9327.00,1.13
9326.00,1.13
9325.00,1.13
9324.00,1.13
9323.00,1.13
9322.00,1.13
9321.00,1.13
9320.00,1.13
9319.00,1.13
9318.00,1.13
9317.00,1.13
9316.00,1.13
9315.00,1.13
9314.00,1.12
9313.00,1.12
9312.00,1.12
9311.00,1.12
9310.00,1.12
9309.00,1.12
9308.00,1.11
9307.00,1.11
9306.00,1.11
9305.00,1.11
9304.00,1.11
9303.00,1.11
9302.00,1.11
9301.00,1.11
9300.00,1.11
9299.00,1.11
9298.00,1.11
9297.00,1.11
9296.00,1.11
9295.00,1.11
9294.00,1.11
9293.00,1.11
9292.00,1.10
9291.00,1.10
9290.00,1.10
9289.00,1.10
9288.00,1.10
9287.00,1.09
9286.00,1.09
9285.00,1.09
9284.00,1.09
9283.00,1.09
9282.00,1.09
9281.00,1.09
9280.00,1.09
9279.00,1.09
9278.00,1.09
9277.00,1.09
9276.00,1.09
9275.00,1.09
9274.00,1.10
9273.00,1.10
9272.00,1.10
9271.00,1.10
9270.00,1.10
9269.00,1.10
9268.00,1.11
9267.00,1.11
9266.00,1.11
9265.00,1.11
9264.00,1.11
9263.00,1.11
9262.00,1.11
9261.00,1.11
9260.00,1.11
9259.00,1.11
9258.00,1.11
9257.00,1.11
9256.00,1.11
9255.00,1.11
9254.00,1.11
9253.00,1.11
9252.00,1.11
9251.00,1.11
9250.00,1.11
9249.00,1.11
9248.00,1.11
9247.00,1.12
9246.00,1.12
9245.00,1.12
9244.00,1.12
9243.00,1.12
9242.00,1.12
9241.00,1.12
9240.00,1.13
9239.00,1.13
9238.00,1.13
9237.00,1.13
9236.00,1.13
9235.00,1.13
9234.00,1.13
9233.00,1.14
9232.00,1.14
9231.00,1.14
9230.00,1.14
9229.00,1.14
9228.00,1.14
9227.00,1.14
9226.00,1.14
9225.00,1.14
9224.00,1.14
9223.00,1.14
9222.00,1.14
9221.00,1.14
9220.00,1.14
9219.00,1.14
9218.00,1.13
9217.00,1.13
9216.00,1.13
9215.00,1.13
9214.00,1.13
9213.00,1.13
9212.00,1.13
9211.00,1.13
9210.00,1.13
9209.00,1.13
9208.00,1.12
9207.00,1.12
9206.00,1.12
9205.00,1.12
9204.00,1.12
9203.00,1.12
9202.00,1.12
9201.00,1.12
9200.00,1.12
9199.00,1.12
9198.00,1.12
9197.00,1.12
9196.00,1.13
9195.00,1.13
9194.00,1.13
9193.00,1.13
9192.00,1.13
9191.00,1.13
9190.00,1.13
9189.00,1.13
9188.00,1.13
9187.00,1.13
9186.00,1.13
9185.00,1.13
9184.00,1.13
9183.00,1.13
9182.00,1.13
9181.00,1.13
9180.00,1.13
9179.00,1.13
9178.00,1.13
9177.00,1.13
9176.00,1.13
9175.00,1.13
9174.00,1.12
9173.00,1.12
9172.00,1.12
9171.00,1.12
9170.00,1.12
9169.00,1.12
9168.00,1.12
9167.00,1.12
9166.00,1.12
9165.00,1.12
9164.00,1.12
9163.00,1.12
9162.00,1.12
9161.00,1.12
9160.00,1.12
9159.00,1.12
9158.00,1.12
9157.00,1.12
9156.00,1.12
9155.00,1.12
9154.00,1.12
9153.00,1.12
9152.00,1.12
9151.00,1.12
9150.00,1.12
9149.00,1.12
9148.00,1.12
9147.00,1.12
9146.00,1.12
9145.00,1.12
9144.00,1.12
9143.00,1.12
9142.00,1.12
9141.00,1.12
9140.00,1.12
9139.00,1.12
9138.00,1.11
9137.00,1.11
9136.00,1.11
9135.00,1.11
9134.00,1.11
9133.00,1.11
9132.00,1.11
9131.00,1.11
9130.00,1.11
9129.00,1.11
9128.00,1.11
9127.00,1.11
9126.00,1.11
9125.00,1.11
9124.00,1.11
9123.00,1.11
9122.00,1.11
9121.00,1.11
9120.00,1.11
9119.00,1.11
9118.00,1.11
9117.00,1.11
9116.00,1.12
9115.00,1.12
9114.00,1.12
9113.00,1.12
9112.00,1.12
9111.00,1.12
9110.00,1.13
9109.00,1.13
9108.00,1.13
9107.00,1.13
9106.00,1.13
9105.00,1.13
9104.00,1.13
9103.00,1.13
9102.00,1.14
9101.00,1.14
9100.00,1.14
9099.00,1.14
9098.00,1.14
9097.00,1.14
9096.00,1.13
9095.00,1.13
9094.00,1.13
9093.00,1.13
9092.00,1.13
9091.00,1.13
9090.00,1.13
9089.00,1.13
9088.00,1.13
9087.00,1.13
9086.00,1.13
9085.00,1.13
9084.00,1.13
9083.00,1.13
9082.00,1.13
9081.00,1.13
9080.00,1.13
9079.00,1.13
9078.00,1.13
9077.00,1.13
9076.00,1.13
9075.00,1.13
9074.00,1.12
9073.00,1.12
9072.00,1.12
9071.00,1.12
9070.00,1.12
9069.00,1.12
9068.00,1.12
9067.00,1.12
9066.00,1.12
9065.00,1.12
9064.00,1.11
9063.00,1.11
9062.00,1.11
9061.00,1.11
9060.00,1.11
9059.00,1.11
9058.00,1.11
9057.00,1.11
9056.00,1.11
9055.00,1.11
9054.00,1.11
9053.00,1.12
9052.00,1.12
9051.00,1.12
9050.00,1.12
9049.00,1.12
9048.00,1.13
9047.00,1.13
9046.00,1.13
9045.00,1.13
9044.00,1.13
9043.00,1.13
9042.00,1.14
9041.00,1.14
9040.00,1.14
9039.00,1.14
9038.00,1.14
9037.00,1.14
9036.00,1.14
9035.00,1.14
9034.00,1.14
9033.00,1.14
9032.00,1.14
9031.00,1.14
9030.00,1.14
9029.00,1.14
9028.00,1.14
9027.00,1.14
9026.00,1.14
9025.00,1.14
9024.00,1.14
9023.00,1.14
9022.00,1.14
9021.00,1.14
9020.00,1.14
9019.00,1.14
9018.00,1.14
9017.00,1.14
9016.00,1.14
9015.00,1.14
9014.00,1.14
9013.00,1.14
9012.00,1.13
9011.00,1.13
9010.00,1.13
9009.00,1.13
9008.00,1.13
9007.00,1.13
9006.00,1.13
9005.00,1.12
9004.00,1.12
9003.00,1.12
9002.00,1.12
9001.00,1.12
9000.00,1.12
8999.00,1.12
8998.00,1.11
8997.00,1.11
8996.00,1.11
8995.00,1.11
8994.00,1.11
8993.00,1.11
8992.00,1.11
8991.00,1.11
8990.00,1.11
8989.00,1.11
8988.00,1.11
8987.00,1.11
8986.00,1.11
8985.00,1.11
8984.00,1.11
8983.00,1.11
8982.00,1.11
8981.00,1.11
8980.00,1.11
8979.00,1.11
8978.00,1.11
8977.00,1.11
8976.00,1.11
8975.00,1.11
8974.00,1.11
8973.00,1.11
8972.00,1.11
8971.00,1.11
8970.00,1.11
8969.00,1.11
8968.00,1.11
8967.00,1.11
8966.00,1.11
8965.00,1.11
8964.00,1.11
8963.00,1.12
8962.00,1.12
8961.00,1.12
8960.00,1.12
8959.00,1.12
8958.00,1.12
8957.00,1.12
8956.00,1.12
8955.00,1.13
8954.00,1.13
8953.00,1.13
8952.00,1.13
8951.00,1.13
8950.00,1.13
8949.00,1.13
8948.00,1.13
8947.00,1.13
8946.00,1.13
8945.00,1.13
8944.00,1.13
8943.00,1.13
8942.00,1.13
8941.00,1.13
8940.00,1.13
8939.00,1.12
8938.00,1.13
8937.00,1.13
8936.00,1.13
8935.00,1.13
8934.00,1.13
8933.00,1.13
8932.00,1.13
8931.00,1.13
8930.00,1.13
8929.00,1.13
8928.00,1.13
8927.00,1.13
8926.00,1.13
8925.00,1.13
8924.00,1.13
8923.00,1.13
8922.00,1.13
8921.00,1.13
8920.00,1.13
8919.00,1.13
8918.00,1.13
8917.00,1.13
8916.00,1.13
8915.00,1.13
8914.00,1.13
8913.00,1.13
8912.00,1.12
8911.00,1.12
8910.00,1.12
8909.00,1.12
8908.00,1.12
8907.00,1.12
8906.00,1.12
8905.00,1.12
8904.00,1.12
8903.00,1.12
8902.00,1.12
8901.00,1.12
8900.00,1.11
8899.00,1.11
8898.00,1.11
8897.00,1.11
8896.00,1.11
8895.00,1.11
8894.00,1.11
8893.00,1.11
8892.00,1.11
8891.00,1.11
8890.00,1.11
8889.00,1.11
8888.00,1.11
8887.00,1.11
8886.00,1.11
8885.00,1.11
8884.00,1.11
8883.00,1.11
8882.00,1.11
8881.00,1.11
8880.00,1.12
8879.00,1.12
8878.00,1.12
8877.00,1.12
8876.00,1.12
8875.00,1.12
8874.00,1.12
8873.00,1.12
8872.00,1.12
8871.00,1.12
8870.00,1.12
8869.00,1.12
8868.00,1.12
8867.00,1.12
8866.00,1.12
8865.00,1.12
8864.00,1.12
8863.00,1.12
8862.00,1.12
8861.00,1.12
8860.00,1.12
8859.00,1.12
8858.00,1.12
8857.00,1.12
8856.00,1.12
8855.00,1.12
8854.00,1.12
8853.00,1.12
8852.00,1.12
8851.00,1.12
8850.00,1.12
8849.00,1.12
8848.00,1.12
8847.00,1.12
8846.00,1.12
8845.00,1.12
8844.00,1.12
8843.00,1.12
8842.00,1.12
8841.00,1.12
8840.00,1.12
8839.00,1.12
8838.00,1.12
8837.00,1.12
8836.00,1.12
8835.00,1.12
8834.00,1.12
8833.00,1.12
8832.00,1.12
8831.00,1.12
8830.00,1.12
8829.00,1.11
8828.00,1.11
8827.00,1.11
8826.00,1.11
8825.00,1.11
8824.00,1.11
8823.00,1.11
8822.00,1.11
8821.00,1.11
8820.00,1.11
8819.00,1.11
8818.00,1.11
8817.00,1.11
8816.00,1.11
8815.00,1.11
8814.00,1.11
8813.00,1.11
8812.00,1.11
8811.00,1.11
8810.00,1.11
8809.00,1.11
8808.00,1.11
8807.00,1.11
8806.00,1.11
8805.00,1.11
8804.00,1.11
8803.00,1.11
8802.00,1.11
8801.00,1.11
8800.00,1.11
8799.00,1.11
8798.00,1.11
8797.00,1.11
8796.00,1.11
8795.00,1.11
8794.00,1.11
8793.00,1.11
8792.00,1.11
8791.00,1.11
8790.00,1.11
8789.00,1.11
8788.00,1.11
8787.00,1.10
8786.00,1.10
8785.00,1.10
8784.00,1.10
8783.00,1.10
8782.00,1.10
8781.00,1.10
8780.00,1.10
8779.00,1.09
8778.00,1.09
8777.00,1.09
8776.00,1.09
8775.00,1.09
8774.00,1.09
8773.00,1.09
8772.00,1.09
8771.00,1.09
8770.00,1.09
8769.00,1.09
8768.00,1.09
8767.00,1.09
8766.00,1.09
8765.00,1.09
8764.00,1.09
8763.00,1.09
8762.00,1.09
8761.00,1.09
8760.00,1.09
8759.00,1.09
8758.00,1.09
8757.00,1.08
8756.00,1.08
8755.00,1.08
8754.00,1.08
8753.00,1.08
8752.00,1.08
8751.00,1.08
8750.00,1.08
8749.00,1.08
8748.00,1.08
8747.00,1.08
8746.00,1.08
8745.00,1.08
8744.00,1.08
8743.00,1.08
8742.00,1.08
8741.00,1.07
8740.00,1.07
8739.00,1.07
8738.00,1.07
8737.00,1.07
8736.00,1.07
8735.00,1.07
8734.00,1.07
8733.00,1.07
8732.00,1.07
8731.00,1.07
8730.00,1.07
8729.00,1.07
8728.00,1.07
8727.00,1.07
8726.00,1.07
8725.00,1.07
8724.00,1.07
8723.00,1.07
8722.00,1.07
8721.00,1.08
8720.00,1.08
8719.00,1.08
8718.00,1.08
8717.00,1.08
8716.00,1.08
8715.00,1.08
8714.00,1.08
8713.00,1.08
8712.00,1.07
8711.00,1.07
8710.00,1.07
8709.00,1.07
8708.00,1.07
8707.00,1.07
8706.00,1.07
8705.00,1.07
8704.00,1.07
8703.00,1.07
8702.00,1.07
8701.00,1.07
8700.00,1.07
8699.00,1.07
8698.00,1.08
8697.00,1.08
8696.00,1.08
8695.00,1.08
8694.00,1.08
8693.00,1.08
8692.00,1.08
8691.00,1.08
8690.00,1.08
8689.00,1.08
8688.00,1.08
8687.00,1.08
8686.00,1.08
8685.00,1.08
8684.00,1.09
8683.00,1.09
8682.00,1.09
8681.00,1.09
8680.00,1.09
8679.00,1.09
8678.00,1.09
8677.00,1.09
8676.00,1.10
8675.00,1.10
8674.00,1.10
8673.00,1.10
8672.00,1.10
8671.00,1.10
8670.00,1.10
8669.00,1.10
8668.00,1.10
8667.00,1.10
8666.00,1.10
8665.00,1.09
8664.00,1.09
8663.00,1.09
8662.00,1.09
8661.00,1.09
8660.00,1.09
8659.00,1.09
8658.00,1.09
8657.00,1.09
8656.00,1.09
8655.00,1.09
8654.00,1.09
8653.00,1.08
8652.00,1.08
8651.00,1.08
8650.00,1.08
8649.00,1.08
8648.00,1.08
8647.00,1.08
8646.00,1.08
8645.00,1.08
8644.00,1.08
8643.00,1.08
8642.00,1.07
8641.00,1.07
8640.00,1.07
8639.00,1.07
8638.00,1.07
8637.00,1.07
8636.00,1.07
8635.00,1.07
8634.00,1.06
8633.00,1.06
8632.00,1.06
8631.00,1.06
8630.00,1.06
8629.00,1.06
8628.00,1.06
8627.00,1.06
8626.00,1.06
8625.00,1.06
8624.00,1.06
8623.00,1.06
8622.00,1.06
8621.00,1.06
8620.00,1.06
8619.00,1.06
8618.00,1.06
8617.00,1.06
8616.00,1.06
8615.00,1.06
8614.00,1.06
8613.00,1.06
8612.00,1.06
8611.00,1.06
8610.00,1.06
8609.00,1.06
8608.00,1.06
8607.00,1.06
8606.00,1.05
8605.00,1.05
8604.00,1.05
8603.00,1.05
8602.00,1.05
8601.00,1.05
8600.00,1.05
8599.00,1.05
8598.00,1.05
8597.00,1.05
8596.00,1.05
8595.00,1.05
8594.00,1.05
8593.00,1.05
8592.00,1.05
8591.00,1.05
8590.00,1.05
8589.00,1.05
8588.00,1.05
8587.00,1.05
8586.00,1.05
8585.00,1.05
8584.00,1.05
8583.00,1.05
8582.00,1.05
8581.00,1.05
8580.00,1.05
8579.00,1.04
8578.00,1.04
8577.00,1.04
8576.00,1.04
8575.00,1.04
8574.00,1.04
8573.00,1.04
8572.00,1.04
8571.00,1.04
8570.00,1.04
8569.00,1.04
8568.00,1.04
8567.00,1.04
8566.00,1.04
8565.00,1.04
8564.00,1.04
8563.00,1.04
8562.00,1.04
8561.00,1.04
8560.00,1.04
8559.00,1.04
8558.00,1.04
8557.00,1.04
8556.00,1.04
8555.00,1.04
8554.00,1.04
8553.00,1.04
8552.00,1.04
8551.00,1.04
8550.00,1.04
8549.00,1.03
8548.00,1.03
8547.00,1.03
8546.00,1.03
8545.00,1.03
8544.00,1.03
8543.00,1.03
8542.00,1.03
8541.00,1.03
8540.00,1.03
8539.00,1.03
8538.00,1.03
8537.00,1.03
8536.00,1.03
8535.00,1.03
8534.00,1.03
8533.00,1.03
8532.00,1.04
8531.00,1.04
8530.00,1.04
8529.00,1.04
8528.00,1.04
8527.00,1.04
8526.00,1.04
8525.00,1.04
8524.00,1.04
8523.00,1.04
8522.00,1.04
8521.00,1.04
8520.00,1.04
8519.00,1.04
8518.00,1.04
8517.00,1.03
8516.00,1.03
8515.00,1.03
8514.00,1.03
8513.00,1.03
8512.00,1.03
8511.00,1.03
8510.00,1.03
8509.00,1.03
8508.00,1.03
8507.00,1.02
8506.00,1.02
8505.00,1.02
8504.00,1.02
8503.00,1.02
8502.00,1.02
8501.00,1.02
8500.00,1.03
8499.00,1.03
8498.00,1.03
8497.00,1.03
8496.00,1.03
8495.00,1.03
8494.00,1.03
8493.00,1.03
8492.00,1.03
8491.00,1.03
8490.00,1.03
8489.00,1.03
8488.00,1.03
8487.00,1.03
8486.00,1.03
8485.00,1.02
8484.00,1.02
8483.00,1.02
8482.00,1.02
8481.00,1.02
8480.00,1.02
8479.00,1.02
8478.00,1.02
8477.00,1.01
8476.00,1.01
8475.00,1.01
8474.00,1.01
8473.00,1.01
8472.00,1.01
8471.00,1.01
8470.00,1.01
8469.00,1.01
8468.00,1.01
8467.00,1.01
8466.00,1.01
8465.00,1.00
8464.00,1.00
8463.00,1.00
8462.00,1.00
8461.00,1.00
8460.00,1.00
8459.00,1.00
8458.00,1.00
8457.00,1.00
8456.00,1.00
8455.00,1.00
8454.00,1.00
8453.00,1.00
8452.00,1.00
8451.00,1.00
8450.00,1.00
8449.00,1.00
8448.00,1.00
8447.00,1.00
8446.00,0.99
8445.00,0.99
8444.00,0.99
8443.00,0.99
8442.00,0.99
8441.00,0.99
8440.00,0.99
8439.00,0.99
8438.00,0.99
8437.00,0.99
8436.00,0.99
8435.00,0.99
8434.00,0.99
8433.00,0.99
8432.00,0.99
8431.00,1.00
8430.00,1.00
8429.00,1.00
8428.00,1.00
8427.00,1.00
8426.00,1.00
8425.00,1.00
8424.00,1.00
8423.00,1.00
8422.00,1.00
8421.00,1.00
8420.00,1.00
8419.00,1.00
8418.00,1.00
8417.00,1.00
8416.00,1.00
8415.00,1.01
8414.00,1.01
8413.00,1.01
8412.00,1.01
8411.00,1.01
8410.00,1.01
8409.00,1.01
8408.00,1.02
8407.00,1.02
8406.00,1.02
8405.00,1.02
8404.00,1.02
8403.00,1.02
8402.00,1.02
8401.00,1.02
8400.00,1.02
8399.00,1.02
8398.00,1.02
8397.00,1.02
8396.00,1.02
8395.00,1.02
8394.00,1.01
8393.00,1.01
8392.00,1.01
8391.00,1.01
8390.00,1.01
8389.00,1.01
8388.00,1.01
8387.00,1.01
8386.00,1.01
8385.00,1.01
8384.00,1.01
8383.00,1.01
8382.00,1.01
8381.00,1.01
8380.00,1.01
8379.00,1.01
8378.00,1.01
8377.00,1.01
8376.00,1.01
8375.00,1.01
8374.00,1.01
8373.00,1.01
8372.00,1.01
8371.00,1.01
8370.00,1.01
8369.00,1.01
8368.00,1.01
8367.00,1.01
8366.00,1.01
8365.00,1.01
8364.00,1.01
8363.00,1.01
8362.00,1.01
8361.00,1.01
8360.00,1.01
8359.00,1.01
8358.00,1.01
8357.00,1.01
8356.00,1.02
8355.00,1.02
8354.00,1.02
8353.00,1.02
8352.00,1.02
8351.00,1.02
8350.00,1.02
8349.00,1.02
8348.00,1.02
8347.00,1.02
8346.00,1.03
8345.00,1.03
8344.00,1.03
8343.00,1.03
8342.00,1.03
8341.00,1.03
8340.00,1.03
8339.00,1.03
8338.00,1.03
8337.00,1.03
8336.00,1.03
8335.00,1.03
8334.00,1.03
8333.00,1.03
8332.00,1.03
8331.00,1.03
8330.00,1.03
8329.00,1.03
8328.00,1.03
8327.00,1.03
8326.00,1.03
8325.00,1.03
8324.00,1.03
8323.00,1.03
8322.00,1.03
8321.00,1.03
8320.00,1.03
8319.00,1.03
8318.00,1.03
8317.00,1.03
8316.00,1.03
8315.00,1.03
8314.00,1.03
8313.00,1.03
8312.00,1.03
8311.00,1.03
8310.00,1.03
8309.00,1.04
8308.00,1.04
8307.00,1.04
8306.00,1.04
8305.00,1.04
8304.00,1.04
8303.00,1.04
8302.00,1.04
8301.00,1.04
8300.00,1.04
8299.00,1.04
8298.00,1.04
8297.00,1.04
8296.00,1.04
8295.00,1.04
8294.00,1.04
8293.00,1.04
8292.00,1.04
8291.00,1.04
8290.00,1.04
8289.00,1.04
8288.00,1.04
8287.00,1.04
8286.00,1.04
8285.00,1.04
8284.00,1.04
8283.00,1.04
8282.00,1.04
8281.00,1.04
8280.00,1.04
8279.00,1.04
8278.00,1.04
8277.00,1.04
8276.00,1.04
8275.00,1.04
8274.00,1.04
8273.00,1.04
8272.00,1.04
8271.00,1.04
8270.00,1.04
8269.00,1.04
8268.00,1.04
8267.00,1.04
8266.00,1.04
8265.00,1.04
8264.00,1.04
8263.00,1.04
8262.00,1.04
8261.00,1.04
8260.00,1.05
8259.00,1.05
8258.00,1.05
8257.00,1.05
8256.00,1.05
8255.00,1.05
8254.00,1.05
8253.00,1.05
8252.00,1.05
8251.00,1.05
8250.00,1.05
8249.00,1.05
8248.00,1.05
8247.00,1.05
8246.00,1.05
8245.00,1.05
8244.00,1.05
8243.00,1.05
8242.00,1.05
8241.00,1.05
8240.00,1.05
8239.00,1.05
8238.00,1.04
8237.00,1.04
8236.00,1.04
8235.00,1.04
8234.00,1.04
8233.00,1.04
8232.00,1.04
8231.00,1.04
8230.00,1.04
8229.00,1.04
8228.00,1.04
8227.00,1.04
8226.00,1.04
8225.00,1.05
8224.00,1.05
8223.00,1.05
8222.00,1.05
8221.00,1.05
8220.00,1.05
8219.00,1.05
8218.00,1.05
8217.00,1.05
8216.00,1.05
8215.00,1.05
8214.00,1.05
8213.00,1.05
8212.00,1.05
8211.00,1.05
8210.00,1.05
8209.00,1.05
8208.00,1.05
8207.00,1.06
8206.00,1.06
8205.00,1.06
8204.00,1.06
8203.00,1.06
8202.00,1.06
8201.00,1.06
8200.00,1.06
8199.00,1.06
8198.00,1.06
8197.00,1.06
8196.00,1.06
8195.00,1.06
8194.00,1.06
8193.00,1.06
8192.00,1.06
8191.00,1.06
8190.00,1.06
8189.00,1.06
8188.00,1.06
8187.00,1.06
8186.00,1.06
8185.00,1.06
8184.00,1.06
8183.00,1.06
8182.00,1.06
8181.00,1.06
8180.00,1.06
8179.00,1.06
8178.00,1.06
8177.00,1.06
8176.00,1.06
8175.00,1.06
8174.00,1.06
8173.00,1.07
8172.00,1.07
8171.00,1.07
8170.00,1.07
8169.00,1.07
8168.00,1.07
8167.00,1.07
8166.00,1.08
8165.00,1.08
8164.00,1.08
8163.00,1.08
8162.00,1.08
8161.00,1.08
8160.00,1.08
8159.00,1.08
8158.00,1.08
8157.00,1.08
8156.00,1.08
8155.00,1.08
8154.00,1.08
8153.00,1.08
8152.00,1.08
8151.00,1.08
8150.00,1.08
8149.00,1.08
8148.00,1.08
8147.00,1.08
8146.00,1.08
8145.00,1.08
8144.00,1.08
8143.00,1.08
8142.00,1.08
8141.00,1.08
8140.00,1.08
8139.00,1.08
8138.00,1.08
8137.00,1.08
8136.00,1.08
8135.00,1.08
8134.00,1.08
8133.00,1.08
8132.00,1.08
8131.00,1.08
8130.00,1.08
8129.00,1.08
8128.00,1.08
8127.00,1.08
8126.00,1.08
8125.00,1.07
8124.00,1.07
8123.00,1.07
8122.00,1.07
8121.00,1.07
8120.00,1.07
8119.00,1.07
8118.00,1.07
8117.00,1.07
8116.00,1.07
8115.00,1.07
8114.00,1.07
8113.00,1.07
8112.00,1.07
8111.00,1.07
8110.00,1.08
8109.00,1.08
8108.00,1.08
8107.00,1.08
8106.00,1.08
8105.00,1.08
8104.00,1.08
8103.00,1.08
8102.00,1.08
8101.00,1.08
8100.00,1.08
8099.00,1.08
8098.00,1.08
8097.00,1.08
8096.00,1.08
8095.00,1.08
8094.00,1.08
8093.00,1.08
8092.00,1.08
8091.00,1.08
8090.00,1.08
8089.00,1.08
8088.00,1.08
8087.00,1.08
8086.00,1.08
8085.00,1.08
8084.00,1.08
8083.00,1.08
8082.00,1.08
8081.00,1.08
8080.00,1.08
8079.00,1.09
8078.00,1.09
8077.00,1.09
8076.00,1.09
8075.00,1.09
8074.00,1.09
8073.00,1.09
8072.00,1.09
8071.00,1.09
8070.00,1.09
8069.00,1.09
8068.00,1.09
8067.00,1.09
8066.00,1.09
8065.00,1.09
8064.00,1.09
8063.00,1.09
8062.00,1.10
8061.00,1.10
8060.00,1.10
8059.00,1.10
8058.00,1.10
8057.00,1.10
8056.00,1.10
8055.00,1.10
8054.00,1.10
8053.00,1.10
8052.00,1.10
8051.00,1.11
8050.00,1.11
8049.00,1.11
8048.00,1.11
8047.00,1.11
8046.00,1.11
8045.00,1.11
8044.00,1.11
8043.00,1.10
8042.00,1.10
8041.00,1.10
8040.00,1.10
8039.00,1.10
8038.00,1.10
8037.00,1.10
8036.00,1.10
8035.00,1.10
8034.00,1.10
8033.00,1.10
8032.00,1.10
8031.00,1.10
8030.00,1.09
8029.00,1.09
8028.00,1.09
8027.00,1.09
8026.00,1.09
8025.00,1.09
8024.00,1.09
8023.00,1.09
8022.00,1.09
8021.00,1.09
8020.00,1.09
8019.00,1.09
8018.00,1.09
8017.00,1.09
8016.00,1.09
8015.00,1.09
8014.00,1.09
8013.00,1.09
8012.00,1.09
8011.00,1.09
8010.00,1.09
8009.00,1.09
8008.00,1.09
8007.00,1.09
8006.00,1.09
8005.00,1.09
8004.00,1.10
8003.00,1.10
8002.00,1.10
8001.00,1.10
8000.00,1.10
7999.00,1.10
7998.00,1.10
7997.00,1.10
7996.00,1.10
7995.00,1.10
7994.00,1.10
7993.00,1.11
7992.00,1.11
7991.00,1.11
7990.00,1.11
7989.00,1.11
7988.00,1.11
7987.00,1.11
7986.00,1.11
7985.00,1.10
7984.00,1.10
7983.00,1.10
7982.00,1.10
7981.00,1.10
7980.00,1.10
7979.00,1.10
7978.00,1.10
7977.00,1.10
7976.00,1.10
7975.00,1.10
7974.00,1.10
7973.00,1.10
7972.00,1.10
7971.00,1.10
7970.00,1.10
7969.00,1.10
7968.00,1.10
7967.00,1.10
7966.00,1.10
7965.00,1.10
7964.00,1.10
7963.00,1.10
7962.00,1.10
7961.00,1.10
7960.00,1.10
7959.00,1.10
7958.00,1.10
7957.00,1.10
7956.00,1.11
7955.00,1.11
7954.00,1.11
7953.00,1.11
7952.00,1.11
7951.00,1.11
7950.00,1.11
7949.00,1.11
7948.00,1.11
7947.00,1.11
7946.00,1.11
7945.00,1.11
7944.00,1.11
7943.00,1.11
7942.00,1.11
7941.00,1.11
7940.00,1.11
7939.00,1.10
7938.00,1.10
7937.00,1.10
7936.00,1.10
7935.00,1.10
7934.00,1.10
7933.00,1.10
7932.00,1.10
7931.00,1.10
7930.00,1.10
7929.00,1.10
7928.00,1.10
7927.00,1.10
7926.00,1.10
7925.00,1.10
7924.00,1.10
7923.00,1.10
7922.00,1.11
7921.00,1.11
7920.00,1.11
7919.00,1.11
7918.00,1.11
7917.00,1.11
7916.00,1.11
7915.00,1.11
7914.00,1.11
7913.00,1.11
7912.00,1.11
7911.00,1.11
7910.00,1.11
7909.00,1.11
7908.00,1.11
7907.00,1.11
7906.00,1.12
7905.00,1.12
7904.00,1.12
7903.00,1.12
7902.00,1.12
7901.00,1.12
7900.00,1.12
7899.00,1.12
7898.00,1.12
7897.00,1.12
7896.00,1.12
7895.00,1.12
7894.00,1.12
7893.00,1.12
7892.00,1.12
7891.00,1.12
7890.00,1.12
7889.00,1.12
7888.00,1.12
7887.00,1.12
7886.00,1.11
7885.00,1.11
7884.00,1.11
7883.00,1.11
7882.00,1.11
7881.00,1.11
7880.00,1.11
7879.00,1.11
7878.00,1.11
7877.00,1.11
7876.00,1.11
7875.00,1.11
7874.00,1.11
7873.00,1.11
7872.00,1.11
7871.00,1.11
7870.00,1.11
7869.00,1.11
7868.00,1.11
7867.00,1.11
7866.00,1.11
7865.00,1.11
7864.00,1.11
7863.00,1.11
7862.00,1.12
7861.00,1.12
7860.00,1.12
7859.00,1.12
7858.00,1.12
7857.00,1.12
7856.00,1.12
7855.00,1.12
7854.00,1.12
7853.00,1.12
7852.00,1.12
7851.00,1.12
7850.00,1.12
7849.00,1.12
7848.00,1.12
7847.00,1.12
7846.00,1.12
7845.00,1.12
7844.00,1.12
7843.00,1.12
7842.00,1.12
7841.00,1.12
7840.00,1.12
7839.00,1.12
7838.00,1.11
7837.00,1.11
7836.00,1.11
7835.00,1.11
7834.00,1.11
7833.00,1.11
7832.00,1.11
7831.00,1.11
7830.00,1.11
7829.00,1.11
7828.00,1.11
7827.00,1.12
7826.00,1.12
7825.00,1.12
7824.00,1.12
7823.00,1.12
7822.00,1.12
7821.00,1.12
7820.00,1.12
7819.00,1.12
7818.00,1.13
7817.00,1.13
7816.00,1.13
7815.00,1.13
7814.00,1.13
7813.00,1.13
7812.00,1.13
7811.00,1.13
7810.00,1.13
7809.00,1.13
7808.00,1.13
7807.00,1.13
7806.00,1.13
7805.00,1.13
7804.00,1.13
7803.00,1.13
7802.00,1.13
7801.00,1.13
7800.00,1.13
7799.00,1.13
7798.00,1.13
7797.00,1.13
7796.00,1.13
7795.00,1.13
7794.00,1.13
7793.00,1.13
7792.00,1.13
7791.00,1.13
7790.00,1.13
7789.00,1.13
7788.00,1.13
7787.00,1.13
7786.00,1.13
7785.00,1.13
7784.00,1.13
7783.00,1.13
7782.00,1.13
7781.00,1.13
7780.00,1.13
7779.00,1.13
7778.00,1.13
7777.00,1.13
7776.00,1.13
7775.00,1.13
7774.00,1.13
7773.00,1.13
7772.00,1.13
7771.00,1.13
7770.00,1.13
7769.00,1.13
7768.00,1.13
7767.00,1.13
7766.00,1.13
7765.00,1.13
7764.00,1.13
7763.00,1.13
7762.00,1.13
7761.00,1.13
7760.00,1.13
7759.00,1.13
7758.00,1.13
7757.00,1.13
7756.00,1.13
7755.00,1.13
7754.00,1.13
7753.00,1.13
7752.00,1.13
7751.00,1.13
7750.00,1.13
7749.00,1.13
7748.00,1.13
7747.00,1.13
7746.00,1.13
7745.00,1.13
7744.00,1.13
7743.00,1.13
7742.00,1.13
7741.00,1.13
7740.00,1.13
7739.00,1.13
7738.00,1.13
7737.00,1.13
7736.00,1.13
7735.00,1.13
7734.00,1.13
7733.00,1.14
7732.00,1.14
7731.00,1.14
7730.00,1.14
7729.00,1.14
7728.00,1.14
7727.00,1.14
7726.00,1.14
7725.00,1.14
7724.00,1.14
7723.00,1.14
7722.00,1.14
7721.00,1.13
7720.00,1.13
7719.00,1.13
7718.00,1.13
7717.00,1.13
7716.00,1.13
7715.00,1.13
7714.00,1.13
7713.00,1.13
7712.00,1.13
7711.00,1.13
7710.00,1.13
7709.00,1.13
7708.00,1.13
7707.00,1.13
7706.00,1.13
7705.00,1.13
7704.00,1.13
7703.00,1.13
7702.00,1.13
7701.00,1.13
7700.00,1.13
7699.00,1.13
7698.00,1.13
7697.00,1.13
7696.00,1.13
7695.00,1.13
7694.00,1.13
7693.00,1.13
7692.00,1.13
7691.00,1.13
7690.00,1.12
7689.00,1.12
7688.00,1.12
7687.00,1.12
7686.00,1.12
7685.00,1.12
7684.00,1.12
7683.00,1.12
7682.00,1.12
7681.00,1.12
7680.00,1.12
7679.00,1.12
7678.00,1.12
7677.00,1.12
7676.00,1.12
7675.00,1.12
7674.00,1.12
7673.00,1.12
7672.00,1.12
7671.00,1.13
7670.00,1.13
7669.00,1.13
7668.00,1.13
7667.00,1.13
7666.00,1.13
7665.00,1.13
7664.00,1.13
7663.00,1.13
7662.00,1.13
7661.00,1.13
7660.00,1.13
7659.00,1.13
7658.00,1.13
7657.00,1.13
7656.00,1.14
7655.00,1.14
7654.00,1.14
7653.00,1.14
7652.00,1.14
7651.00,1.14
7650.00,1.14
7649.00,1.14
7648.00,1.14
7647.00,1.14
7646.00,1.14
7645.00,1.14
7644.00,1.14
7643.00,1.14
7642.00,1.14
7641.00,1.14
7640.00,1.14
7639.00,1.13
7638.00,1.13
7637.00,1.13
7636.00,1.13
7635.00,1.13
7634.00,1.13
7633.00,1.13
7632.00,1.13
7631.00,1.13
7630.00,1.13
7629.00,1.13
7628.00,1.13
7627.00,1.13
7626.00,1.13
7625.00,1.13
7624.00,1.13
7623.00,1.13
7622.00,1.13
7621.00,1.13
7620.00,1.13
7619.00,1.13
7618.00,1.12
7617.00,1.12
7616.00,1.12
7615.00,1.12
7614.00,1.12
7613.00,1.12
7612.00,1.12
7611.00,1.12
7610.00,1.12
7609.00,1.12
7608.00,1.12
7607.00,1.12
7606.00,1.12
7605.00,1.12
7604.00,1.12
7603.00,1.12
7602.00,1.12
7601.00,1.12
7600.00,1.12
7599.00,1.12
7598.00,1.12
7597.00,1.12
7596.00,1.12
7595.00,1.12
7594.00,1.12
7593.00,1.12
7592.00,1.13
7591.00,1.13
7590.00,1.13
7589.00,1.13
7588.00,1.13
7587.00,1.13
7586.00,1.13
7585.00,1.13
7584.00,1.13
7583.00,1.13
7582.00,1.13
7581.00,1.13
7580.00,1.13
7579.00,1.13
7578.00,1.13
7577.00,1.13
7576.00,1.13
7575.00,1.13
7574.00,1.13
7573.00,1.13
7572.00,1.13
7571.00,1.13
7570.00,1.13
7569.00,1.13
7568.00,1.13
7567.00,1.13
7566.00,1.13
7565.00,1.13
7564.00,1.13
7563.00,1.12
7562.00,1.12
7561.00,1.12
7560.00,1.12
7559.00,1.12
7558.00,1.12
7557.00,1.12
7556.00,1.12
7555.00,1.12
7554.00,1.12
7553.00,1.12
7552.00,1.12
7551.00,1.12
7550.00,1.12
7549.00,1.12
7548.00,1.12
7547.00,1.12
7546.00,1.12
7545.00,1.12
7544.00,1.12
7543.00,1.12
7542.00,1.12
7541.00,1.12
7540.00,1.12
7539.00,1.12
7538.00,1.12
7537.00,1.12
7536.00,1.12
7535.00,1.12
7534.00,1.12
7533.00,1.12
7532.00,1.12
7531.00,1.12
7530.00,1.11
7529.00,1.11
7528.00,1.11
7527.00,1.11
7526.00,1.11
7525.00,1.11
7524.00,1.11
7523.00,1.11
7522.00,1.11
7521.00,1.11
7520.00,1.11
7519.00,1.11
7518.00,1.11
7517.00,1.11
7516.00,1.11
7515.00,1.11
7514.00,1.11
7513.00,1.11
7512.00,1.11
7511.00,1.11
7510.00,1.11
7509.00,1.11
7508.00,1.11
7507.00,1.11
7506.00,1.11
7505.00,1.11
7504.00,1.11
7503.00,1.11
7502.00,1.11
7501.00,1.11
7500.00,1.11
7499.00,1.11
7498.00,1.10
7497.00,1.10
7496.00,1.10
7495.00,1.10
7494.00,1.10
7493.00,1.10
7492.00,1.10
7491.00,1.10
7490.00,1.10
7489.00,1.11
7488.00,1.11
7487.00,1.11
7486.00,1.11
7485.00,1.11
7484.00,1.11
7483.00,1.11
7482.00,1.11
7481.00,1.11
7480.00,1.11
7479.00,1.11
7478.00,1.11
7477.00,1.11
7476.00,1.11
7475.00,1.10
7474.00,1.10
7473.00,1.10
7472.00,1.10
7471.00,1.10
7470.00,1.10
7469.00,1.10
7468.00,1.10
7467.00,1.10
7466.00,1.10
7465.00,1.10
7464.00,1.10
7463.00,1.10
7462.00,1.10
7461.00,1.10
7460.00,1.10
7459.00,1.10
7458.00,1.10
7457.00,1.10
7456.00,1.10
7455.00,1.10
7454.00,1.10
7453.00,1.10
7452.00,1.10
7451.00,1.10
7450.00,1.09
7449.00,1.09
7448.00,1.09
7447.00,1.09
7446.00,1.09
7445.00,1.09
7444.00,1.09
7443.00,1.09
7442.00,1.09
7441.00,1.09
7440.00,1.09
7439.00,1.09
7438.00,1.09
7437.00,1.09
7436.00,1.09
7435.00,1.09
7434.00,1.09
7433.00,1.09
7432.00,1.08
7431.00,1.08
7430.00,1.08
7429.00,1.08
7428.00,1.08
7427.00,1.08
7426.00,1.08
7425.00,1.08
7424.00,1.08
7423.00,1.08
7422.00,1.08
7421.00,1.08
7420.00,1.08
7419.00,1.08
7418.00,1.08
7417.00,1.08
7416.00,1.08
7415.00,1.08
7414.00,1.08
7413.00,1.08
7412.00,1.08
7411.00,1.08
7410.00,1.08
7409.00,1.08
7408.00,1.08
7407.00,1.08
7406.00,1.08
7405.00,1.08
7404.00,1.08
7403.00,1.08
7402.00,1.08
7401.00,1.08
7400.00,1.08
7399.00,1.07
7398.00,1.07
7397.00,1.07
7396.00,1.07
7395.00,1.07
7394.00,1.07
7393.00,1.07
7392.00,1.07
7391.00,1.06
7390.00,1.06
7389.00,1.06
7388.00,1.06
7387.00,1.06
7386.00,1.06
7385.00,1.06
7384.00,1.06
7383.00,1.05
7382.00,1.05
7381.00,1.05
7380.00,1.05
7379.00,1.05
7378.00,1.05
7377.00,1.05
7376.00,1.05
7375.00,1.05
7374.00,1.05
7373.00,1.05
7372.00,1.04
7371.00,1.04
7370.00,1.04
7369.00,1.04
7368.00,1.04
7367.00,1.04
7366.00,1.04
7365.00,1.04
7364.00,1.04
7363.00,1.04
7362.00,1.04
7361.00,1.04
7360.00,1.04
7359.00,1.04
7358.00,1.04
7357.00,1.04
7356.00,1.04
7355.00,1.04
7354.00,1.04
7353.00,1.04
7352.00,1.04
7351.00,1.04
7350.00,1.03
7349.00,1.03
7348.00,1.03
7347.00,1.03
7346.00,1.03
7345.00,1.03
7344.00,1.03
7343.00,1.03
7342.00,1.03
7341.00,1.03
7340.00,1.03
7339.00,1.03
7338.00,1.03
7337.00,1.03
7336.00,1.03
7335.00,1.03
7334.00,1.03
7333.00,1.03
7332.00,1.03
7331.00,1.03
7330.00,1.03
7329.00,1.03
7328.00,1.03
7327.00,1.03
7326.00,1.03
7325.00,1.02
7324.00,1.02
7323.00,1.02
7322.00,1.02
7321.00,1.02
7320.00,1.02
7319.00,1.02
7318.00,1.02
7317.00,1.02
7316.00,1.03
7315.00,1.03
7314.00,1.03
7313.00,1.03
7312.00,1.03
7311.00,1.03
7310.00,1.03
7309.00,1.03
7308.00,1.03
7307.00,1.03
7306.00,1.03
7305.00,1.02
7304.00,1.02
7303.00,1.02
7302.00,1.02
7301.00,1.02
7300.00,1.02
7299.00,1.02
7298.00,1.02
7297.00,1.02
7296.00,1.01
7295.00,1.01
7294.00,1.01
7293.00,1.01
7292.00,1.01
7291.00,1.01
7290.00,1.01
7289.00,1.01
7288.00,1.01
7287.00,1.00
7286.00,1.00
7285.00,1.00
7284.00,1.00
7283.00,1.00
7282.00,1.00
7281.00,1.00
7280.00,1.00
7279.00,1.00
7278.00,1.00
7277.00,1.00
7276.00,1.00
7275.00,1.00
7274.00,1.00
7273.00,1.00
7272.00,1.00
7271.00,0.99
7270.00,0.99
7269.00,0.99
7268.00,0.99
7267.00,0.99
7266.00,0.99
7265.00,0.99
7264.00,0.99
7263.00,0.99
7262.00,0.99
7261.00,0.99
7260.00,0.99
7259.00,0.99
7258.00,0.99
7257.00,0.99
7256.00,0.99
7255.00,0.98
7254.00,0.98
7253.00,0.98
7252.00,0.98
7251.00,0.98
7250.00,0.98
7249.00,0.97
7248.00,0.97
7247.00,0.97
7246.00,0.97
7245.00,0.97
7244.00,0.96
7243.00,0.96
7242.00,0.96
7241.00,0.96
7240.00,0.95
7239.00,0.95
7238.00,0.95
7237.00,0.95
7236.00,0.94
7235.00,0.94
7234.00,0.94
7233.00,0.93
7232.00,0.93
7231.00,0.93
7230.00,0.92
7229.00,0.92
7228.00,0.92
7227.00,0.92
7226.00,0.91
7225.00,0.91
7224.00,0.91
7223.00,0.91
7222.00,0.90
7221.00,0.90
7220.00,0.90
7219.00,0.90
7218.00,0.90
7217.00,0.89
7216.00,0.89
7215.00,0.89
7214.00,0.89
7213.00,0.88
7212.00,0.88
7211.00,0.88
7210.00,0.88
7209.00,0.88
7208.00,0.87
7207.00,0.87
7206.00,0.87
7205.00,0.87
7204.00,0.86
7203.00,0.86
7202.00,0.86
7201.00,0.86
7200.00,0.85
7199.00,0.85
7198.00,0.85
7197.00,0.85
7196.00,0.84
7195.00,0.84
7194.00,0.84
7193.00,0.84
7192.00,0.83
7191.00,0.83
7190.00,0.83
7189.00,0.83
7188.00,0.83
7187.00,0.82
7186.00,0.82
7185.00,0.82
7184.00,0.82
7183.00,0.82
7182.00,0.82
7181.00,0.82
7180.00,0.81
7179.00,0.81
7178.00,0.81
7177.00,0.81
7176.00,0.81
7175.00,0.80
7174.00,0.80
7173.00,0.80
7172.00,0.80
7171.00,0.79
7170.00,0.79
7169.00,0.79
7168.00,0.78
7167.00,0.78
7166.00,0.78
7165.00,0.78
7164.00,0.77
7163.00,0.77
7162.00,0.77
7161.00,0.77
7160.00,0.77
7159.00,0.76
7158.00,0.76
7157.00,0.76
7156.00,0.76
7155.00,0.76
7154.00,0.76
7153.00,0.76
7152.00,0.76
7151.00,0.76
7150.00,0.76
7149.00,0.76
7148.00,0.75
7147.00,0.75
7146.00,0.75
7145.00,0.75
7144.00,0.75
7143.00,0.75
7142.00,0.75
7141.00,0.74
7140.00,0.74
7139.00,0.74
7138.00,0.74
7137.00,0.74
7136.00,0.73
7135.00,0.73
7134.00,0.73
7133.00,0.73
7132.00,0.72
7131.00,0.72
7130.00,0.72
7129.00,0.72
7128.00,0.71
7127.00,0.71
7126.00,0.71
7125.00,0.71
7124.00,0.71
7123.00,0.70
7122.00,0.70
7121.00,0.70
7120.00,0.70
7119.00,0.69
7118.00,0.69
7117.00,0.69
7116.00,0.69
7115.00,0.69
7114.00,0.68
7113.00,0.68
7112.00,0.68
7111.00,0.68
7110.00,0.67
7109.00,0.67
7108.00,0.67
7107.00,0.67
7106.00,0.67
7105.00,0.66
7104.00,0.66
7103.00,0.66
7102.00,0.66
7101.00,0.66
7100.00,0.65
7099.00,0.65
7098.00,0.65
7097.00,0.65
7096.00,0.65
7095.00,0.65
7094.00,0.64
7093.00,0.64
7092.00,0.64
7091.00,0.64
7090.00,0.64
7089.00,0.64
7088.00,0.63
7087.00,0.63
7086.00,0.63
7085.00,0.63
7084.00,0.63
7083.00,0.63
7082.00,0.62
7081.00,0.62
7080.00,0.62
7079.00,0.62
7078.00,0.62
7077.00,0.62
7076.00,0.62
7075.00,0.62
7074.00,0.62
7073.00,0.61
7072.00,0.61
7071.00,0.61
7070.00,0.61
7069.00,0.61
7068.00,0.61
7067.00,0.61
7066.00,0.61
7065.00,0.61
7064.00,0.61
7063.00,0.60
7062.00,0.60
7061.00,0.60
7060.00,0.60
7059.00,0.60
7058.00,0.60
7057.00,0.59
7056.00,0.59
7055.00,0.59
7054.00,0.59
7053.00,0.59
7052.00,0.59
7051.00,0.59
7050.00,0.58
7049.00,0.58
7048.00,0.58
7047.00,0.58
7046.00,0.58
7045.00,0.58
7044.00,0.58
7043.00,0.58
7042.00,0.58
7041.00,0.58
7040.00,0.57
7039.00,0.57
7038.00,0.57
7037.00,0.57
7036.00,0.57
7035.00,0.57
7034.00,0.57
7033.00,0.57
7032.00,0.56
7031.00,0.56
7030.00,0.56
7029.00,0.56
7028.00,0.56
7027.00,0.56
7026.00,0.56
7025.00,0.56
7024.00,0.56
7023.00,0.56
7022.00,0.56
7021.00,0.55
7020.00,0.55
7019.00,0.55
7018.00,0.55
7017.00,0.55
7016.00,0.55
7015.00,0.55
7014.00,0.55
7013.00,0.55
7012.00,0.55
7011.00,0.55
7010.00,0.55
7009.00,0.55
7008.00,0.55
7007.00,0.55
7006.00,0.55
7005.00,0.55
7004.00,0.55
7003.00,0.55
7002.00,0.55
7001.00,0.54
7000.00,0.54
6999.00,0.54
6998.00,0.54
6997.00,0.54
6996.00,0.54
6995.00,0.54
6994.00,0.54
6993.00,0.54
6992.00,0.54
6991.00,0.54
6990.00,0.54
6989.00,0.54
6988.00,0.54
6987.00,0.54
6986.00,0.53
6985.00,0.53
6984.00,0.53
6983.00,0.53
6982.00,0.53
6981.00,0.53
6980.00,0.53
6979.00,0.53
6978.00,0.53
6977.00,0.53
6976.00,0.53
6975.00,0.53
6974.00,0.53
6973.00,0.53
6972.00,0.53
6971.00,0.53
6970.00,0.53
6969.00,0.53
6968.00,0.53
6967.00,0.53
6966.00,0.53
6965.00,0.53
6964.00,0.53
6963.00,0.53
6962.00,0.53
6961.00,0.53
6960.00,0.53
6959.00,0.53
6958.00,0.53
6957.00,0.53
6956.00,0.53
6955.00,0.53
6954.00,0.53
6953.00,0.53
6952.00,0.53
6951.00,0.53
6950.00,0.53
6949.00,0.53
6948.00,0.53
6947.00,0.52
6946.00,0.52
6945.00,0.52
6944.00,0.52
6943.00,0.52
6942.00,0.52
6941.00,0.52
6940.00,0.52
6939.00,0.52
6938.00,0.52
6937.00,0.52
6936.00,0.52
6935.00,0.52
6934.00,0.52
6933.00,0.52
6932.00,0.52
6931.00,0.52
6930.00,0.52
6929.00,0.52
6928.00,0.52
6927.00,0.52
6926.00,0.52
6925.00,0.52
6924.00,0.52
6923.00,0.52
6922.00,0.52
6921.00,0.52
6920.00,0.52
6919.00,0.52
6918.00,0.52
6917.00,0.52
6916.00,0.52
6915.00,0.52
6914.00,0.52
6913.00,0.52
6912.00,0.52
6911.00,0.52
6910.00,0.52
6909.00,0.51
6908.00,0.51
6907.00,0.51
6906.00,0.51
6905.00,0.51
6904.00,0.51
6903.00,0.51
6902.00,0.51
6901.00,0.51
6900.00,0.51
6899.00,0.51
6898.00,0.51
6897.00,0.51
6896.00,0.51
6895.00,0.51
6894.00,0.51
6893.00,0.51
6892.00,0.51
6891.00,0.51
6890.00,0.51
6889.00,0.51
6888.00,0.51
6887.00,0.51
6886.00,0.51
6885.00,0.51
6884.00,0.51
6883.00,0.51
6882.00,0.51
6881.00,0.51
6880.00,0.51
6879.00,0.51
6878.00,0.51
6877.00,0.51
6876.00,0.51
6875.00,0.51
6874.00,0.51
6873.00,0.51
6872.00,0.51
6871.00,0.51
6870.00,0.51
6869.00,0.51
6868.00,0.51
6867.00,0.51
6866.00,0.51
6865.00,0.51
6864.00,0.51
6863.00,0.51
6862.00,0.51
6861.00,0.51
6860.00,0.51
6859.00,0.51
6858.00,0.51
6857.00,0.51
6856.00,0.51
6855.00,0.51
6854.00,0.51
6853.00,0.51
6852.00,0.51
6851.00,0.51
6850.00,0.51
6849.00,0.51
6848.00,0.51
6847.00,0.51
6846.00,0.51
6845.00,0.51
6844.00,0.51
6843.00,0.51
6842.00,0.51
6841.00,0.51
6840.00,0.51
6839.00,0.51
6838.00,0.51
6837.00,0.51
6836.00,0.51
6835.00,0.51
6834.00,0.51
6833.00,0.51
6832.00,0.51
6831.00,0.51
6830.00,0.51
6829.00,0.51
6828.00,0.51
6827.00,0.51
6826.00,0.51
6825.00,0.51
6824.00,0.51
6823.00,0.51
6822.00,0.51
6821.00,0.51
6820.00,0.51
6819.00,0.51
6818.00,0.51
6817.00,0.51
6816.00,0.51
6815.00,0.51
6814.00,0.51
6813.00,0.51
6812.00,0.51
6811.00,0.51
6810.00,0.51
6809.00,0.52
6808.00,0.52
6807.00,0.52
6806.00,0.52
6805.00,0.52
6804.00,0.52
6803.00,0.52
6802.00,0.52
6801.00,0.52
6800.00,0.52
6799.00,0.52
6798.00,0.52
6797.00,0.52
6796.00,0.52
6795.00,0.52
6794.00,0.53
6793.00,0.53
6792.00,0.53
6791.00,0.53
6790.00,0.53
6789.00,0.53
6788.00,0.53
6787.00,0.53
6786.00,0.53
6785.00,0.53
6784.00,0.53
6783.00,0.53
6782.00,0.53
6781.00,0.53
6780.00,0.53
6779.00,0.53
6778.00,0.53
6777.00,0.53
6776.00,0.53
6775.00,0.53
6774.00,0.53
6773.00,0.53
6772.00,0.53
6771.00,0.53
6770.00,0.53
6769.00,0.54
6768.00,0.54
6767.00,0.54
6766.00,0.54
6765.00,0.54
6764.00,0.54
6763.00,0.54
6762.00,0.54
6761.00,0.54
6760.00,0.54
6759.00,0.54
6758.00,0.54
6757.00,0.54
6756.00,0.54
6755.00,0.54
6754.00,0.54
6753.00,0.54
6752.00,0.54
6751.00,0.54
6750.00,0.54
6749.00,0.54
6748.00,0.54
6747.00,0.54
6746.00,0.54
6745.00,0.54
6744.00,0.54
6743.00,0.54
6742.00,0.54
6741.00,0.54
6740.00,0.54
6739.00,0.54
6738.00,0.54
6737.00,0.54
6736.00,0.54
6735.00,0.54
6734.00,0.54
6733.00,0.54
6732.00,0.55
6731.00,0.55
6730.00,0.55
6729.00,0.55
6728.00,0.55
6727.00,0.55
6726.00,0.55
6725.00,0.55
6724.00,0.55
6723.00,0.55
6722.00,0.55
6721.00,0.56
6720.00,0.56
6719.00,0.56
6718.00,0.56
6717.00,0.56
6716.00,0.56
6715.00,0.56
6714.00,0.56
6713.00,0.56
6712.00,0.56
6711.00,0.56
6710.00,0.56
6709.00,0.56
6708.00,0.57
6707.00,0.57
6706.00,0.57
6705.00,0.57
6704.00,0.57
6703.00,0.57
6702.00,0.57
6701.00,0.57
6700.00,0.57
6699.00,0.57
6698.00,0.57
6697.00,0.57
6696.00,0.57
6695.00,0.57
6694.00,0.57
6693.00,0.57
6692.00,0.57
6691.00,0.58
6690.00,0.58
6689.00,0.58
6688.00,0.58
6687.00,0.58
6686.00,0.58
6685.00,0.58
6684.00,0.58
6683.00,0.58
6682.00,0.58
6681.00,0.58
6680.00,0.58
6679.00,0.58
6678.00,0.58
6677.00,0.59
6676.00,0.59
6675.00,0.59
6674.00,0.59
6673.00,0.59
6672.00,0.59
6671.00,0.59
6670.00,0.59
6669.00,0.59
6668.00,0.59
6667.00,0.59
6666.00,0.59
6665.00,0.59
6664.00,0.60
6663.00,0.60
6662.00,0.60
6661.00,0.60
6660.00,0.60
6659.00,0.60
6658.00,0.60
6657.00,0.60
6656.00,0.60
6655.00,0.60
6654.00,0.60
6653.00,0.60
6652.00,0.60
6651.00,0.60
6650.00,0.60
6649.00,0.60
6648.00,0.60
6647.00,0.60
6646.00,0.60
6645.00,0.60
6644.00,0.60
6643.00,0.60
6642.00,0.61
6641.00,0.61
6640.00,0.61
6639.00,0.61
6638.00,0.61
6637.00,0.61
6636.00,0.61
6635.00,0.61
6634.00,0.61
6633.00,0.62
6632.00,0.62
6631.00,0.62
6630.00,0.62
6629.00,0.62
6628.00,0.62
6627.00,0.62
6626.00,0.62
6625.00,0.62
6624.00,0.62
6623.00,0.63
6622.00,0.63
6621.00,0.63
6620.00,0.63
6619.00,0.63
6618.00,0.63
6617.00,0.63
6616.00,0.63
6615.00,0.63
6614.00,0.63
6613.00,0.63
6612.00,0.63
6611.00,0.63
6610.00,0.63
6609.00,0.63
6608.00,0.63
6607.00,0.63
6606.00,0.63
6605.00,0.63
6604.00,0.64
6603.00,0.64
6602.00,0.64
6601.00,0.64
6600.00,0.64
6599.00,0.64
6598.00,0.64
6597.00,0.64
6596.00,0.64
6595.00,0.64
6594.00,0.64
6593.00,0.64
6592.00,0.64
6591.00,0.65
6590.00,0.65
6589.00,0.65
6588.00,0.65
6587.00,0.65
6586.00,0.65
6585.00,0.65
6584.00,0.65
6583.00,0.65
6582.00,0.65
6581.00,0.65
6580.00,0.65
6579.00,0.65
6578.00,0.65
6577.00,0.65
6576.00,0.65
6575.00,0.66
6574.00,0.66
6573.00,0.66
6572.00,0.66
6571.00,0.66
6570.00,0.66
6569.00,0.66
6568.00,0.66
6567.00,0.66
6566.00,0.66
6565.00,0.66
6564.00,0.66
6563.00,0.66
6562.00,0.66
6561.00,0.66
6560.00,0.67
6559.00,0.67
6558.00,0.67
6557.00,0.67
6556.00,0.67
6555.00,0.67
6554.00,0.67
6553.00,0.67
6552.00,0.67
6551.00,0.67
6550.00,0.67
6549.00,0.67
6548.00,0.67
6547.00,0.67
6546.00,0.67
6545.00,0.68
6544.00,0.68
6543.00,0.68
6542.00,0.68
6541.00,0.68
6540.00,0.68
6539.00,0.68
6538.00,0.68
6537.00,0.68
6536.00,0.68
6535.00,0.68
6534.00,0.68
6533.00,0.68
6532.00,0.68
6531.00,0.68
6530.00,0.68
6529.00,0.68
6528.00,0.68
6527.00,0.68
6526.00,0.69
6525.00,0.69
6524.00,0.69
6523.00,0.69
6522.00,0.69
6521.00,0.69
6520.00,0.69
6519.00,0.69
6518.00,0.69
6517.00,0.69
6516.00,0.69
6515.00,0.69
6514.00,0.69
6513.00,0.69
6512.00,0.70
6511.00,0.70
6510.00,0.70
6509.00,0.70
6508.00,0.70
6507.00,0.70
6506.00,0.70
6505.00,0.70
6504.00,0.70
6503.00,0.70
6502.00,0.70
6501.00,0.71
6500.00,0.71
6499.00,0.71
6498.00,0.71
6497.00,0.71
6496.00,0.71
6495.00,0.71
6494.00,0.71
6493.00,0.71
6492.00,0.71
6491.00,0.71
6490.00,0.71
6489.00,0.71
6488.00,0.71
6487.00,0.71
6486.00,0.71
6485.00,0.71
6484.00,0.71
6483.00,0.71
6482.00,0.72
6481.00,0.72
6480.00,0.72
6479.00,0.72
6478.00,0.72
6477.00,0.72
6476.00,0.72
6475.00,0.72
6474.00,0.72
6473.00,0.72
6472.00,0.72
6471.00,0.72
6470.00,0.72
6469.00,0.72
6468.00,0.72
6467.00,0.72
6466.00,0.72
6465.00,0.72
6464.00,0.72
6463.00,0.72
6462.00,0.72
6461.00,0.72
6460.00,0.73
6459.00,0.73
6458.00,0.73
6457.00,0.73
6456.00,0.73
6455.00,0.73
6454.00,0.73
6453.00,0.73
6452.00,0.73
6451.00,0.73
6450.00,0.73
6449.00,0.73
6448.00,0.73
6447.00,0.73
6446.00,0.73
6445.00,0.73
6444.00,0.73
6443.00,0.73
6442.00,0.74
6441.00,0.74
6440.00,0.74
6439.00,0.74
6438.00,0.74
6437.00,0.74
6436.00,0.74
6435.00,0.74
6434.00,0.74
6433.00,0.74
6432.00,0.74
6431.00,0.74
6430.00,0.74
6429.00,0.74
6428.00,0.74
6427.00,0.74
6426.00,0.74
6425.00,0.74
6424.00,0.74
6423.00,0.74
6422.00,0.74
6421.00,0.74
6420.00,0.74
6419.00,0.74
6418.00,0.74
6417.00,0.74
6416.00,0.74
6415.00,0.74
6414.00,0.74
6413.00,0.74
6412.00,0.74
6411.00,0.74
6410.00,0.74
6409.00,0.74
6408.00,0.74
6407.00,0.74
6406.00,0.74
6405.00,0.75
6404.00,0.75
6403.00,0.75
6402.00,0.75
6401.00,0.75
6400.00,0.75
6399.00,0.75
6398.00,0.75
6397.00,0.75
6396.00,0.75
6395.00,0.75
6394.00,0.75
6393.00,0.75
6392.00,0.75
6391.00,0.76
6390.00,0.76
6389.00,0.76
6388.00,0.76
6387.00,0.76
6386.00,0.76
6385.00,0.76
6384.00,0.76
6383.00,0.76
6382.00,0.76
6381.00,0.76
6380.00,0.76
6379.00,0.76
6378.00,0.76
6377.00,0.76
6376.00,0.76
6375.00,0.76
6374.00,0.76
6373.00,0.76
6372.00,0.76
6371.00,0.76
6370.00,0.76
6369.00,0.76
6368.00,0.76
6367.00,0.76
6366.00,0.76
6365.00,0.76
6364.00,0.77
6363.00,0.77
6362.00,0.77
6361.00,0.77
6360.00,0.77
6359.00,0.77
6358.00,0.77
6357.00,0.77
6356.00,0.77
6355.00,0.77
6354.00,0.77
6353.00,0.77
6352.00,0.77
6351.00,0.78
6350.00,0.78
6349.00,0.78
6348.00,0.78
6347.00,0.78
6346.00,0.78
6345.00,0.78
6344.00,0.78
6343.00,0.78
6342.00,0.78
6341.00,0.78
6340.00,0.78
6339.00,0.78
6338.00,0.78
6337.00,0.78
6336.00,0.78
6335.00,0.78
6334.00,0.78
6333.00,0.78
6332.00,0.78
6331.00,0.78
6330.00,0.78
6329.00,0.78
6328.00,0.78
6327.00,0.78
6326.00,0.79
6325.00,0.79
6324.00,0.79
6323.00,0.79
6322.00,0.79
6321.00,0.79
6320.00,0.79
6319.00,0.79
6318.00,0.79
6317.00,0.79
6316.00,0.79
6315.00,0.79
6314.00,0.79
6313.00,0.79
6312.00,0.79
6311.00,0.80
6310.00,0.80
6309.00,0.80
6308.00,0.80
6307.00,0.80
6306.00,0.80
6305.00,0.80
6304.00,0.80
6303.00,0.80
6302.00,0.80
6301.00,0.80
6300.00,0.80
6299.00,0.80
6298.00,0.81
6297.00,0.81
6296.00,0.81
6295.00,0.81
6294.00,0.81
6293.00,0.81
6292.00,0.81
6291.00,0.81
6290.00,0.81
6289.00,0.82
6288.00,0.82
6287.00,0.82
6286.00,0.82
6285.00,0.82
6284.00,0.82
6283.00,0.82
6282.00,0.82
6281.00,0.82
6280.00,0.82
6279.00,0.82
6278.00,0.83
6277.00,0.83
6276.00,0.83
6275.00,0.83
6274.00,0.83
6273.00,0.83
6272.00,0.83
6271.00,0.83
6270.00,0.83
6269.00,0.84
6268.00,0.84
6267.00,0.84
6266.00,0.84
6265.00,0.84
6264.00,0.84
6263.00,0.84
6262.00,0.84
6261.00,0.84
6260.00,0.84
6259.00,0.85
6258.00,0.85
6257.00,0.85
6256.00,0.85
6255.00,0.85
6254.00,0.85
6253.00,0.85
6252.00,0.85
6251.00,0.85
6250.00,0.86
6249.00,0.86
6248.00,0.86
6247.00,0.86
6246.00,0.86
6245.00,0.86
6244.00,0.86
6243.00,0.86
6242.00,0.86
6241.00,0.86
6240.00,0.86
6239.00,0.86
6238.00,0.87
6237.00,0.87
6236.00,0.87
6235.00,0.87
6234.00,0.87
6233.00,0.87
6232.00,0.87
6231.00,0.87
6230.00,0.87
6229.00,0.87
6228.00,0.87
6227.00,0.87
6226.00,0.87
6225.00,0.87
6224.00,0.87
6223.00,0.87
6222.00,0.87
6221.00,0.87
6220.00,0.87
6219.00,0.87
6218.00,0.87
6217.00,0.87
6216.00,0.88
6215.00,0.88
6214.00,0.88
6213.00,0.88
6212.00,0.88
6211.00,0.88
6210.00,0.88
6209.00,0.88
6208.00,0.88
6207.00,0.88
6206.00,0.89
6205.00,0.89
6204.00,0.89
6203.00,0.89
6202.00,0.89
6201.00,0.89
6200.00,0.89
6199.00,0.89
6198.00,0.90
6197.00,0.90
6196.00,0.90
6195.00,0.90
6194.00,0.90
6193.00,0.90
6192.00,0.90
6191.00,0.90
6190.00,0.90
6189.00,0.90
6188.00,0.91
6187.00,0.91
6186.00,0.91
6185.00,0.91
6184.00,0.91
6183.00,0.91
6182.00,0.91
6181.00,0.91
6180.00,0.92
6179.00,0.92
6178.00,0.92
6177.00,0.92
6176.00,0.92
6175.00,0.92
6174.00,0.92
6173.00,0.93
6172.00,0.93
6171.00,0.93
6170.00,0.93
6169.00,0.93
6168.00,0.93
6167.00,0.93
6166.00,0.93
6165.00,0.93
6164.00,0.93
6163.00,0.94
6162.00,0.94
6161.00,0.94
6160.00,0.94
6159.00,0.94
6158.00,0.94
6157.00,0.94
6156.00,0.94
6155.00,0.94
6154.00,0.94
6153.00,0.94
6152.00,0.95
6151.00,0.95
6150.00,0.95
6149.00,0.95
6148.00,0.95
6147.00,0.95
6146.00,0.95
6145.00,0.95
6144.00,0.95
6143.00,0.95
6142.00,0.95
6141.00,0.96
6140.00,0.96
6139.00,0.96
6138.00,0.96
6137.00,0.96
6136.00,0.96
6135.00,0.96
6134.00,0.96
6133.00,0.96
6132.00,0.97
6131.00,0.97
6130.00,0.97
6129.00,0.97
6128.00,0.97
6127.00,0.97
6126.00,0.97
6125.00,0.97
6124.00,0.98
6123.00,0.98
6122.00,0.98
6121.00,0.98
6120.00,0.98
6119.00,0.98
6118.00,0.98
6117.00,0.98
6116.00,0.99
6115.00,0.99
6114.00,0.99
6113.00,0.99
6112.00,0.99
6111.00,0.99
6110.00,0.99
6109.00,1.00
6108.00,1.00
6107.00,1.00
6106.00,1.00
6105.00,1.00
6104.00,1.00
6103.00,1.00
6102.00,1.00
6101.00,1.00
6100.00,1.01
6099.00,1.01
6098.00,1.01
6097.00,1.01
6096.00,1.01
6095.00,1.01
6094.00,1.01
6093.00,1.01
6092.00,1.02
6091.00,1.02
6090.00,1.02
6089.00,1.02
6088.00,1.02
6087.00,1.02
6086.00,1.02
6085.00,1.02
6084.00,1.02
6083.00,1.02
6082.00,1.03
6081.00,1.03
6080.00,1.03
6079.00,1.03
6078.00,1.03
6077.00,1.03
6076.00,1.03
6075.00,1.03
6074.00,1.03
6073.00,1.03
6072.00,1.03
6071.00,1.03
6070.00,1.03
6069.00,1.03
6068.00,1.03
6067.00,1.03
6066.00,1.04
6065.00,1.04
6064.00,1.04
6063.00,1.04
6062.00,1.04
6061.00,1.04
6060.00,1.04
6059.00,1.04
6058.00,1.04
6057.00,1.04
6056.00,1.04
6055.00,1.05
6054.00,1.05
6053.00,1.05
6052.00,1.05
6051.00,1.05
6050.00,1.05
6049.00,1.05
6048.00,1.05
6047.00,1.05
6046.00,1.05
6045.00,1.05
6044.00,1.05
6043.00,1.05
6042.00,1.05
6041.00,1.05
6040.00,1.05
6039.00,1.05
6038.00,1.05
6037.00,1.05
6036.00,1.05
6035.00,1.05
6034.00,1.05
6033.00,1.05
6032.00,1.05
6031.00,1.05
6030.00,1.05
6029.00,1.06
6028.00,1.06
6027.00,1.06
6026.00,1.06
6025.00,1.06
6024.00,1.06
6023.00,1.06
6022.00,1.06
6021.00,1.06
6020.00,1.06
6019.00,1.06
6018.00,1.06
6017.00,1.06
6016.00,1.06
6015.00,1.06
6014.00,1.06
6013.00,1.06
6012.00,1.06
6011.00,1.06
6010.00,1.06
6009.00,1.06
6008.00,1.06
6007.00,1.06
6006.00,1.06
6005.00,1.06
6004.00,1.06
6003.00,1.06
6002.00,1.06
6001.00,1.06
6000.00,1.06
5999.00,1.06
5998.00,1.06
5997.00,1.06
5996.00,1.06
5995.00,1.06
5994.00,1.06
5993.00,1.06
5992.00,1.06
5991.00,1.05
5990.00,1.05
5989.00,1.05
5988.00,1.05
5987.00,1.05
5986.00,1.04
5985.00,1.04
5984.00,1.04
5983.00,1.04
5982.00,1.03
5981.00,1.03
5980.00,1.03
5979.00,1.02
5978.00,1.02
5977.00,1.02
5976.00,1.01
5975.00,1.01
5974.00,1.01
5973.00,1.00
5972.00,1.00
5971.00,1.00
5970.00,0.99
5969.00,0.99
5968.00,0.98
5967.00,0.98
5966.00,0.97
5965.00,0.97
5964.00,0.96
5963.00,0.96
5962.00,0.95
5961.00,0.95
5960.00,0.94
5959.00,0.94
5958.00,0.93
5957.00,0.93
5956.00,0.92
5955.00,0.92
5954.00,0.91
5953.00,0.91
5952.00,0.90
5951.00,0.90
5950.00,0.90
5949.00,0.89
5948.00,0.89
5947.00,0.88
5946.00,0.88
5945.00,0.88
5944.00,0.88
5943.00,0.87
5942.00,0.87
5941.00,0.87
5940.00,0.87
5939.00,0.87
5938.00,0.87
5937.00,0.87
5936.00,0.87
5935.00,0.87
5934.00,0.86
5933.00,0.86
5932.00,0.86
5931.00,0.86
5930.00,0.86
5929.00,0.86
5928.00,0.86
5927.00,0.86
5926.00,0.86
5925.00,0.85
5924.00,0.85
5923.00,0.85
5922.00,0.85
5921.00,0.85
5920.00,0.84
5919.00,0.84
5918.00,0.84
5917.00,0.84
5916.00,0.84
5915.00,0.83
5914.00,0.83
5913.00,0.83
5912.00,0.83
5911.00,0.83
5910.00,0.83
5909.00,0.82
5908.00,0.82
5907.00,0.82
5906.00,0.82
5905.00,0.82
5904.00,0.82
5903.00,0.82
5902.00,0.82
5901.00,0.82
5900.00,0.82
5899.00,0.82
5898.00,0.82
5897.00,0.82
5896.00,0.82
5895.00,0.82
5894.00,0.83
5893.00,0.83
5892.00,0.83
5891.00,0.83
5890.00,0.83
5889.00,0.83
5888.00,0.84
5887.00,0.84
5886.00,0.84
5885.00,0.84
5884.00,0.84
5883.00,0.85
5882.00,0.85
5881.00,0.85
5880.00,0.85
5879.00,0.85
5878.00,0.86
5877.00,0.86
5876.00,0.86
5875.00,0.86
5874.00,0.86
5873.00,0.87
5872.00,0.87
5871.00,0.87
5870.00,0.87
5869.00,0.87
5868.00,0.88
5867.00,0.88
5866.00,0.88
5865.00,0.88
5864.00,0.88
5863.00,0.88
5862.00,0.88
5861.00,0.89
5860.00,0.89
5859.00,0.89
5858.00,0.89
5857.00,0.89
5856.00,0.89
5855.00,0.89
5854.00,0.89
5853.00,0.89
5852.00,0.89
5851.00,0.89
5850.00,0.89
5849.00,0.89
5848.00,0.89
5847.00,0.89
5846.00,0.90
5845.00,0.90
5844.00,0.90
5843.00,0.90
5842.00,0.90
5841.00,0.90
5840.00,0.90
5839.00,0.90
5838.00,0.89
5837.00,0.89
5836.00,0.89
5835.00,0.89
5834.00,0.89
5833.00,0.89
5832.00,0.89
5831.00,0.89
5830.00,0.89
5829.00,0.89
5828.00,0.89
5827.00,0.89
5826.00,0.89
5825.00,0.89
5824.00,0.89
5823.00,0.89
5822.00,0.89
5821.00,0.89
5820.00,0.89
5819.00,0.89
5818.00,0.89
5817.00,0.89
5816.00,0.89
5815.00,0.89
5814.00,0.89
5813.00,0.89
5812.00,0.89
5811.00,0.89
5810.00,0.89
5809.00,0.89
5808.00,0.89
5807.00,0.89
5806.00,0.89
5805.00,0.89
5804.00,0.89
5803.00,0.89
5802.00,0.89
5801.00,0.89
5800.00,0.89
5799.00,0.89
5798.00,0.89
5797.00,0.88
5796.00,0.88
5795.00,0.88
5794.00,0.88
5793.00,0.88
5792.00,0.88
5791.00,0.88
5790.00,0.88
5789.00,0.87
5788.00,0.87
5787.00,0.87
5786.00,0.87
5785.00,0.87
5784.00,0.87
5783.00,0.87
5782.00,0.87
5781.00,0.87
5780.00,0.87
5779.00,0.86
5778.00,0.86
5777.00,0.86
5776.00,0.86
5775.00,0.86
5774.00,0.86
5773.00,0.86
5772.00,0.86
5771.00,0.86
5770.00,0.86
5769.00,0.86
5768.00,0.86
5767.00,0.86
5766.00,0.87
5765.00,0.87
5764.00,0.87
5763.00,0.87
5762.00,0.87
5761.00,0.87
5760.00,0.87
5759.00,0.88
5758.00,0.88
5757.00,0.88
5756.00,0.88
5755.00,0.88
5754.00,0.89
5753.00,0.89
5752.00,0.89
5751.00,0.90
5750.00,0.90
5749.00,0.90
5748.00,0.90
5747.00,0.91
5746.00,0.91
5745.00,0.91
5744.00,0.91
5743.00,0.92
5742.00,0.92
5741.00,0.92
5740.00,0.92
5739.00,0.92
5738.00,0.93
5737.00,0.93
5736.00,0.93
5735.00,0.93
5734.00,0.93
5733.00,0.93
5732.00,0.94
5731.00,0.94
5730.00,0.94
5729.00,0.94
5728.00,0.94
5727.00,0.94
5726.00,0.94
5725.00,0.94
5724.00,0.94
5723.00,0.94
5722.00,0.94
5721.00,0.94
5720.00,0.95
5719.00,0.95
5718.00,0.95
5717.00,0.95
5716.00,0.95
5715.00,0.95
5714.00,0.95
5713.00,0.95
5712.00,0.95
5711.00,0.95
5710.00,0.95
5709.00,0.95
5708.00,0.95
5707.00,0.95
5706.00,0.95
5705.00,0.95
5704.00,0.95
5703.00,0.95
5702.00,0.94
5701.00,0.94
5700.00,0.94
5699.00,0.94
5698.00,0.94
5697.00,0.94
5696.00,0.94
5695.00,0.94
5694.00,0.94
5693.00,0.93
5692.00,0.93
5691.00,0.93
5690.00,0.93
5689.00,0.93
5688.00,0.93
5687.00,0.93
5686.00,0.93
5685.00,0.92
5684.00,0.92
5683.00,0.92
5682.00,0.92
5681.00,0.92
5680.00,0.92
5679.00,0.92
5678.00,0.92
5677.00,0.92
5676.00,0.92
5675.00,0.92
5674.00,0.92
5673.00,0.92
5672.00,0.92
5671.00,0.92
5670.00,0.92
5669.00,0.92
5668.00,0.92
5667.00,0.92
5666.00,0.92
5665.00,0.92
5664.00,0.92
5663.00,0.92
5662.00,0.92
5661.00,0.92
5660.00,0.93
5659.00,0.93
5658.00,0.93
5657.00,0.93
5656.00,0.93
5655.00,0.93
5654.00,0.93
5653.00,0.94
5652.00,0.94
5651.00,0.94
5650.00,0.94
5649.00,0.94
5648.00,0.94
5647.00,0.95
5646.00,0.95
5645.00,0.95
5644.00,0.95
5643.00,0.95
5642.00,0.95
5641.00,0.95
5640.00,0.96
5639.00,0.96
5638.00,0.96
5637.00,0.96
5636.00,0.96
5635.00,0.96
5634.00,0.96
5633.00,0.97
5632.00,0.97
5631.00,0.97
5630.00,0.97
5629.00,0.97
5628.00,0.97
5627.00,0.97
5626.00,0.97
5625.00,0.98
5624.00,0.98
5623.00,0.98
5622.00,0.98
5621.00,0.98
5620.00,0.98
5619.00,0.98
5618.00,0.98
5617.00,0.99
5616.00,0.99
5615.00,0.99
5614.00,0.99
5613.00,0.99
5612.00,0.99
5611.00,0.99
5610.00,1.00
5609.00,1.00
5608.00,1.00
5607.00,1.00
5606.00,1.00
5605.00,1.00
5604.00,1.00
5603.00,1.01
5602.00,1.01
5601.00,1.01
5600.00,1.01
5599.00,1.01
5598.00,1.01
5597.00,1.01
5596.00,1.02
5595.00,1.02
5594.00,1.02
5593.00,1.02
5592.00,1.02
5591.00,1.02
5590.00,1.02
5589.00,1.02
5588.00,1.02
5587.00,1.03
5586.00,1.03
5585.00,1.03
5584.00,1.03
5583.00,1.03
5582.00,1.03
5581.00,1.03
5580.00,1.03
5579.00,1.03
5578.00,1.03
5577.00,1.04
5576.00,1.04
5575.00,1.04
5574.00,1.04
5573.00,1.04
5572.00,1.04
5571.00,1.04
5570.00,1.04
5569.00,1.04
5568.00,1.04
5567.00,1.04
5566.00,1.04
5565.00,1.05
5564.00,1.05
5563.00,1.05
5562.00,1.05
5561.00,1.05
5560.00,1.05
5559.00,1.05
5558.00,1.05
5557.00,1.05
5556.00,1.05
5555.00,1.05
5554.00,1.05
5553.00,1.05
5552.00,1.06
5551.00,1.06
5550.00,1.06
5549.00,1.06
5548.00,1.06
5547.00,1.06
5546.00,1.06
5545.00,1.06
5544.00,1.06
5543.00,1.07
5542.00,1.07
5541.00,1.07
5540.00,1.07
5539.00,1.07
5538.00,1.07
5537.00,1.07
5536.00,1.07
5535.00,1.08
5534.00,1.08
5533.00,1.08
5532.00,1.08
5531.00,1.08
5530.00,1.08
5529.00,1.08
5528.00,1.08
5527.00,1.08
5526.00,1.08
5525.00,1.08
5524.00,1.08
5523.00,1.08
5522.00,1.08
5521.00,1.08
5520.00,1.08
5519.00,1.08
5518.00,1.08
5517.00,1.08
5516.00,1.08
5515.00,1.09
5514.00,1.09
5513.00,1.09
5512.00,1.09
5511.00,1.09
5510.00,1.09
5509.00,1.09
5508.00,1.09
5507.00,1.09
5506.00,1.09
5505.00,1.09
5504.00,1.09
5503.00,1.09
5502.00,1.09
5501.00,1.09
5500.00,1.09
5499.00,1.09
5498.00,1.09
5497.00,1.09
5496.00,1.09
5495.00,1.09
5494.00,1.09
5493.00,1.09
5492.00,1.09
5491.00,1.10
5490.00,1.10
5489.00,1.10
5488.00,1.10
5487.00,1.10
5486.00,1.10
5485.00,1.10
5484.00,1.10
5483.00,1.10
5482.00,1.10
5481.00,1.10
5480.00,1.11
5479.00,1.11
5478.00,1.11
5477.00,1.11
5476.00,1.11
5475.00,1.11
5474.00,1.11
5473.00,1.11
5472.00,1.11
5471.00,1.12
5470.00,1.12
5469.00,1.12
5468.00,1.12
5467.00,1.12
5466.00,1.12
5465.00,1.12
5464.00,1.12
5463.00,1.12
5462.00,1.12
5461.00,1.12
5460.00,1.13
5459.00,1.13
5458.00,1.13
5457.00,1.13
5456.00,1.13
5455.00,1.13
5454.00,1.13
5453.00,1.13
5452.00,1.13
5451.00,1.13
5450.00,1.13
5449.00,1.13
5448.00,1.13
5447.00,1.13
5446.00,1.13
5445.00,1.13
5444.00,1.13
5443.00,1.13
5442.00,1.13
5441.00,1.13
5440.00,1.13
5439.00,1.13
5438.00,1.13
5437.00,1.13
5436.00,1.13
5435.00,1.13
5434.00,1.13
5433.00,1.13
5432.00,1.13
5431.00,1.13
5430.00,1.13
5429.00,1.13
5428.00,1.14
5427.00,1.14
5426.00,1.14
5425.00,1.14
5424.00,1.14
5423.00,1.14
5422.00,1.14
5421.00,1.14
5420.00,1.14
5419.00,1.14
5418.00,1.14
5417.00,1.14
5416.00,1.14
5415.00,1.14
5414.00,1.14
5413.00,1.14
5412.00,1.14
5411.00,1.14
5410.00,1.14
5409.00,1.14
5408.00,1.14
5407.00,1.14
5406.00,1.14
5405.00,1.14
5404.00,1.14
5403.00,1.14
5402.00,1.14
5401.00,1.14
5400.00,1.14
5399.00,1.14
5398.00,1.14
5397.00,1.13
5396.00,1.13
5395.00,1.13
5394.00,1.13
5393.00,1.13
5392.00,1.13
5391.00,1.13
5390.00,1.13
5389.00,1.13
5388.00,1.12
5387.00,1.12
5386.00,1.12
5385.00,1.12
5384.00,1.12
5383.00,1.12
5382.00,1.11
5381.00,1.11
5380.00,1.11
5379.00,1.11
5378.00,1.11
5377.00,1.10
5376.00,1.10
5375.00,1.10
5374.00,1.10
5373.00,1.09
5372.00,1.09
5371.00,1.09
5370.00,1.08
5369.00,1.08
5368.00,1.08
5367.00,1.07
5366.00,1.07
5365.00,1.07
5364.00,1.06
5363.00,1.06
5362.00,1.05
5361.00,1.05
5360.00,1.05
5359.00,1.04
5358.00,1.04
5357.00,1.03
5356.00,1.02
5355.00,1.02
5354.00,1.01
5353.00,1.01
5352.00,1.00
5351.00,0.99
5350.00,0.99
5349.00,0.98
5348.00,0.97
5347.00,0.97
5346.00,0.96
5345.00,0.95
5344.00,0.94
5343.00,0.94
5342.00,0.93
5341.00,0.92
5340.00,0.91
5339.00,0.91
5338.00,0.90
5337.00,0.89
5336.00,0.88
5335.00,0.88
5334.00,0.87
5333.00,0.86
5332.00,0.85
5331.00,0.85
5330.00,0.84
5329.00,0.83
5328.00,0.82
5327.00,0.82
5326.00,0.81
5325.00,0.80
5324.00,0.80
5323.00,0.79
5322.00,0.78
5321.00,0.77
5320.00,0.77
5319.00,0.76
5318.00,0.75
5317.00,0.74
5316.00,0.74
5315.00,0.73
5314.00,0.72
5313.00,0.71
5312.00,0.71
5311.00,0.70
5310.00,0.69
5309.00,0.69
5308.00,0.68
5307.00,0.68
5306.00,0.67
5305.00,0.67
5304.00,0.66
5303.00,0.66
5302.00,0.65
5301.00,0.65
5300.00,0.64
5299.00,0.64
5298.00,0.64
5297.00,0.63
5296.00,0.63
5295.00,0.63
5294.00,0.62
5293.00,0.62
5292.00,0.62
5291.00,0.61
5290.00,0.61
5289.00,0.61
5288.00,0.61
5287.00,0.60
5286.00,0.60
5285.00,0.60
5284.00,0.60
5283.00,0.60
5282.00,0.60
5281.00,0.60
5280.00,0.60
5279.00,0.59
5278.00,0.59
5277.00,0.59
5276.00,0.59
5275.00,0.59
5274.00,0.59
5273.00,0.59
5272.00,0.59
5271.00,0.59
5270.00,0.59
5269.00,0.59
5268.00,0.59
5267.00,0.59
5266.00,0.58
5265.00,0.58
5264.00,0.58
5263.00,0.58
5262.00,0.58
5261.00,0.58
5260.00,0.58
5259.00,0.58
5258.00,0.58
5257.00,0.58
5256.00,0.58
5255.00,0.58
5254.00,0.58
5253.00,0.58
5252.00,0.58
5251.00,0.58
5250.00,0.58
5249.00,0.58
5248.00,0.58
5247.00,0.58
5246.00,0.58
5245.00,0.58
5244.00,0.58
5243.00,0.58
5242.00,0.58
5241.00,0.58
5240.00,0.58
5239.00,0.58
5238.00,0.58
5237.00,0.58
5236.00,0.58
5235.00,0.58
5234.00,0.58
5233.00,0.58
5232.00,0.58
5231.00,0.58
5230.00,0.58
5229.00,0.58
5228.00,0.58
5227.00,0.58
5226.00,0.58
5225.00,0.58
5224.00,0.58
5223.00,0.58
5222.00,0.58
5221.00,0.58
5220.00,0.58
5219.00,0.58
5218.00,0.58
5217.00,0.58
5216.00,0.58
5215.00,0.59
5214.00,0.59
5213.00,0.59
5212.00,0.59
5211.00,0.59
5210.00,0.59
5209.00,0.59
5208.00,0.59
5207.00,0.59
5206.00,0.59
5205.00,0.59
5204.00,0.59
5203.00,0.59
5202.00,0.59
5201.00,0.59
5200.00,0.59
5199.00,0.59
5198.00,0.59
5197.00,0.59
5196.00,0.59
5195.00,0.59
5194.00,0.59
5193.00,0.59
5192.00,0.59
5191.00,0.59
5190.00,0.59
5189.00,0.59
5188.00,0.59
5187.00,0.59
5186.00,0.59
5185.00,0.59
5184.00,0.59
5183.00,0.59
5182.00,0.59
5181.00,0.59
5180.00,0.59
5179.00,0.59
5178.00,0.59
5177.00,0.59
5176.00,0.59
5175.00,0.59
5174.00,0.59
5173.00,0.59
5172.00,0.60
5171.00,0.60
5170.00,0.60
5169.00,0.60
5168.00,0.60
5167.00,0.60
5166.00,0.60
5165.00,0.60
5164.00,0.60
5163.00,0.60
5162.00,0.60
5161.00,0.60
5160.00,0.60
5159.00,0.60
5158.00,0.60
5157.00,0.60
5156.00,0.60
5155.00,0.60
5154.00,0.60
5153.00,0.61
5152.00,0.61
5151.00,0.61
5150.00,0.61
5149.00,0.61
5148.00,0.61
5147.00,0.61
5146.00,0.61
5145.00,0.61
5144.00,0.61
5143.00,0.61
5142.00,0.62
5141.00,0.62
5140.00,0.62
5139.00,0.62
5138.00,0.62
5137.00,0.62
5136.00,0.62
5135.00,0.62
5134.00,0.62
5133.00,0.62
5132.00,0.62
5131.00,0.62
5130.00,0.62
5129.00,0.62
5128.00,0.62
5127.00,0.62
5126.00,0.62
5125.00,0.62
5124.00,0.62
5123.00,0.62
5122.00,0.62
5121.00,0.62
5120.00,0.62
5119.00,0.62
5118.00,0.62
5117.00,0.62
5116.00,0.62
5115.00,0.62
5114.00,0.62
5113.00,0.62
5112.00,0.62
5111.00,0.62
5110.00,0.62
5109.00,0.62
5108.00,0.62
5107.00,0.62
5106.00,0.62
5105.00,0.63
5104.00,0.63
5103.00,0.63
5102.00,0.63
5101.00,0.63
5100.00,0.63
5099.00,0.63
5098.00,0.63
5097.00,0.63
5096.00,0.63
5095.00,0.63
5094.00,0.63
5093.00,0.63
5092.00,0.63
5091.00,0.63
5090.00,0.63
5089.00,0.63
5088.00,0.63
5087.00,0.63
5086.00,0.63
5085.00,0.64
5084.00,0.64
5083.00,0.64
5082.00,0.64
5081.00,0.64
5080.00,0.64
5079.00,0.64
5078.00,0.64
5077.00,0.64
5076.00,0.64
5075.00,0.64
5074.00,0.64
5073.00,0.64
5072.00,0.64
5071.00,0.64
5070.00,0.64
5069.00,0.64
5068.00,0.64
5067.00,0.64
5066.00,0.64
5065.00,0.64
5064.00,0.64
5063.00,0.64
5062.00,0.64
5061.00,0.64
5060.00,0.64
5059.00,0.64
5058.00,0.64
5057.00,0.64
5056.00,0.64
5055.00,0.64
5054.00,0.64
5053.00,0.65
5052.00,0.65
5051.00,0.65
5050.00,0.65
5049.00,0.65
5048.00,0.65
5047.00,0.65
5046.00,0.65
5045.00,0.65
5044.00,0.65
5043.00,0.65
5042.00,0.65
5041.00,0.65
5040.00,0.65
5039.00,0.65
5038.00,0.65
5037.00,0.65
5036.00,0.66
5035.00,0.66
5034.00,0.66
5033.00,0.66
5032.00,0.66
5031.00,0.66
5030.00,0.66
5029.00,0.66
5028.00,0.66
5027.00,0.66
5026.00,0.66
5025.00,0.66
5024.00,0.66
5023.00,0.66
5022.00,0.66
5021.00,0.66
5020.00,0.66
5019.00,0.66
5018.00,0.67
5017.00,0.67
5016.00,0.67
5015.00,0.67
5014.00,0.67
5013.00,0.67
5012.00,0.67
5011.00,0.67
5010.00,0.67
5009.00,0.67
5008.00,0.67
5007.00,0.67
5006.00,0.67
5005.00,0.67
5004.00,0.67
5003.00,0.67
5002.00,0.68
5001.00,0.68
5000.00,0.68
4999.00,0.68
4998.00,0.68
4997.00,0.68
4996.00,0.68
4995.00,0.68
4994.00,0.68
4993.00,0.68
4992.00,0.68
4991.00,0.68
4990.00,0.69
4989.00,0.69
4988.00,0.69
4987.00,0.69
4986.00,0.69
4985.00,0.69
4984.00,0.69
4983.00,0.69
4982.00,0.69
4981.00,0.69
4980.00,0.69
4979.00,0.70
4978.00,0.70
4977.00,0.70
4976.00,0.70
4975.00,0.70
4974.00,0.70
4973.00,0.70
4972.00,0.70
4971.00,0.70
4970.00,0.70
4969.00,0.70
4968.00,0.70
4967.00,0.70
4966.00,0.70
4965.00,0.70
4964.00,0.70
4963.00,0.70
4962.00,0.70
4961.00,0.71
4960.00,0.71
4959.00,0.71
4958.00,0.71
4957.00,0.71
4956.00,0.71
4955.00,0.71
4954.00,0.71
4953.00,0.71
4952.00,0.71
4951.00,0.71
4950.00,0.71
4949.00,0.71
4948.00,0.71
4947.00,0.71
4946.00,0.71
4945.00,0.71
4944.00,0.71
4943.00,0.71
4942.00,0.71
4941.00,0.71
4940.00,0.71
4939.00,0.71
4938.00,0.72
4937.00,0.72
4936.00,0.72
4935.00,0.72
4934.00,0.72
4933.00,0.72
4932.00,0.72
4931.00,0.72
4930.00,0.72
4929.00,0.72
4928.00,0.72
4927.00,0.72
4926.00,0.72
4925.00,0.72
4924.00,0.72
4923.00,0.72
4922.00,0.72
4921.00,0.72
4920.00,0.73
4919.00,0.73
4918.00,0.73
4917.00,0.73
4916.00,0.73
4915.00,0.73
4914.00,0.73
4913.00,0.73
4912.00,0.73
4911.00,0.73
4910.00,0.73
4909.00,0.74
4908.00,0.74
4907.00,0.74
4906.00,0.74
4905.00,0.74
4904.00,0.74
4903.00,0.74
4902.00,0.74
4901.00,0.74
4900.00,0.74
4899.00,0.74
4898.00,0.74
4897.00,0.74
4896.00,0.74
4895.00,0.74
4894.00,0.74
4893.00,0.74
4892.00,0.74
4891.00,0.74
4890.00,0.74
4889.00,0.74
4888.00,0.74
4887.00,0.74
4886.00,0.74
4885.00,0.74
4884.00,0.74
4883.00,0.74
4882.00,0.75
4881.00,0.75
4880.00,0.75
4879.00,0.75
4878.00,0.75
4877.00,0.75
4876.00,0.75
4875.00,0.75
4874.00,0.75
4873.00,0.75
4872.00,0.75
4871.00,0.75
4870.00,0.76
4869.00,0.76
4868.00,0.76
4867.00,0.76
4866.00,0.76
4865.00,0.76
4864.00,0.76
4863.00,0.76
4862.00,0.76
4861.00,0.76
4860.00,0.76
4859.00,0.76
4858.00,0.76
4857.00,0.77
4856.00,0.77
4855.00,0.77
4854.00,0.77
4853.00,0.77
4852.00,0.77
4851.00,0.77
4850.00,0.77
4849.00,0.77
4848.00,0.77
4847.00,0.77
4846.00,0.77
4845.00,0.77
4844.00,0.77
4843.00,0.77
4842.00,0.77
4841.00,0.77
4840.00,0.77
4839.00,0.77
4838.00,0.77
4837.00,0.77
4836.00,0.77
4835.00,0.77
4834.00,0.77
4833.00,0.77
4832.00,0.77
4831.00,0.78
4830.00,0.78
4829.00,0.78
4828.00,0.78
4827.00,0.78
4826.00,0.78
4825.00,0.78
4824.00,0.78
4823.00,0.78
4822.00,0.78
4821.00,0.78
4820.00,0.78
4819.00,0.79
4818.00,0.79
4817.00,0.79
4816.00,0.79
4815.00,0.79
4814.00,0.79
4813.00,0.79
4812.00,0.79
4811.00,0.79
4810.00,0.79
4809.00,0.80
4808.00,0.80
4807.00,0.80
4806.00,0.80
4805.00,0.80
4804.00,0.80
4803.00,0.80
4802.00,0.80
4801.00,0.80
4800.00,0.80
4799.00,0.80
4798.00,0.80
4797.00,0.80
4796.00,0.80
4795.00,0.80
4794.00,0.80
4793.00,0.80
4792.00,0.80
4791.00,0.80
4790.00,0.80
4789.00,0.80
4788.00,0.81
4787.00,0.81
4786.00,0.81
4785.00,0.81
4784.00,0.81
4783.00,0.81
4782.00,0.81
4781.00,0.82
4780.00,0.82
4779.00,0.82
4778.00,0.82
4777.00,0.82
4776.00,0.82
4775.00,0.82
4774.00,0.82
4773.00,0.82
4772.00,0.82
4771.00,0.82
4770.00,0.82
4769.00,0.82
4768.00,0.82
4767.00,0.83
4766.00,0.83
4765.00,0.83
4764.00,0.83
4763.00,0.83
4762.00,0.83
4761.00,0.83
4760.00,0.83
4759.00,0.83
4758.00,0.83
4757.00,0.84
4756.00,0.84
4755.00,0.84
4754.00,0.84
4753.00,0.84
4752.00,0.84
4751.00,0.84
4750.00,0.85
4749.00,0.85
4748.00,0.85
4747.00,0.85
4746.00,0.85
4745.00,0.85
4744.00,0.85
4743.00,0.85
4742.00,0.85
4741.00,0.85
4740.00,0.85
4739.00,0.86
4738.00,0.86
4737.00,0.86
4736.00,0.86
4735.00,0.86
4734.00,0.86
4733.00,0.86
4732.00,0.86
4731.00,0.86
4730.00,0.87
4729.00,0.87
4728.00,0.87
4727.00,0.87
4726.00,0.87
4725.00,0.87
4724.00,0.87
4723.00,0.88
4722.00,0.88
4721.00,0.88
4720.00,0.88
4719.00,0.88
4718.00,0.88
4717.00,0.88
4716.00,0.88
4715.00,0.89
4714.00,0.89
4713.00,0.89
4712.00,0.89
4711.00,0.89
4710.00,0.89
4709.00,0.89
4708.00,0.90
4707.00,0.90
4706.00,0.90
4705.00,0.90
4704.00,0.90
4703.00,0.90
4702.00,0.90
4701.00,0.91
4700.00,0.91
4699.00,0.91
4698.00,0.91
4697.00,0.91
4696.00,0.91
4695.00,0.91
4694.00,0.91
4693.00,0.91
4692.00,0.92
4691.00,0.92
4690.00,0.92
4689.00,0.92
4688.00,0.92
4687.00,0.92
4686.00,0.92
4685.00,0.92
4684.00,0.92
4683.00,0.92
4682.00,0.92
4681.00,0.92
4680.00,0.92
4679.00,0.92
4678.00,0.92
4677.00,0.92
4676.00,0.92
4675.00,0.92
4674.00,0.92
4673.00,0.93
4672.00,0.93
4671.00,0.93
4670.00,0.93
4669.00,0.93
4668.00,0.93
4667.00,0.93
4666.00,0.94
4665.00,0.94
4664.00,0.94
4663.00,0.94
4662.00,0.94
4661.00,0.94
4660.00,0.95
4659.00,0.95
4658.00,0.95
4657.00,0.95
4656.00,0.95
4655.00,0.96
4654.00,0.96
4653.00,0.96
4652.00,0.96
4651.00,0.96
4650.00,0.96
4649.00,0.96
4648.00,0.97
4647.00,0.97
4646.00,0.97
4645.00,0.97
4644.00,0.97
4643.00,0.97
4642.00,0.97
4641.00,0.97
4640.00,0.97
4639.00,0.97
4638.00,0.98
4637.00,0.98
4636.00,0.98
4635.00,0.98
4634.00,0.98
4633.00,0.98
4632.00,0.98
4631.00,0.98
4630.00,0.98
4629.00,0.98
4628.00,0.98
4627.00,0.98
4626.00,0.99
4625.00,0.99
4624.00,0.99
4623.00,0.99
4622.00,0.99
4621.00,0.99
4620.00,0.99
4619.00,0.99
4618.00,0.99
4617.00,0.99
4616.00,0.99
4615.00,0.99
4614.00,0.99
4613.00,0.99
4612.00,0.99
4611.00,0.99
4610.00,0.99
4609.00,0.99
4608.00,0.99
4607.00,0.99
4606.00,0.99
4605.00,0.99
4604.00,0.99
4603.00,0.99
4602.00,0.99
4601.00,1.00
4600.00,1.00
4599.00,1.00
4598.00,1.00
4597.00,1.00
4596.00,1.00
4595.00,1.00
4594.00,1.00
4593.00,1.00
4592.00,1.00
4591.00,1.00
4590.00,1.00
4589.00,1.00
4588.00,1.01
4587.00,1.01
4586.00,1.01
4585.00,1.01
4584.00,1.01
4583.00,1.01
4582.00,1.01
4581.00,1.01
4580.00,1.01
4579.00,1.02
4578.00,1.02
4577.00,1.02
4576.00,1.02
4575.00,1.02
4574.00,1.02
4573.00,1.02
4572.00,1.02
4571.00,1.02
4570.00,1.02
4569.00,1.02
4568.00,1.02
4567.00,1.02
4566.00,1.02
4565.00,1.03
4564.00,1.03
4563.00,1.03
4562.00,1.03
4561.00,1.03
4560.00,1.03
4559.00,1.03
4558.00,1.03
4557.00,1.03
4556.00,1.03
4555.00,1.03
4554.00,1.04
4553.00,1.04
4552.00,1.04
4551.00,1.04
4550.00,1.04
4549.00,1.04
4548.00,1.04
4547.00,1.04
4546.00,1.05
4545.00,1.05
4544.00,1.05
4543.00,1.05
4542.00,1.05
4541.00,1.05
4540.00,1.05
4539.00,1.05
4538.00,1.05
4537.00,1.05
4536.00,1.05
4535.00,1.05
4534.00,1.05
4533.00,1.06
4532.00,1.06
4531.00,1.06
4530.00,1.06
4529.00,1.06
4528.00,1.06
4527.00,1.06
4526.00,1.06
4525.00,1.06
4524.00,1.06
4523.00,1.05
4522.00,1.05
4521.00,1.05
4520.00,1.05
4519.00,1.05
4518.00,1.05
4517.00,1.05
4516.00,1.05
4515.00,1.05
4514.00,1.05
4513.00,1.05
4512.00,1.05
4511.00,1.05
4510.00,1.05
4509.00,1.05
4508.00,1.05
4507.00,1.05
4506.00,1.05
4505.00,1.05
4504.00,1.05
4503.00,1.05
4502.00,1.05
4501.00,1.05
4500.00,1.05
4499.00,1.05
4498.00,1.05
4497.00,1.05
4496.00,1.05
4495.00,1.05
4494.00,1.05
4493.00,1.05
4492.00,1.05
4491.00,1.05
4490.00,1.05
4489.00,1.05
4488.00,1.05
4487.00,1.05
4486.00,1.05
4485.00,1.05
4484.00,1.05
4483.00,1.04
4482.00,1.04
4481.00,1.04
4480.00,1.04
4479.00,1.04
4478.00,1.04
4477.00,1.04
4476.00,1.03
4475.00,1.03
4474.00,1.03
4473.00,1.03
4472.00,1.03
4471.00,1.02
4470.00,1.02
4469.00,1.02
4468.00,1.02
4467.00,1.02
4466.00,1.02
4465.00,1.01
4464.00,1.01
4463.00,1.01
4462.00,1.01
4461.00,1.01
4460.00,1.00
4459.00,1.00
4458.00,1.00
4457.00,1.00
4456.00,0.99
4455.00,0.99
4454.00,0.99
4453.00,0.99
4452.00,0.98
4451.00,0.98
4450.00,0.98
4449.00,0.98
4448.00,0.97
4447.00,0.97
4446.00,0.97
4445.00,0.96
4444.00,0.96
4443.00,0.96
4442.00,0.96
4441.00,0.95
4440.00,0.95
4439.00,0.95
4438.00,0.94
4437.00,0.94
4436.00,0.94
4435.00,0.94
4434.00,0.93
4433.00,0.93
4432.00,0.93
4431.00,0.93
4430.00,0.92
4429.00,0.92
4428.00,0.92
4427.00,0.92
4426.00,0.92
4425.00,0.92
4424.00,0.91
4423.00,0.91
4422.00,0.91
4421.00,0.91
4420.00,0.91
4419.00,0.91
4418.00,0.91
4417.00,0.91
4416.00,0.91
4415.00,0.91
4414.00,0.91
4413.00,0.91
4412.00,0.91
4411.00,0.91
4410.00,0.91
4409.00,0.91
4408.00,0.91
4407.00,0.91
4406.00,0.91
4405.00,0.91
4404.00,0.91
4403.00,0.91
4402.00,0.91
4401.00,0.91
4400.00,0.92
4399.00,0.92
4398.00,0.92
4397.00,0.92
4396.00,0.92
4395.00,0.92
4394.00,0.92
4393.00,0.92
4392.00,0.92
4391.00,0.92
4390.00,0.92
4389.00,0.92
4388.00,0.92
4387.00,0.92
4386.00,0.92
4385.00,0.92
4384.00,0.92
4383.00,0.93
4382.00,0.93
4381.00,0.93
4380.00,0.93
4379.00,0.93
4378.00,0.93
4377.00,0.93
4376.00,0.93
4375.00,0.93
4374.00,0.93
4373.00,0.93
4372.00,0.93
4371.00,0.94
4370.00,0.94
4369.00,0.94
4368.00,0.94
4367.00,0.94
4366.00,0.94
4365.00,0.94
4364.00,0.94
4363.00,0.94
4362.00,0.94
4361.00,0.94
4360.00,0.94
4359.00,0.94
4358.00,0.94
4357.00,0.94
4356.00,0.94
4355.00,0.94
4354.00,0.94
4353.00,0.94
4352.00,0.94
4351.00,0.94
4350.00,0.94
4349.00,0.94
4348.00,0.94
4347.00,0.94
4346.00,0.94
4345.00,0.94
4344.00,0.94
4343.00,0.94
4342.00,0.94
4341.00,0.94
4340.00,0.94
4339.00,0.95
4338.00,0.95
4337.00,0.95
4336.00,0.95
4335.00,0.95
4334.00,0.95
4333.00,0.96
4332.00,0.96
4331.00,0.96
4330.00,0.96
4329.00,0.96
4328.00,0.96
4327.00,0.96
4326.00,0.96
4325.00,0.97
4324.00,0.97
4323.00,0.97
4322.00,0.97
4321.00,0.97
4320.00,0.97
4319.00,0.97
4318.00,0.97
4317.00,0.97
4316.00,0.97
4315.00,0.98
4314.00,0.98
4313.00,0.98
4312.00,0.98
4311.00,0.98
4310.00,0.98
4309.00,0.98
4308.00,0.98
4307.00,0.98
4306.00,0.98
4305.00,0.98
4304.00,0.98
4303.00,0.98
4302.00,0.98
4301.00,0.99
4300.00,0.99
4299.00,0.99
4298.00,0.99
4297.00,0.99
4296.00,0.99
4295.00,0.99
4294.00,0.99
4293.00,0.99
4292.00,0.99
4291.00,0.99
4290.00,1.00
4289.00,1.00
4288.00,1.00
4287.00,1.00
4286.00,1.00
4285.00,1.00
4284.00,1.00
4283.00,1.00
4282.00,1.00
4281.00,1.00
4280.00,1.00
4279.00,1.00
4278.00,1.00
4277.00,1.00
4276.00,1.00
4275.00,1.00
4274.00,1.00
4273.00,1.00
4272.00,1.00
4271.00,1.00
4270.00,1.00
4269.00,1.00
4268.00,1.00
4267.00,1.00
4266.00,1.00
4265.00,1.00
4264.00,1.00
4263.00,1.00
4262.00,1.00
4261.00,1.00
4260.00,1.00
4259.00,1.00
4258.00,1.00
4257.00,1.00
4256.00,1.00
4255.00,1.00
4254.00,1.00
4253.00,1.00
4252.00,1.00
4251.00,1.00
4250.00,1.00
4249.00,1.00
4248.00,1.01
4247.00,1.01
4246.00,1.01
4245.00,1.01
4244.00,1.01
4243.00,1.01
4242.00,1.01
4241.00,1.01
4240.00,1.02
4239.00,1.02
4238.00,1.02
4237.00,1.02
4236.00,1.02
4235.00,1.02
4234.00,1.02
4233.00,1.02
4232.00,1.03
4231.00,1.03
4230.00,1.03
4229.00,1.03
4228.00,1.03
4227.00,1.03
4226.00,1.03
4225.00,1.03
4224.00,1.03
4223.00,1.03
4222.00,1.03
4221.00,1.03
4220.00,1.03
4219.00,1.03
4218.00,1.03
4217.00,1.03
4216.00,1.03
4215.00,1.03
4214.00,1.03
4213.00,1.03
4212.00,1.03
4211.00,1.03
4210.00,1.03
4209.00,1.03
4208.00,1.03
4207.00,1.03
4206.00,1.03
4205.00,1.03
4204.00,1.04
4203.00,1.04
4202.00,1.04
4201.00,1.04
4200.00,1.04
4199.00,1.04
4198.00,1.04
4197.00,1.04
4196.00,1.04
4195.00,1.04
4194.00,1.04
4193.00,1.04
4192.00,1.04
4191.00,1.04
4190.00,1.04
4189.00,1.04
4188.00,1.04
4187.00,1.04
4186.00,1.04
4185.00,1.04
4184.00,1.04
4183.00,1.04
4182.00,1.04
4181.00,1.04
4180.00,1.04
4179.00,1.04
4178.00,1.04
4177.00,1.04
4176.00,1.05
4175.00,1.05
4174.00,1.05
4173.00,1.05
4172.00,1.05
4171.00,1.05
4170.00,1.05
4169.00,1.05
4168.00,1.06
4167.00,1.06
4166.00,1.06
4165.00,1.06
4164.00,1.06
4163.00,1.06
4162.00,1.06
4161.00,1.06
4160.00,1.06
4159.00,1.06
4158.00,1.06
4157.00,1.06
4156.00,1.06
4155.00,1.05
4154.00,1.05
4153.00,1.05
4152.00,1.05
4151.00,1.05
4150.00,1.05
4149.00,1.05
4148.00,1.05
4147.00,1.05
4146.00,1.05
4145.00,1.05
4144.00,1.05
4143.00,1.05
4142.00,1.05
4141.00,1.05
4140.00,1.04
4139.00,1.05
4138.00,1.05
4137.00,1.05
4136.00,1.05
4135.00,1.05
4134.00,1.05
4133.00,1.05
4132.00,1.05
4131.00,1.05
4130.00,1.05
4129.00,1.05
4128.00,1.06
4127.00,1.06
4126.00,1.06
4125.00,1.06
4124.00,1.06
4123.00,1.06
4122.00,1.07
4121.00,1.07
4120.00,1.07
4119.00,1.07
4118.00,1.07
4117.00,1.07
4116.00,1.07
4115.00,1.07
4114.00,1.07
4113.00,1.07
4112.00,1.07
4111.00,1.07
4110.00,1.08
4109.00,1.08
4108.00,1.08
4107.00,1.08
4106.00,1.08
4105.00,1.08
4104.00,1.08
4103.00,1.08
4102.00,1.08
4101.00,1.08
4100.00,1.08
4099.00,1.08
4098.00,1.08
4097.00,1.07
4096.00,1.07
4095.00,1.07
4094.00,1.07
4093.00,1.07
4092.00,1.07
4091.00,1.07
4090.00,1.07
4089.00,1.08
4088.00,1.08
4087.00,1.08
4086.00,1.08
4085.00,1.08
4084.00,1.08
4083.00,1.08
4082.00,1.08
4081.00,1.09
4080.00,1.09
4079.00,1.09
4078.00,1.09
4077.00,1.09
4076.00,1.09
4075.00,1.09
4074.00,1.09
4073.00,1.09
4072.00,1.09
4071.00,1.10
4070.00,1.10
4069.00,1.10
4068.00,1.10
4067.00,1.10
4066.00,1.10
4065.00,1.10
4064.00,1.10
4063.00,1.10
4062.00,1.10
4061.00,1.10
4060.00,1.10
4059.00,1.10
4058.00,1.10
4057.00,1.10
4056.00,1.10
4055.00,1.10
4054.00,1.10
4053.00,1.10
4052.00,1.10
4051.00,1.10
4050.00,1.10
4049.00,1.10
4048.00,1.10
4047.00,1.10
4046.00,1.10
4045.00,1.10
4044.00,1.10
4043.00,1.11
4042.00,1.11
4041.00,1.11
4040.00,1.11
4039.00,1.11
4038.00,1.11
4037.00,1.11
4036.00,1.11
4035.00,1.11
4034.00,1.11
4033.00,1.11
4032.00,1.11
4031.00,1.11
4030.00,1.11
4029.00,1.10
4028.00,1.10
4027.00,1.10
4026.00,1.10
4025.00,1.10
4024.00,1.09
4023.00,1.09
4022.00,1.09
4021.00,1.09
4020.00,1.09
4019.00,1.09
4018.00,1.09
4017.00,1.08
4016.00,1.09
4015.00,1.09
4014.00,1.09
4013.00,1.09
4012.00,1.09
4011.00,1.10
4010.00,1.10
4009.00,1.10
4008.00,1.11
4007.00,1.11
4006.00,1.12
4005.00,1.12
4004.00,1.12
4003.00,1.13
4002.00,1.13
4001.00,1.14
4000.00,1.14
