创建为新数据集,样品 410 用户 Administrator 日期 星期四, 三月 08 2018
cm-1,%T
10000.00,1.22
9999.00,1.22
9998.00,1.22
9997.00,1.22
9996.00,1.22
9995.00,1.22
9994.00,1.22
9993.00,1.22
9992.00,1.22
9991.00,1.21
9990.00,1.21
9989.00,1.21
9988.00,1.21
9987.00,1.21
9986.00,1.21
9985.00,1.21
9984.00,1.20
9983.00,1.20
9982.00,1.20
9981.00,1.20
9980.00,1.20
9979.00,1.20
9978.00,1.20
9977.00,1.20
9976.00,1.20
9975.00,1.20
9974.00,1.20
9973.00,1.20
9972.00,1.20
9971.00,1.20
9970.00,1.20
9969.00,1.20
9968.00,1.20
9967.00,1.20
9966.00,1.20
9965.00,1.20
9964.00,1.20
9963.00,1.20
9962.00,1.20
9961.00,1.20
9960.00,1.20
9959.00,1.21
9958.00,1.21
9957.00,1.21
9956.00,1.21
9955.00,1.21
9954.00,1.21
9953.00,1.21
9952.00,1.21
9951.00,1.22
9950.00,1.22
9949.00,1.22
9948.00,1.22
9947.00,1.22
9946.00,1.22
9945.00,1.22
9944.00,1.22
9943.00,1.22
9942.00,1.22
9941.00,1.22
9940.00,1.22
9939.00,1.21
9938.00,1.21
9937.00,1.21
9936.00,1.21
9935.00,1.21
9934.00,1.21
9933.00,1.21
9932.00,1.21
9931.00,1.21
9930.00,1.21
9929.00,1.20
9928.00,1.20
9927.00,1.20
9926.00,1.20
9925.00,1.20
9924.00,1.20
9923.00,1.20
9922.00,1.19
9921.00,1.19
9920.00,1.19
9919.00,1.19
9918.00,1.19
9917.00,1.19
9916.00,1.19
9915.00,1.19
9914.00,1.19
9913.00,1.19
9912.00,1.19
9911.00,1.19
9910.00,1.19
9909.00,1.19
9908.00,1.19
9907.00,1.19
9906.00,1.19
9905.00,1.19
9904.00,1.20
9903.00,1.20
9902.00,1.20
9901.00,1.20
9900.00,1.20
9899.00,1.20
9898.00,1.20
9897.00,1.21
9896.00,1.21
9895.00,1.21
9894.00,1.20
9893.00,1.20
9892.00,1.20
9891.00,1.20
9890.00,1.20
9889.00,1.20
9888.00,1.20
9887.00,1.20
9886.00,1.20
9885.00,1.20
9884.00,1.19
9883.00,1.19
9882.00,1.19
9881.00,1.19
9880.00,1.19
9879.00,1.19
9878.00,1.19
9877.00,1.19
9876.00,1.19
9875.00,1.19
9874.00,1.19
9873.00,1.19
9872.00,1.19
9871.00,1.19
9870.00,1.19
9869.00,1.19
9868.00,1.19
9867.00,1.19
9866.00,1.19
9865.00,1.19
9864.00,1.19
9863.00,1.19
9862.00,1.19
9861.00,1.19
9860.00,1.19
9859.00,1.19
9858.00,1.19
9857.00,1.19
9856.00,1.19
9855.00,1.20
9854.00,1.20
9853.00,1.20
9852.00,1.20
9851.00,1.20
9850.00,1.20
9849.00,1.20
9848.00,1.20
9847.00,1.20
9846.00,1.20
9845.00,1.21
9844.00,1.21
9843.00,1.21
9842.00,1.21
9841.00,1.21
9840.00,1.21
9839.00,1.21
9838.00,1.21
9837.00,1.21
9836.00,1.22
9835.00,1.22
9834.00,1.22
9833.00,1.22
9832.00,1.22
9831.00,1.22
9830.00,1.22
9829.00,1.22
9828.00,1.22
9827.00,1.21
9826.00,1.21
9825.00,1.21
9824.00,1.21
9823.00,1.21
9822.00,1.21
9821.00,1.20
9820.00,1.20
9819.00,1.20
9818.00,1.20
9817.00,1.20
9816.00,1.20
9815.00,1.20
9814.00,1.20
9813.00,1.19
9812.00,1.19
9811.00,1.19
9810.00,1.19
9809.00,1.19
9808.00,1.19
9807.00,1.19
9806.00,1.19
9805.00,1.19
9804.00,1.19
9803.00,1.19
9802.00,1.19
9801.00,1.19
9800.00,1.20
9799.00,1.20
9798.00,1.20
9797.00,1.20
9796.00,1.20
9795.00,1.20
9794.00,1.20
9793.00,1.20
9792.00,1.20
9791.00,1.20
9790.00,1.20
9789.00,1.20
9788.00,1.20
9787.00,1.20
9786.00,1.20
9785.00,1.20
9784.00,1.20
9783.00,1.20
9782.00,1.20
9781.00,1.20
9780.00,1.20
9779.00,1.20
9778.00,1.20
9777.00,1.20
9776.00,1.20
9775.00,1.20
9774.00,1.20
9773.00,1.20
9772.00,1.20
9771.00,1.20
9770.00,1.20
9769.00,1.20
9768.00,1.19
9767.00,1.19
9766.00,1.19
9765.00,1.19
9764.00,1.19
9763.00,1.19
9762.00,1.19
9761.00,1.19
9760.00,1.19
9759.00,1.19
9758.00,1.19
9757.00,1.19
9756.00,1.19
9755.00,1.19
9754.00,1.19
9753.00,1.19
9752.00,1.19
9751.00,1.19
9750.00,1.19
9749.00,1.19
9748.00,1.19
9747.00,1.19
9746.00,1.19
9745.00,1.19
9744.00,1.19
9743.00,1.19
9742.00,1.19
9741.00,1.19
9740.00,1.19
9739.00,1.19
9738.00,1.19
9737.00,1.19
9736.00,1.19
9735.00,1.19
9734.00,1.19
9733.00,1.19
9732.00,1.19
9731.00,1.19
9730.00,1.19
9729.00,1.19
9728.00,1.19
9727.00,1.19
9726.00,1.20
9725.00,1.20
9724.00,1.20
9723.00,1.20
9722.00,1.20
9721.00,1.20
9720.00,1.20
9719.00,1.21
9718.00,1.21
9717.00,1.21
9716.00,1.21
9715.00,1.21
9714.00,1.21
9713.00,1.21
9712.00,1.21
9711.00,1.21
9710.00,1.21
9709.00,1.21
9708.00,1.21
9707.00,1.21
9706.00,1.21
9705.00,1.21
9704.00,1.21
9703.00,1.21
9702.00,1.21
9701.00,1.20
9700.00,1.20
9699.00,1.20
9698.00,1.20
9697.00,1.20
9696.00,1.19
9695.00,1.19
9694.00,1.19
9693.00,1.19
9692.00,1.18
9691.00,1.18
9690.00,1.18
9689.00,1.18
9688.00,1.18
9687.00,1.18
9686.00,1.18
9685.00,1.18
9684.00,1.18
9683.00,1.18
9682.00,1.18
9681.00,1.18
9680.00,1.18
9679.00,1.18
9678.00,1.18
9677.00,1.18
9676.00,1.18
9675.00,1.18
9674.00,1.18
9673.00,1.18
9672.00,1.18
9671.00,1.18
9670.00,1.18
9669.00,1.18
9668.00,1.18
9667.00,1.18
9666.00,1.18
9665.00,1.18
9664.00,1.18
9663.00,1.18
9662.00,1.18
9661.00,1.18
9660.00,1.18
9659.00,1.18
9658.00,1.18
9657.00,1.18
9656.00,1.18
9655.00,1.18
9654.00,1.18
9653.00,1.18
9652.00,1.19
9651.00,1.19
9650.00,1.19
9649.00,1.19
9648.00,1.19
9647.00,1.19
9646.00,1.20
9645.00,1.20
9644.00,1.20
9643.00,1.20
9642.00,1.20
9641.00,1.20
9640.00,1.20
9639.00,1.20
9638.00,1.20
9637.00,1.19
9636.00,1.19
9635.00,1.19
9634.00,1.19
9633.00,1.19
9632.00,1.19
9631.00,1.19
9630.00,1.18
9629.00,1.18
9628.00,1.18
9627.00,1.18
9626.00,1.18
9625.00,1.18
9624.00,1.18
9623.00,1.18
9622.00,1.18
9621.00,1.18
9620.00,1.18
9619.00,1.18
9618.00,1.18
9617.00,1.18
9616.00,1.18
9615.00,1.18
9614.00,1.19
9613.00,1.19
9612.00,1.19
9611.00,1.19
9610.00,1.19
9609.00,1.19
9608.00,1.19
9607.00,1.19
9606.00,1.19
9605.00,1.19
9604.00,1.19
9603.00,1.19
9602.00,1.19
9601.00,1.19
9600.00,1.19
9599.00,1.19
9598.00,1.19
9597.00,1.19
9596.00,1.19
9595.00,1.19
9594.00,1.19
9593.00,1.19
9592.00,1.19
9591.00,1.19
9590.00,1.19
9589.00,1.19
9588.00,1.20
9587.00,1.20
9586.00,1.20
9585.00,1.20
9584.00,1.20
9583.00,1.20
9582.00,1.20
9581.00,1.20
9580.00,1.20
9579.00,1.20
9578.00,1.20
9577.00,1.20
9576.00,1.20
9575.00,1.20
9574.00,1.20
9573.00,1.20
9572.00,1.20
9571.00,1.20
9570.00,1.20
9569.00,1.20
9568.00,1.20
9567.00,1.20
9566.00,1.20
9565.00,1.20
9564.00,1.20
9563.00,1.20
9562.00,1.20
9561.00,1.20
9560.00,1.20
9559.00,1.20
9558.00,1.20
9557.00,1.20
9556.00,1.20
9555.00,1.21
9554.00,1.21
9553.00,1.21
9552.00,1.21
9551.00,1.21
9550.00,1.21
9549.00,1.21
9548.00,1.21
9547.00,1.21
9546.00,1.21
9545.00,1.21
9544.00,1.21
9543.00,1.21
9542.00,1.21
9541.00,1.21
9540.00,1.21
9539.00,1.21
9538.00,1.21
9537.00,1.21
9536.00,1.21
9535.00,1.21
9534.00,1.21
9533.00,1.21
9532.00,1.21
9531.00,1.21
9530.00,1.21
9529.00,1.21
9528.00,1.21
9527.00,1.21
9526.00,1.21
9525.00,1.21
9524.00,1.21
9523.00,1.21
9522.00,1.21
9521.00,1.22
9520.00,1.22
9519.00,1.22
9518.00,1.22
9517.00,1.22
9516.00,1.22
9515.00,1.22
9514.00,1.22
9513.00,1.22
9512.00,1.22
9511.00,1.22
9510.00,1.22
9509.00,1.21
9508.00,1.21
9507.00,1.21
9506.00,1.21
9505.00,1.21
9504.00,1.20
9503.00,1.20
9502.00,1.20
9501.00,1.20
9500.00,1.19
9499.00,1.19
9498.00,1.19
9497.00,1.19
9496.00,1.18
9495.00,1.18
9494.00,1.18
9493.00,1.18
9492.00,1.18
9491.00,1.18
9490.00,1.18
9489.00,1.18
9488.00,1.18
9487.00,1.18
9486.00,1.18
9485.00,1.18
9484.00,1.18
9483.00,1.18
9482.00,1.18
9481.00,1.18
9480.00,1.18
9479.00,1.18
9478.00,1.18
9477.00,1.18
9476.00,1.18
9475.00,1.18
9474.00,1.19
9473.00,1.19
9472.00,1.19
9471.00,1.19
9470.00,1.19
9469.00,1.19
9468.00,1.19
9467.00,1.19
9466.00,1.19
9465.00,1.19
9464.00,1.19
9463.00,1.19
9462.00,1.19
9461.00,1.19
9460.00,1.19
9459.00,1.19
9458.00,1.20
9457.00,1.20
9456.00,1.20
9455.00,1.20
9454.00,1.20
9453.00,1.20
9452.00,1.20
9451.00,1.20
9450.00,1.20
9449.00,1.20
9448.00,1.20
9447.00,1.20
9446.00,1.20
9445.00,1.20
9444.00,1.20
9443.00,1.20
9442.00,1.20
9441.00,1.20
9440.00,1.20
9439.00,1.20
9438.00,1.20
9437.00,1.20
9436.00,1.20
9435.00,1.20
9434.00,1.20
9433.00,1.19
9432.00,1.19
9431.00,1.19
9430.00,1.19
9429.00,1.19
9428.00,1.19
9427.00,1.19
9426.00,1.19
9425.00,1.19
9424.00,1.19
9423.00,1.19
9422.00,1.19
9421.00,1.19
9420.00,1.19
9419.00,1.20
9418.00,1.20
9417.00,1.20
9416.00,1.20
9415.00,1.20
9414.00,1.20
9413.00,1.21
9412.00,1.21
9411.00,1.21
9410.00,1.21
9409.00,1.21
9408.00,1.21
9407.00,1.21
9406.00,1.21
9405.00,1.21
9404.00,1.21
9403.00,1.21
9402.00,1.21
9401.00,1.21
9400.00,1.21
9399.00,1.20
9398.00,1.20
9397.00,1.20
9396.00,1.20
9395.00,1.20
9394.00,1.20
9393.00,1.20
9392.00,1.20
9391.00,1.20
9390.00,1.20
9389.00,1.20
9388.00,1.20
9387.00,1.20
9386.00,1.19
9385.00,1.19
9384.00,1.19
9383.00,1.19
9382.00,1.19
9381.00,1.19
9380.00,1.19
9379.00,1.18
9378.00,1.18
9377.00,1.18
9376.00,1.18
9375.00,1.18
9374.00,1.18
9373.00,1.18
9372.00,1.18
9371.00,1.18
9370.00,1.19
9369.00,1.19
9368.00,1.19
9367.00,1.19
9366.00,1.19
9365.00,1.19
9364.00,1.19
9363.00,1.19
9362.00,1.19
9361.00,1.19
9360.00,1.20
9359.00,1.20
9358.00,1.20
9357.00,1.20
9356.00,1.20
9355.00,1.20
9354.00,1.20
9353.00,1.20
9352.00,1.21
9351.00,1.21
9350.00,1.21
9349.00,1.21
9348.00,1.21
9347.00,1.21
9346.00,1.21
9345.00,1.21
9344.00,1.21
9343.00,1.21
9342.00,1.21
9341.00,1.21
9340.00,1.20
9339.00,1.20
9338.00,1.20
9337.00,1.20
9336.00,1.20
9335.00,1.20
9334.00,1.20
9333.00,1.19
9332.00,1.19
9331.00,1.19
9330.00,1.19
9329.00,1.19
9328.00,1.19
9327.00,1.19
9326.00,1.19
9325.00,1.19
9324.00,1.19
9323.00,1.19
9322.00,1.19
9321.00,1.19
9320.00,1.20
9319.00,1.20
9318.00,1.20
9317.00,1.20
9316.00,1.20
9315.00,1.20
9314.00,1.20
9313.00,1.20
9312.00,1.20
9311.00,1.20
9310.00,1.20
9309.00,1.20
9308.00,1.20
9307.00,1.20
9306.00,1.20
9305.00,1.20
9304.00,1.20
9303.00,1.20
9302.00,1.20
9301.00,1.20
9300.00,1.20
9299.00,1.20
9298.00,1.20
9297.00,1.20
9296.00,1.20
9295.00,1.20
9294.00,1.20
9293.00,1.19
9292.00,1.19
9291.00,1.19
9290.00,1.19
9289.00,1.19
9288.00,1.19
9287.00,1.19
9286.00,1.19
9285.00,1.19
9284.00,1.18
9283.00,1.18
9282.00,1.18
9281.00,1.18
9280.00,1.18
9279.00,1.18
9278.00,1.18
9277.00,1.19
9276.00,1.19
9275.00,1.19
9274.00,1.19
9273.00,1.19
9272.00,1.19
9271.00,1.19
9270.00,1.19
9269.00,1.19
9268.00,1.19
9267.00,1.20
9266.00,1.20
9265.00,1.20
9264.00,1.20
9263.00,1.20
9262.00,1.20
9261.00,1.20
9260.00,1.20
9259.00,1.20
9258.00,1.20
9257.00,1.20
9256.00,1.20
9255.00,1.19
9254.00,1.19
9253.00,1.19
9252.00,1.19
9251.00,1.19
9250.00,1.19
9249.00,1.19
9248.00,1.19
9247.00,1.19
9246.00,1.19
9245.00,1.19
9244.00,1.19
9243.00,1.19
9242.00,1.19
9241.00,1.19
9240.00,1.19
9239.00,1.19
9238.00,1.19
9237.00,1.19
9236.00,1.19
9235.00,1.19
9234.00,1.19
9233.00,1.20
9232.00,1.20
9231.00,1.20
9230.00,1.20
9229.00,1.20
9228.00,1.20
9227.00,1.20
9226.00,1.20
9225.00,1.20
9224.00,1.20
9223.00,1.20
9222.00,1.20
9221.00,1.20
9220.00,1.20
9219.00,1.20
9218.00,1.20
9217.00,1.20
9216.00,1.20
9215.00,1.20
9214.00,1.20
9213.00,1.20
9212.00,1.20
9211.00,1.20
9210.00,1.19
9209.00,1.19
9208.00,1.19
9207.00,1.19
9206.00,1.19
9205.00,1.19
9204.00,1.19
9203.00,1.19
9202.00,1.19
9201.00,1.19
9200.00,1.19
9199.00,1.19
9198.00,1.19
9197.00,1.19
9196.00,1.19
9195.00,1.19
9194.00,1.19
9193.00,1.19
9192.00,1.19
9191.00,1.18
9190.00,1.18
9189.00,1.18
9188.00,1.18
9187.00,1.18
9186.00,1.18
9185.00,1.18
9184.00,1.18
9183.00,1.18
9182.00,1.18
9181.00,1.18
9180.00,1.18
9179.00,1.18
9178.00,1.18
9177.00,1.18
9176.00,1.18
9175.00,1.18
9174.00,1.18
9173.00,1.18
9172.00,1.18
9171.00,1.18
9170.00,1.18
9169.00,1.18
9168.00,1.18
9167.00,1.18
9166.00,1.18
9165.00,1.17
9164.00,1.17
9163.00,1.17
9162.00,1.17
9161.00,1.17
9160.00,1.17
9159.00,1.17
9158.00,1.18
9157.00,1.18
9156.00,1.18
9155.00,1.18
9154.00,1.19
9153.00,1.19
9152.00,1.19
9151.00,1.20
9150.00,1.20
9149.00,1.20
9148.00,1.21
9147.00,1.21
9146.00,1.21
9145.00,1.21
9144.00,1.22
9143.00,1.22
9142.00,1.22
9141.00,1.22
9140.00,1.22
9139.00,1.22
9138.00,1.21
9137.00,1.21
9136.00,1.21
9135.00,1.21
9134.00,1.21
9133.00,1.20
9132.00,1.20
9131.00,1.20
9130.00,1.20
9129.00,1.20
9128.00,1.20
9127.00,1.19
9126.00,1.19
9125.00,1.19
9124.00,1.19
9123.00,1.19
9122.00,1.19
9121.00,1.19
9120.00,1.19
9119.00,1.19
9118.00,1.20
9117.00,1.20
9116.00,1.20
9115.00,1.20
9114.00,1.20
9113.00,1.20
9112.00,1.20
9111.00,1.20
9110.00,1.20
9109.00,1.20
9108.00,1.19
9107.00,1.19
9106.00,1.19
9105.00,1.19
9104.00,1.19
9103.00,1.19
9102.00,1.19
9101.00,1.19
9100.00,1.19
9099.00,1.19
9098.00,1.19
9097.00,1.19
9096.00,1.19
9095.00,1.19
9094.00,1.19
9093.00,1.19
9092.00,1.19
9091.00,1.20
9090.00,1.20
9089.00,1.20
9088.00,1.20
9087.00,1.20
9086.00,1.20
9085.00,1.19
9084.00,1.19
9083.00,1.19
9082.00,1.19
9081.00,1.19
9080.00,1.19
9079.00,1.19
9078.00,1.19
9077.00,1.19
9076.00,1.19
9075.00,1.19
9074.00,1.18
9073.00,1.18
9072.00,1.18
9071.00,1.18
9070.00,1.18
9069.00,1.18
9068.00,1.19
9067.00,1.19
9066.00,1.19
9065.00,1.19
9064.00,1.19
9063.00,1.19
9062.00,1.19
9061.00,1.19
9060.00,1.20
9059.00,1.20
9058.00,1.20
9057.00,1.20
9056.00,1.20
9055.00,1.20
9054.00,1.20
9053.00,1.20
9052.00,1.20
9051.00,1.19
9050.00,1.19
9049.00,1.19
9048.00,1.19
9047.00,1.19
9046.00,1.19
9045.00,1.19
9044.00,1.19
9043.00,1.19
9042.00,1.19
9041.00,1.19
9040.00,1.19
9039.00,1.19
9038.00,1.19
9037.00,1.19
9036.00,1.19
9035.00,1.19
9034.00,1.19
9033.00,1.19
9032.00,1.19
9031.00,1.19
9030.00,1.19
9029.00,1.19
9028.00,1.18
9027.00,1.18
9026.00,1.18
9025.00,1.18
9024.00,1.18
9023.00,1.18
9022.00,1.18
9021.00,1.18
9020.00,1.18
9019.00,1.18
9018.00,1.18
9017.00,1.18
9016.00,1.19
9015.00,1.19
9014.00,1.19
9013.00,1.19
9012.00,1.19
9011.00,1.19
9010.00,1.20
9009.00,1.20
9008.00,1.20
9007.00,1.20
9006.00,1.20
9005.00,1.20
9004.00,1.20
9003.00,1.20
9002.00,1.20
9001.00,1.19
9000.00,1.19
8999.00,1.19
8998.00,1.19
8997.00,1.19
8996.00,1.19
8995.00,1.19
8994.00,1.18
8993.00,1.18
8992.00,1.18
8991.00,1.18
8990.00,1.18
8989.00,1.18
8988.00,1.18
8987.00,1.17
8986.00,1.17
8985.00,1.17
8984.00,1.17
8983.00,1.17
8982.00,1.17
8981.00,1.17
8980.00,1.17
8979.00,1.17
8978.00,1.17
8977.00,1.18
8976.00,1.18
8975.00,1.18
8974.00,1.18
8973.00,1.18
8972.00,1.18
8971.00,1.18
8970.00,1.18
8969.00,1.18
8968.00,1.18
8967.00,1.18
8966.00,1.18
8965.00,1.18
8964.00,1.19
8963.00,1.19
8962.00,1.19
8961.00,1.19
8960.00,1.19
8959.00,1.19
8958.00,1.19
8957.00,1.20
8956.00,1.20
8955.00,1.20
8954.00,1.20
8953.00,1.20
8952.00,1.20
8951.00,1.21
8950.00,1.21
8949.00,1.21
8948.00,1.21
8947.00,1.21
8946.00,1.21
8945.00,1.21
8944.00,1.21
8943.00,1.21
8942.00,1.21
8941.00,1.21
8940.00,1.21
8939.00,1.21
8938.00,1.21
8937.00,1.22
8936.00,1.22
8935.00,1.22
8934.00,1.22
8933.00,1.22
8932.00,1.22
8931.00,1.22
8930.00,1.22
8929.00,1.22
8928.00,1.22
8927.00,1.22
8926.00,1.22
8925.00,1.22
8924.00,1.22
8923.00,1.22
8922.00,1.22
8921.00,1.22
8920.00,1.22
8919.00,1.22
8918.00,1.21
8917.00,1.21
8916.00,1.21
8915.00,1.21
8914.00,1.21
8913.00,1.21
8912.00,1.21
8911.00,1.21
8910.00,1.20
8909.00,1.20
8908.00,1.20
8907.00,1.20
8906.00,1.20
8905.00,1.20
8904.00,1.20
8903.00,1.20
8902.00,1.20
8901.00,1.20
8900.00,1.20
8899.00,1.20
8898.00,1.20
8897.00,1.20
8896.00,1.19
8895.00,1.19
8894.00,1.19
8893.00,1.19
8892.00,1.19
8891.00,1.19
8890.00,1.19
8889.00,1.19
8888.00,1.19
8887.00,1.19
8886.00,1.19
8885.00,1.19
8884.00,1.19
8883.00,1.19
8882.00,1.19
8881.00,1.19
8880.00,1.19
8879.00,1.19
8878.00,1.19
8877.00,1.19
8876.00,1.19
8875.00,1.19
8874.00,1.19
8873.00,1.19
8872.00,1.19
8871.00,1.19
8870.00,1.19
8869.00,1.19
8868.00,1.19
8867.00,1.19
8866.00,1.19
8865.00,1.20
8864.00,1.20
8863.00,1.20
8862.00,1.20
8861.00,1.20
8860.00,1.20
8859.00,1.20
8858.00,1.20
8857.00,1.20
8856.00,1.20
8855.00,1.20
8854.00,1.19
8853.00,1.19
8852.00,1.19
8851.00,1.19
8850.00,1.19
8849.00,1.19
8848.00,1.19
8847.00,1.19
8846.00,1.19
8845.00,1.19
8844.00,1.19
8843.00,1.19
8842.00,1.19
8841.00,1.19
8840.00,1.19
8839.00,1.19
8838.00,1.19
8837.00,1.19
8836.00,1.19
8835.00,1.19
8834.00,1.19
8833.00,1.19
8832.00,1.19
8831.00,1.20
8830.00,1.20
8829.00,1.20
8828.00,1.20
8827.00,1.20
8826.00,1.20
8825.00,1.20
8824.00,1.20
8823.00,1.20
8822.00,1.20
8821.00,1.20
8820.00,1.20
8819.00,1.20
8818.00,1.20
8817.00,1.20
8816.00,1.20
8815.00,1.20
8814.00,1.20
8813.00,1.20
8812.00,1.19
8811.00,1.19
8810.00,1.19
8809.00,1.19
8808.00,1.19
8807.00,1.19
8806.00,1.18
8805.00,1.18
8804.00,1.18
8803.00,1.18
8802.00,1.18
8801.00,1.18
8800.00,1.18
8799.00,1.18
8798.00,1.18
8797.00,1.18
8796.00,1.18
8795.00,1.18
8794.00,1.18
8793.00,1.18
8792.00,1.18
8791.00,1.18
8790.00,1.18
8789.00,1.19
8788.00,1.19
8787.00,1.19
8786.00,1.19
8785.00,1.19
8784.00,1.19
8783.00,1.19
8782.00,1.18
8781.00,1.18
8780.00,1.18
8779.00,1.18
8778.00,1.18
8777.00,1.18
8776.00,1.17
8775.00,1.17
8774.00,1.17
8773.00,1.17
8772.00,1.16
8771.00,1.16
8770.00,1.16
8769.00,1.16
8768.00,1.15
8767.00,1.15
8766.00,1.15
8765.00,1.15
8764.00,1.15
8763.00,1.15
8762.00,1.15
8761.00,1.15
8760.00,1.14
8759.00,1.14
8758.00,1.14
8757.00,1.14
8756.00,1.14
8755.00,1.15
8754.00,1.15
8753.00,1.15
8752.00,1.15
8751.00,1.15
8750.00,1.15
8749.00,1.15
8748.00,1.15
8747.00,1.15
8746.00,1.15
8745.00,1.15
8744.00,1.15
8743.00,1.15
8742.00,1.15
8741.00,1.15
8740.00,1.15
8739.00,1.15
8738.00,1.15
8737.00,1.16
8736.00,1.16
8735.00,1.16
8734.00,1.16
8733.00,1.16
8732.00,1.16
8731.00,1.16
8730.00,1.16
8729.00,1.15
8728.00,1.15
8727.00,1.15
8726.00,1.15
8725.00,1.15
8724.00,1.15
8723.00,1.15
8722.00,1.15
8721.00,1.15
8720.00,1.15
8719.00,1.15
8718.00,1.15
8717.00,1.15
8716.00,1.15
8715.00,1.15
8714.00,1.15
8713.00,1.14
8712.00,1.14
8711.00,1.14
8710.00,1.14
8709.00,1.14
8708.00,1.14
8707.00,1.14
8706.00,1.14
8705.00,1.14
8704.00,1.14
8703.00,1.14
8702.00,1.14
8701.00,1.14
8700.00,1.14
8699.00,1.14
8698.00,1.14
8697.00,1.14
8696.00,1.14
8695.00,1.14
8694.00,1.14
8693.00,1.14
8692.00,1.14
8691.00,1.14
8690.00,1.14
8689.00,1.14
8688.00,1.14
8687.00,1.14
8686.00,1.14
8685.00,1.14
8684.00,1.14
8683.00,1.14
8682.00,1.14
8681.00,1.14
8680.00,1.15
8679.00,1.15
8678.00,1.15
8677.00,1.15
8676.00,1.15
8675.00,1.15
8674.00,1.15
8673.00,1.14
8672.00,1.14
8671.00,1.14
8670.00,1.14
8669.00,1.14
8668.00,1.14
8667.00,1.14
8666.00,1.14
8665.00,1.14
8664.00,1.14
8663.00,1.14
8662.00,1.14
8661.00,1.14
8660.00,1.14
8659.00,1.14
8658.00,1.14
8657.00,1.13
8656.00,1.13
8655.00,1.13
8654.00,1.13
8653.00,1.13
8652.00,1.13
8651.00,1.13
8650.00,1.13
8649.00,1.13
8648.00,1.13
8647.00,1.13
8646.00,1.13
8645.00,1.13
8644.00,1.13
8643.00,1.13
8642.00,1.13
8641.00,1.13
8640.00,1.13
8639.00,1.13
8638.00,1.13
8637.00,1.13
8636.00,1.13
8635.00,1.13
8634.00,1.13
8633.00,1.13
8632.00,1.13
8631.00,1.13
8630.00,1.13
8629.00,1.13
8628.00,1.13
8627.00,1.13
8626.00,1.13
8625.00,1.12
8624.00,1.12
8623.00,1.12
8622.00,1.12
8621.00,1.12
8620.00,1.12
8619.00,1.12
8618.00,1.12
8617.00,1.12
8616.00,1.12
8615.00,1.12
8614.00,1.12
8613.00,1.12
8612.00,1.12
8611.00,1.12
8610.00,1.12
8609.00,1.12
8608.00,1.12
8607.00,1.12
8606.00,1.12
8605.00,1.12
8604.00,1.12
8603.00,1.12
8602.00,1.12
8601.00,1.12
8600.00,1.12
8599.00,1.12
8598.00,1.12
8597.00,1.12
8596.00,1.12
8595.00,1.12
8594.00,1.12
8593.00,1.12
8592.00,1.12
8591.00,1.12
8590.00,1.12
8589.00,1.12
8588.00,1.12
8587.00,1.11
8586.00,1.11
8585.00,1.11
8584.00,1.11
8583.00,1.11
8582.00,1.10
8581.00,1.10
8580.00,1.10
8579.00,1.10
8578.00,1.10
8577.00,1.10
8576.00,1.10
8575.00,1.10
8574.00,1.09
8573.00,1.09
8572.00,1.09
8571.00,1.09
8570.00,1.09
8569.00,1.09
8568.00,1.10
8567.00,1.10
8566.00,1.10
8565.00,1.10
8564.00,1.10
8563.00,1.10
8562.00,1.10
8561.00,1.10
8560.00,1.10
8559.00,1.10
8558.00,1.10
8557.00,1.10
8556.00,1.10
8555.00,1.10
8554.00,1.10
8553.00,1.10
8552.00,1.10
8551.00,1.10
8550.00,1.10
8549.00,1.10
8548.00,1.10
8547.00,1.10
8546.00,1.10
8545.00,1.10
8544.00,1.10
8543.00,1.10
8542.00,1.10
8541.00,1.09
8540.00,1.09
8539.00,1.09
8538.00,1.09
8537.00,1.09
8536.00,1.09
8535.00,1.09
8534.00,1.09
8533.00,1.09
8532.00,1.09
8531.00,1.08
8530.00,1.08
8529.00,1.08
8528.00,1.08
8527.00,1.08
8526.00,1.08
8525.00,1.08
8524.00,1.08
8523.00,1.08
8522.00,1.08
8521.00,1.08
8520.00,1.08
8519.00,1.08
8518.00,1.08
8517.00,1.09
8516.00,1.09
8515.00,1.09
8514.00,1.09
8513.00,1.09
8512.00,1.09
8511.00,1.09
8510.00,1.09
8509.00,1.09
8508.00,1.09
8507.00,1.09
8506.00,1.09
8505.00,1.08
8504.00,1.08
8503.00,1.08
8502.00,1.08
8501.00,1.08
8500.00,1.08
8499.00,1.08
8498.00,1.08
8497.00,1.08
8496.00,1.08
8495.00,1.08
8494.00,1.07
8493.00,1.07
8492.00,1.07
8491.00,1.07
8490.00,1.07
8489.00,1.07
8488.00,1.07
8487.00,1.07
8486.00,1.06
8485.00,1.06
8484.00,1.06
8483.00,1.06
8482.00,1.06
8481.00,1.06
8480.00,1.06
8479.00,1.06
8478.00,1.06
8477.00,1.06
8476.00,1.06
8475.00,1.06
8474.00,1.06
8473.00,1.06
8472.00,1.06
8471.00,1.06
8470.00,1.06
8469.00,1.06
8468.00,1.06
8467.00,1.06
8466.00,1.06
8465.00,1.06
8464.00,1.06
8463.00,1.05
8462.00,1.05
8461.00,1.05
8460.00,1.05
8459.00,1.05
8458.00,1.05
8457.00,1.05
8456.00,1.05
8455.00,1.05
8454.00,1.04
8453.00,1.04
8452.00,1.04
8451.00,1.04
8450.00,1.04
8449.00,1.04
8448.00,1.04
8447.00,1.04
8446.00,1.04
8445.00,1.04
8444.00,1.04
8443.00,1.04
8442.00,1.04
8441.00,1.04
8440.00,1.04
8439.00,1.04
8438.00,1.04
8437.00,1.04
8436.00,1.04
8435.00,1.04
8434.00,1.04
8433.00,1.04
8432.00,1.05
8431.00,1.05
8430.00,1.05
8429.00,1.05
8428.00,1.05
8427.00,1.05
8426.00,1.05
8425.00,1.05
8424.00,1.05
8423.00,1.05
8422.00,1.05
8421.00,1.05
8420.00,1.05
8419.00,1.05
8418.00,1.05
8417.00,1.05
8416.00,1.05
8415.00,1.05
8414.00,1.05
8413.00,1.05
8412.00,1.05
8411.00,1.05
8410.00,1.05
8409.00,1.05
8408.00,1.05
8407.00,1.05
8406.00,1.05
8405.00,1.05
8404.00,1.05
8403.00,1.05
8402.00,1.05
8401.00,1.05
8400.00,1.06
8399.00,1.06
8398.00,1.06
8397.00,1.06
8396.00,1.06
8395.00,1.06
8394.00,1.06
8393.00,1.06
8392.00,1.06
8391.00,1.06
8390.00,1.06
8389.00,1.06
8388.00,1.06
8387.00,1.06
8386.00,1.06
8385.00,1.06
8384.00,1.06
8383.00,1.06
8382.00,1.07
8381.00,1.07
8380.00,1.07
8379.00,1.07
8378.00,1.07
8377.00,1.07
8376.00,1.08
8375.00,1.08
8374.00,1.08
8373.00,1.08
8372.00,1.09
8371.00,1.09
8370.00,1.09
8369.00,1.09
8368.00,1.09
8367.00,1.09
8366.00,1.09
8365.00,1.09
8364.00,1.09
8363.00,1.09
8362.00,1.09
8361.00,1.09
8360.00,1.09
8359.00,1.09
8358.00,1.09
8357.00,1.09
8356.00,1.09
8355.00,1.09
8354.00,1.09
8353.00,1.09
8352.00,1.09
8351.00,1.09
8350.00,1.09
8349.00,1.09
8348.00,1.09
8347.00,1.09
8346.00,1.08
8345.00,1.08
8344.00,1.08
8343.00,1.08
8342.00,1.08
8341.00,1.08
8340.00,1.08
8339.00,1.09
8338.00,1.09
8337.00,1.09
8336.00,1.09
8335.00,1.09
8334.00,1.09
8333.00,1.09
8332.00,1.09
8331.00,1.09
8330.00,1.08
8329.00,1.08
8328.00,1.08
8327.00,1.08
8326.00,1.08
8325.00,1.08
8324.00,1.08
8323.00,1.08
8322.00,1.08
8321.00,1.09
8320.00,1.09
8319.00,1.09
8318.00,1.09
8317.00,1.09
8316.00,1.09
8315.00,1.09
8314.00,1.09
8313.00,1.09
8312.00,1.09
8311.00,1.09
8310.00,1.09
8309.00,1.10
8308.00,1.10
8307.00,1.10
8306.00,1.10
8305.00,1.10
8304.00,1.10
8303.00,1.10
8302.00,1.10
8301.00,1.10
8300.00,1.10
8299.00,1.10
8298.00,1.09
8297.00,1.09
8296.00,1.09
8295.00,1.09
8294.00,1.09
8293.00,1.09
8292.00,1.09
8291.00,1.09
8290.00,1.09
8289.00,1.09
8288.00,1.09
8287.00,1.09
8286.00,1.09
8285.00,1.09
8284.00,1.09
8283.00,1.09
8282.00,1.08
8281.00,1.08
8280.00,1.08
8279.00,1.08
8278.00,1.08
8277.00,1.08
8276.00,1.08
8275.00,1.08
8274.00,1.08
8273.00,1.09
8272.00,1.09
8271.00,1.09
8270.00,1.09
8269.00,1.09
8268.00,1.09
8267.00,1.09
8266.00,1.09
8265.00,1.09
8264.00,1.09
8263.00,1.09
8262.00,1.09
8261.00,1.09
8260.00,1.09
8259.00,1.10
8258.00,1.10
8257.00,1.10
8256.00,1.10
8255.00,1.10
8254.00,1.10
8253.00,1.10
8252.00,1.10
8251.00,1.10
8250.00,1.10
8249.00,1.10
8248.00,1.10
8247.00,1.10
8246.00,1.10
8245.00,1.11
8244.00,1.11
8243.00,1.11
8242.00,1.11
8241.00,1.11
8240.00,1.11
8239.00,1.11
8238.00,1.11
8237.00,1.12
8236.00,1.12
8235.00,1.12
8234.00,1.12
8233.00,1.12
8232.00,1.12
8231.00,1.12
8230.00,1.12
8229.00,1.12
8228.00,1.12
8227.00,1.12
8226.00,1.12
8225.00,1.12
8224.00,1.12
8223.00,1.11
8222.00,1.11
8221.00,1.11
8220.00,1.11
8219.00,1.11
8218.00,1.11
8217.00,1.11
8216.00,1.11
8215.00,1.11
8214.00,1.11
8213.00,1.11
8212.00,1.12
8211.00,1.12
8210.00,1.12
8209.00,1.12
8208.00,1.12
8207.00,1.12
8206.00,1.12
8205.00,1.12
8204.00,1.12
8203.00,1.12
8202.00,1.12
8201.00,1.12
8200.00,1.12
8199.00,1.12
8198.00,1.12
8197.00,1.12
8196.00,1.12
8195.00,1.12
8194.00,1.12
8193.00,1.12
8192.00,1.12
8191.00,1.12
8190.00,1.12
8189.00,1.12
8188.00,1.12
8187.00,1.12
8186.00,1.12
8185.00,1.12
8184.00,1.12
8183.00,1.12
8182.00,1.12
8181.00,1.13
8180.00,1.13
8179.00,1.13
8178.00,1.13
8177.00,1.13
8176.00,1.13
8175.00,1.13
8174.00,1.13
8173.00,1.13
8172.00,1.13
8171.00,1.13
8170.00,1.13
8169.00,1.13
8168.00,1.13
8167.00,1.13
8166.00,1.13
8165.00,1.13
8164.00,1.13
8163.00,1.13
8162.00,1.13
8161.00,1.13
8160.00,1.13
8159.00,1.13
8158.00,1.13
8157.00,1.13
8156.00,1.13
8155.00,1.13
8154.00,1.13
8153.00,1.14
8152.00,1.14
8151.00,1.14
8150.00,1.14
8149.00,1.14
8148.00,1.14
8147.00,1.14
8146.00,1.14
8145.00,1.14
8144.00,1.14
8143.00,1.14
8142.00,1.14
8141.00,1.14
8140.00,1.14
8139.00,1.14
8138.00,1.14
8137.00,1.14
8136.00,1.14
8135.00,1.14
8134.00,1.14
8133.00,1.14
8132.00,1.14
8131.00,1.14
8130.00,1.14
8129.00,1.14
8128.00,1.14
8127.00,1.14
8126.00,1.14
8125.00,1.14
8124.00,1.14
8123.00,1.15
8122.00,1.15
8121.00,1.15
8120.00,1.15
8119.00,1.15
8118.00,1.15
8117.00,1.15
8116.00,1.15
8115.00,1.15
8114.00,1.15
8113.00,1.15
8112.00,1.15
8111.00,1.15
8110.00,1.15
8109.00,1.15
8108.00,1.15
8107.00,1.16
8106.00,1.16
8105.00,1.16
8104.00,1.16
8103.00,1.16
8102.00,1.16
8101.00,1.16
8100.00,1.16
8099.00,1.16
8098.00,1.16
8097.00,1.16
8096.00,1.16
8095.00,1.16
8094.00,1.16
8093.00,1.16
8092.00,1.16
8091.00,1.16
8090.00,1.16
8089.00,1.16
8088.00,1.16
8087.00,1.16
8086.00,1.16
8085.00,1.16
8084.00,1.16
8083.00,1.16
8082.00,1.16
8081.00,1.16
8080.00,1.16
8079.00,1.16
8078.00,1.16
8077.00,1.16
8076.00,1.16
8075.00,1.16
8074.00,1.16
8073.00,1.16
8072.00,1.16
8071.00,1.16
8070.00,1.16
8069.00,1.16
8068.00,1.16
8067.00,1.16
8066.00,1.16
8065.00,1.16
8064.00,1.16
8063.00,1.16
8062.00,1.16
8061.00,1.16
8060.00,1.16
8059.00,1.16
8058.00,1.16
8057.00,1.16
8056.00,1.16
8055.00,1.16
8054.00,1.17
8053.00,1.17
8052.00,1.17
8051.00,1.17
8050.00,1.17
8049.00,1.17
8048.00,1.17
8047.00,1.18
8046.00,1.18
8045.00,1.18
8044.00,1.18
8043.00,1.18
8042.00,1.18
8041.00,1.18
8040.00,1.18
8039.00,1.18
8038.00,1.18
8037.00,1.18
8036.00,1.18
8035.00,1.18
8034.00,1.18
8033.00,1.18
8032.00,1.18
8031.00,1.18
8030.00,1.18
8029.00,1.18
8028.00,1.18
8027.00,1.18
8026.00,1.18
8025.00,1.18
8024.00,1.18
8023.00,1.18
8022.00,1.18
8021.00,1.18
8020.00,1.18
8019.00,1.18
8018.00,1.18
8017.00,1.18
8016.00,1.18
8015.00,1.18
8014.00,1.18
8013.00,1.18
8012.00,1.18
8011.00,1.18
8010.00,1.17
8009.00,1.17
8008.00,1.17
8007.00,1.17
8006.00,1.17
8005.00,1.17
8004.00,1.17
8003.00,1.17
8002.00,1.17
8001.00,1.17
8000.00,1.17
7999.00,1.17
7998.00,1.17
7997.00,1.17
7996.00,1.17
7995.00,1.17
7994.00,1.17
7993.00,1.17
7992.00,1.17
7991.00,1.17
7990.00,1.17
7989.00,1.17
7988.00,1.17
7987.00,1.17
7986.00,1.17
7985.00,1.17
7984.00,1.17
7983.00,1.17
7982.00,1.17
7981.00,1.17
7980.00,1.17
7979.00,1.17
7978.00,1.17
7977.00,1.18
7976.00,1.18
7975.00,1.18
7974.00,1.18
7973.00,1.18
7972.00,1.18
7971.00,1.18
7970.00,1.18
7969.00,1.18
7968.00,1.18
7967.00,1.18
7966.00,1.18
7965.00,1.18
7964.00,1.18
7963.00,1.18
7962.00,1.18
7961.00,1.18
7960.00,1.18
7959.00,1.18
7958.00,1.18
7957.00,1.18
7956.00,1.18
7955.00,1.18
7954.00,1.18
7953.00,1.18
7952.00,1.18
7951.00,1.18
7950.00,1.17
7949.00,1.17
7948.00,1.17
7947.00,1.17
7946.00,1.17
7945.00,1.17
7944.00,1.17
7943.00,1.17
7942.00,1.17
7941.00,1.17
7940.00,1.17
7939.00,1.17
7938.00,1.18
7937.00,1.18
7936.00,1.18
7935.00,1.18
7934.00,1.18
7933.00,1.18
7932.00,1.18
7931.00,1.18
7930.00,1.18
7929.00,1.18
7928.00,1.18
7927.00,1.18
7926.00,1.19
7925.00,1.19
7924.00,1.19
7923.00,1.19
7922.00,1.19
7921.00,1.19
7920.00,1.19
7919.00,1.19
7918.00,1.19
7917.00,1.19
7916.00,1.19
7915.00,1.19
7914.00,1.19
7913.00,1.19
7912.00,1.20
7911.00,1.20
7910.00,1.20
7909.00,1.20
7908.00,1.20
7907.00,1.20
7906.00,1.20
7905.00,1.20
7904.00,1.20
7903.00,1.19
7902.00,1.19
7901.00,1.19
7900.00,1.19
7899.00,1.19
7898.00,1.19
7897.00,1.19
7896.00,1.19
7895.00,1.19
7894.00,1.19
7893.00,1.19
7892.00,1.19
7891.00,1.19
7890.00,1.19
7889.00,1.19
7888.00,1.19
7887.00,1.19
7886.00,1.19
7885.00,1.19
7884.00,1.19
7883.00,1.19
7882.00,1.19
7881.00,1.19
7880.00,1.19
7879.00,1.19
7878.00,1.19
7877.00,1.19
7876.00,1.19
7875.00,1.19
7874.00,1.19
7873.00,1.19
7872.00,1.19
7871.00,1.19
7870.00,1.19
7869.00,1.19
7868.00,1.19
7867.00,1.19
7866.00,1.19
7865.00,1.19
7864.00,1.19
7863.00,1.19
7862.00,1.19
7861.00,1.19
7860.00,1.20
7859.00,1.20
7858.00,1.20
7857.00,1.20
7856.00,1.20
7855.00,1.20
7854.00,1.20
7853.00,1.20
7852.00,1.21
7851.00,1.21
7850.00,1.21
7849.00,1.21
7848.00,1.21
7847.00,1.21
7846.00,1.21
7845.00,1.21
7844.00,1.21
7843.00,1.21
7842.00,1.21
7841.00,1.20
7840.00,1.20
7839.00,1.20
7838.00,1.20
7837.00,1.20
7836.00,1.20
7835.00,1.20
7834.00,1.20
7833.00,1.20
7832.00,1.20
7831.00,1.20
7830.00,1.20
7829.00,1.20
7828.00,1.19
7827.00,1.19
7826.00,1.19
7825.00,1.19
7824.00,1.19
7823.00,1.19
7822.00,1.19
7821.00,1.19
7820.00,1.19
7819.00,1.19
7818.00,1.19
7817.00,1.19
7816.00,1.19
7815.00,1.19
7814.00,1.19
7813.00,1.19
7812.00,1.19
7811.00,1.19
7810.00,1.19
7809.00,1.20
7808.00,1.20
7807.00,1.20
7806.00,1.20
7805.00,1.20
7804.00,1.20
7803.00,1.20
7802.00,1.20
7801.00,1.20
7800.00,1.20
7799.00,1.20
7798.00,1.20
7797.00,1.20
7796.00,1.20
7795.00,1.20
7794.00,1.20
7793.00,1.20
7792.00,1.20
7791.00,1.20
7790.00,1.20
7789.00,1.20
7788.00,1.20
7787.00,1.20
7786.00,1.20
7785.00,1.20
7784.00,1.20
7783.00,1.20
7782.00,1.20
7781.00,1.20
7780.00,1.20
7779.00,1.20
7778.00,1.21
7777.00,1.21
7776.00,1.21
7775.00,1.21
7774.00,1.21
7773.00,1.21
7772.00,1.21
7771.00,1.20
7770.00,1.20
7769.00,1.20
7768.00,1.20
7767.00,1.20
7766.00,1.20
7765.00,1.20
7764.00,1.20
7763.00,1.20
7762.00,1.20
7761.00,1.20
7760.00,1.20
7759.00,1.20
7758.00,1.20
7757.00,1.20
7756.00,1.20
7755.00,1.20
7754.00,1.20
7753.00,1.20
7752.00,1.20
7751.00,1.20
7750.00,1.20
7749.00,1.20
7748.00,1.20
7747.00,1.20
7746.00,1.20
7745.00,1.20
7744.00,1.20
7743.00,1.20
7742.00,1.20
7741.00,1.20
7740.00,1.21
7739.00,1.21
7738.00,1.21
7737.00,1.21
7736.00,1.21
7735.00,1.21
7734.00,1.21
7733.00,1.21
7732.00,1.21
7731.00,1.21
7730.00,1.21
7729.00,1.21
7728.00,1.21
7727.00,1.21
7726.00,1.21
7725.00,1.21
7724.00,1.21
7723.00,1.21
7722.00,1.21
7721.00,1.21
7720.00,1.21
7719.00,1.21
7718.00,1.21
7717.00,1.21
7716.00,1.21
7715.00,1.21
7714.00,1.21
7713.00,1.21
7712.00,1.21
7711.00,1.21
7710.00,1.21
7709.00,1.21
7708.00,1.21
7707.00,1.21
7706.00,1.21
7705.00,1.21
7704.00,1.21
7703.00,1.21
7702.00,1.21
7701.00,1.21
7700.00,1.21
7699.00,1.21
7698.00,1.21
7697.00,1.22
7696.00,1.22
7695.00,1.22
7694.00,1.22
7693.00,1.22
7692.00,1.22
7691.00,1.22
7690.00,1.22
7689.00,1.22
7688.00,1.22
7687.00,1.22
7686.00,1.22
7685.00,1.22
7684.00,1.22
7683.00,1.22
7682.00,1.22
7681.00,1.22
7680.00,1.22
7679.00,1.22
7678.00,1.22
7677.00,1.22
7676.00,1.22
7675.00,1.22
7674.00,1.22
7673.00,1.22
7672.00,1.22
7671.00,1.22
7670.00,1.22
7669.00,1.22
7668.00,1.22
7667.00,1.22
7666.00,1.22
7665.00,1.22
7664.00,1.22
7663.00,1.22
7662.00,1.22
7661.00,1.22
7660.00,1.22
7659.00,1.22
7658.00,1.22
7657.00,1.22
7656.00,1.22
7655.00,1.22
7654.00,1.22
7653.00,1.22
7652.00,1.22
7651.00,1.22
7650.00,1.22
7649.00,1.22
7648.00,1.22
7647.00,1.22
7646.00,1.22
7645.00,1.22
7644.00,1.22
7643.00,1.22
7642.00,1.22
7641.00,1.22
7640.00,1.22
7639.00,1.22
7638.00,1.22
7637.00,1.22
7636.00,1.22
7635.00,1.22
7634.00,1.22
7633.00,1.21
7632.00,1.21
7631.00,1.22
7630.00,1.22
7629.00,1.22
7628.00,1.22
7627.00,1.22
7626.00,1.22
7625.00,1.22
7624.00,1.22
7623.00,1.22
7622.00,1.22
7621.00,1.22
7620.00,1.22
7619.00,1.22
7618.00,1.22
7617.00,1.22
7616.00,1.22
7615.00,1.22
7614.00,1.21
7613.00,1.21
7612.00,1.21
7611.00,1.21
7610.00,1.21
7609.00,1.21
7608.00,1.21
7607.00,1.21
7606.00,1.21
7605.00,1.21
7604.00,1.22
7603.00,1.22
7602.00,1.22
7601.00,1.22
7600.00,1.22
7599.00,1.22
7598.00,1.22
7597.00,1.22
7596.00,1.22
7595.00,1.22
7594.00,1.22
7593.00,1.22
7592.00,1.22
7591.00,1.22
7590.00,1.21
7589.00,1.21
7588.00,1.21
7587.00,1.21
7586.00,1.21
7585.00,1.21
7584.00,1.21
7583.00,1.21
7582.00,1.21
7581.00,1.21
7580.00,1.21
7579.00,1.21
7578.00,1.21
7577.00,1.21
7576.00,1.21
7575.00,1.21
7574.00,1.21
7573.00,1.21
7572.00,1.21
7571.00,1.21
7570.00,1.21
7569.00,1.21
7568.00,1.21
7567.00,1.21
7566.00,1.21
7565.00,1.21
7564.00,1.21
7563.00,1.21
7562.00,1.21
7561.00,1.21
7560.00,1.21
7559.00,1.21
7558.00,1.21
7557.00,1.21
7556.00,1.21
7555.00,1.21
7554.00,1.21
7553.00,1.21
7552.00,1.21
7551.00,1.21
7550.00,1.21
7549.00,1.21
7548.00,1.21
7547.00,1.21
7546.00,1.21
7545.00,1.21
7544.00,1.21
7543.00,1.21
7542.00,1.21
7541.00,1.21
7540.00,1.21
7539.00,1.21
7538.00,1.21
7537.00,1.21
7536.00,1.21
7535.00,1.20
7534.00,1.20
7533.00,1.20
7532.00,1.20
7531.00,1.20
7530.00,1.20
7529.00,1.20
7528.00,1.20
7527.00,1.20
7526.00,1.20
7525.00,1.20
7524.00,1.20
7523.00,1.20
7522.00,1.20
7521.00,1.20
7520.00,1.20
7519.00,1.20
7518.00,1.20
7517.00,1.20
7516.00,1.20
7515.00,1.20
7514.00,1.20
7513.00,1.20
7512.00,1.20
7511.00,1.20
7510.00,1.20
7509.00,1.20
7508.00,1.20
7507.00,1.20
7506.00,1.20
7505.00,1.20
7504.00,1.20
7503.00,1.20
7502.00,1.20
7501.00,1.20
7500.00,1.20
7499.00,1.20
7498.00,1.20
7497.00,1.20
7496.00,1.20
7495.00,1.20
7494.00,1.20
7493.00,1.20
7492.00,1.20
7491.00,1.20
7490.00,1.20
7489.00,1.19
7488.00,1.19
7487.00,1.19
7486.00,1.19
7485.00,1.19
7484.00,1.19
7483.00,1.19
7482.00,1.19
7481.00,1.19
7480.00,1.19
7479.00,1.19
7478.00,1.18
7477.00,1.18
7476.00,1.18
7475.00,1.18
7474.00,1.18
7473.00,1.18
7472.00,1.18
7471.00,1.18
7470.00,1.18
7469.00,1.17
7468.00,1.17
7467.00,1.17
7466.00,1.17
7465.00,1.17
7464.00,1.17
7463.00,1.17
7462.00,1.17
7461.00,1.17
7460.00,1.17
7459.00,1.17
7458.00,1.17
7457.00,1.17
7456.00,1.17
7455.00,1.17
7454.00,1.17
7453.00,1.17
7452.00,1.17
7451.00,1.17
7450.00,1.17
7449.00,1.17
7448.00,1.17
7447.00,1.17
7446.00,1.17
7445.00,1.17
7444.00,1.17
7443.00,1.17
7442.00,1.17
7441.00,1.17
7440.00,1.17
7439.00,1.17
7438.00,1.17
7437.00,1.17
7436.00,1.17
7435.00,1.17
7434.00,1.17
7433.00,1.16
7432.00,1.16
7431.00,1.16
7430.00,1.16
7429.00,1.16
7428.00,1.16
7427.00,1.16
7426.00,1.16
7425.00,1.16
7424.00,1.16
7423.00,1.16
7422.00,1.16
7421.00,1.16
7420.00,1.16
7419.00,1.16
7418.00,1.16
7417.00,1.16
7416.00,1.16
7415.00,1.16
7414.00,1.15
7413.00,1.15
7412.00,1.15
7411.00,1.15
7410.00,1.15
7409.00,1.15
7408.00,1.15
7407.00,1.15
7406.00,1.15
7405.00,1.14
7404.00,1.14
7403.00,1.14
7402.00,1.14
7401.00,1.14
7400.00,1.14
7399.00,1.14
7398.00,1.13
7397.00,1.13
7396.00,1.13
7395.00,1.13
7394.00,1.13
7393.00,1.13
7392.00,1.13
7391.00,1.13
7390.00,1.13
7389.00,1.13
7388.00,1.13
7387.00,1.12
7386.00,1.12
7385.00,1.12
7384.00,1.12
7383.00,1.12
7382.00,1.12
7381.00,1.12
7380.00,1.12
7379.00,1.12
7378.00,1.11
7377.00,1.11
7376.00,1.11
7375.00,1.11
7374.00,1.11
7373.00,1.11
7372.00,1.11
7371.00,1.11
7370.00,1.11
7369.00,1.11
7368.00,1.11
7367.00,1.11
7366.00,1.11
7365.00,1.11
7364.00,1.11
7363.00,1.11
7362.00,1.11
7361.00,1.11
7360.00,1.11
7359.00,1.12
7358.00,1.12
7357.00,1.12
7356.00,1.12
7355.00,1.12
7354.00,1.11
7353.00,1.11
7352.00,1.11
7351.00,1.11
7350.00,1.11
7349.00,1.11
7348.00,1.11
7347.00,1.11
7346.00,1.11
7345.00,1.11
7344.00,1.11
7343.00,1.11
7342.00,1.10
7341.00,1.10
7340.00,1.10
7339.00,1.10
7338.00,1.10
7337.00,1.10
7336.00,1.10
7335.00,1.10
7334.00,1.10
7333.00,1.10
7332.00,1.10
7331.00,1.10
7330.00,1.10
7329.00,1.10
7328.00,1.10
7327.00,1.10
7326.00,1.10
7325.00,1.10
7324.00,1.10
7323.00,1.10
7322.00,1.10
7321.00,1.09
7320.00,1.09
7319.00,1.09
7318.00,1.09
7317.00,1.09
7316.00,1.09
7315.00,1.09
7314.00,1.09
7313.00,1.09
7312.00,1.09
7311.00,1.09
7310.00,1.09
7309.00,1.08
7308.00,1.08
7307.00,1.08
7306.00,1.08
7305.00,1.08
7304.00,1.08
7303.00,1.08
7302.00,1.08
7301.00,1.08
7300.00,1.08
7299.00,1.08
7298.00,1.08
7297.00,1.08
7296.00,1.08
7295.00,1.08
7294.00,1.07
7293.00,1.07
7292.00,1.07
7291.00,1.07
7290.00,1.07
7289.00,1.07
7288.00,1.07
7287.00,1.07
7286.00,1.07
7285.00,1.07
7284.00,1.07
7283.00,1.07
7282.00,1.07
7281.00,1.07
7280.00,1.07
7279.00,1.06
7278.00,1.06
7277.00,1.06
7276.00,1.06
7275.00,1.06
7274.00,1.06
7273.00,1.06
7272.00,1.06
7271.00,1.06
7270.00,1.06
7269.00,1.06
7268.00,1.06
7267.00,1.05
7266.00,1.05
7265.00,1.05
7264.00,1.05
7263.00,1.05
7262.00,1.05
7261.00,1.05
7260.00,1.04
7259.00,1.04
7258.00,1.04
7257.00,1.04
7256.00,1.04
7255.00,1.04
7254.00,1.04
7253.00,1.03
7252.00,1.03
7251.00,1.03
7250.00,1.03
7249.00,1.03
7248.00,1.02
7247.00,1.02
7246.00,1.02
7245.00,1.01
7244.00,1.01
7243.00,1.01
7242.00,1.00
7241.00,1.00
7240.00,1.00
7239.00,1.00
7238.00,0.99
7237.00,0.99
7236.00,0.99
7235.00,0.98
7234.00,0.98
7233.00,0.98
7232.00,0.98
7231.00,0.98
7230.00,0.97
7229.00,0.97
7228.00,0.97
7227.00,0.97
7226.00,0.97
7225.00,0.96
7224.00,0.96
7223.00,0.96
7222.00,0.96
7221.00,0.96
7220.00,0.95
7219.00,0.95
7218.00,0.95
7217.00,0.94
7216.00,0.94
7215.00,0.94
7214.00,0.94
7213.00,0.93
7212.00,0.93
7211.00,0.93
7210.00,0.92
7209.00,0.92
7208.00,0.92
7207.00,0.92
7206.00,0.91
7205.00,0.91
7204.00,0.91
7203.00,0.91
7202.00,0.91
7201.00,0.90
7200.00,0.90
7199.00,0.90
7198.00,0.90
7197.00,0.90
7196.00,0.90
7195.00,0.90
7194.00,0.89
7193.00,0.89
7192.00,0.89
7191.00,0.89
7190.00,0.89
7189.00,0.88
7188.00,0.88
7187.00,0.88
7186.00,0.88
7185.00,0.87
7184.00,0.87
7183.00,0.87
7182.00,0.87
7181.00,0.86
7180.00,0.86
7179.00,0.86
7178.00,0.85
7177.00,0.85
7176.00,0.85
7175.00,0.85
7174.00,0.84
7173.00,0.84
7172.00,0.84
7171.00,0.83
7170.00,0.83
7169.00,0.83
7168.00,0.83
7167.00,0.82
7166.00,0.82
7165.00,0.82
7164.00,0.82
7163.00,0.81
7162.00,0.81
7161.00,0.81
7160.00,0.81
7159.00,0.80
7158.00,0.80
7157.00,0.80
7156.00,0.80
7155.00,0.80
7154.00,0.79
7153.00,0.79
7152.00,0.79
7151.00,0.79
7150.00,0.79
7149.00,0.78
7148.00,0.78
7147.00,0.78
7146.00,0.78
7145.00,0.78
7144.00,0.78
7143.00,0.77
7142.00,0.77
7141.00,0.77
7140.00,0.77
7139.00,0.77
7138.00,0.76
7137.00,0.76
7136.00,0.76
7135.00,0.76
7134.00,0.75
7133.00,0.75
7132.00,0.75
7131.00,0.75
7130.00,0.74
7129.00,0.74
7128.00,0.74
7127.00,0.74
7126.00,0.73
7125.00,0.73
7124.00,0.73
7123.00,0.73
7122.00,0.72
7121.00,0.72
7120.00,0.72
7119.00,0.72
7118.00,0.71
7117.00,0.71
7116.00,0.71
7115.00,0.71
7114.00,0.71
7113.00,0.70
7112.00,0.70
7111.00,0.70
7110.00,0.70
7109.00,0.70
7108.00,0.70
7107.00,0.69
7106.00,0.69
7105.00,0.69
7104.00,0.69
7103.00,0.69
7102.00,0.68
7101.00,0.68
7100.00,0.68
7099.00,0.68
7098.00,0.68
7097.00,0.68
7096.00,0.67
7095.00,0.67
7094.00,0.67
7093.00,0.67
7092.00,0.67
7091.00,0.67
7090.00,0.67
7089.00,0.67
7088.00,0.66
7087.00,0.66
7086.00,0.66
7085.00,0.66
7084.00,0.66
7083.00,0.66
7082.00,0.66
7081.00,0.66
7080.00,0.66
7079.00,0.66
7078.00,0.65
7077.00,0.65
7076.00,0.65
7075.00,0.65
7074.00,0.65
7073.00,0.65
7072.00,0.64
7071.00,0.64
7070.00,0.64
7069.00,0.64
7068.00,0.64
7067.00,0.63
7066.00,0.63
7065.00,0.63
7064.00,0.63
7063.00,0.63
7062.00,0.63
7061.00,0.62
7060.00,0.62
7059.00,0.62
7058.00,0.62
7057.00,0.62
7056.00,0.62
7055.00,0.62
7054.00,0.62
7053.00,0.62
7052.00,0.61
7051.00,0.61
7050.00,0.61
7049.00,0.61
7048.00,0.61
7047.00,0.61
7046.00,0.61
7045.00,0.61
7044.00,0.61
7043.00,0.61
7042.00,0.61
7041.00,0.61
7040.00,0.61
7039.00,0.61
7038.00,0.61
7037.00,0.61
7036.00,0.60
7035.00,0.60
7034.00,0.60
7033.00,0.60
7032.00,0.60
7031.00,0.60
7030.00,0.60
7029.00,0.60
7028.00,0.60
7027.00,0.60
7026.00,0.60
7025.00,0.60
7024.00,0.60
7023.00,0.60
7022.00,0.60
7021.00,0.59
7020.00,0.59
7019.00,0.59
7018.00,0.59
7017.00,0.59
7016.00,0.59
7015.00,0.59
7014.00,0.59
7013.00,0.59
7012.00,0.59
7011.00,0.59
7010.00,0.59
7009.00,0.59
7008.00,0.58
7007.00,0.58
7006.00,0.58
7005.00,0.58
7004.00,0.58
7003.00,0.58
7002.00,0.58
7001.00,0.58
7000.00,0.58
6999.00,0.58
6998.00,0.58
6997.00,0.58
6996.00,0.58
6995.00,0.58
6994.00,0.58
6993.00,0.58
6992.00,0.57
6991.00,0.57
6990.00,0.57
6989.00,0.57
6988.00,0.57
6987.00,0.57
6986.00,0.57
6985.00,0.57
6984.00,0.57
6983.00,0.57
6982.00,0.57
6981.00,0.57
6980.00,0.56
6979.00,0.56
6978.00,0.56
6977.00,0.56
6976.00,0.56
6975.00,0.56
6974.00,0.56
6973.00,0.56
6972.00,0.56
6971.00,0.56
6970.00,0.56
6969.00,0.56
6968.00,0.56
6967.00,0.56
6966.00,0.55
6965.00,0.55
6964.00,0.55
6963.00,0.55
6962.00,0.55
6961.00,0.55
6960.00,0.55
6959.00,0.55
6958.00,0.55
6957.00,0.55
6956.00,0.55
6955.00,0.55
6954.00,0.55
6953.00,0.55
6952.00,0.56
6951.00,0.56
6950.00,0.56
6949.00,0.56
6948.00,0.56
6947.00,0.56
6946.00,0.56
6945.00,0.56
6944.00,0.56
6943.00,0.56
6942.00,0.56
6941.00,0.56
6940.00,0.56
6939.00,0.56
6938.00,0.56
6937.00,0.56
6936.00,0.56
6935.00,0.56
6934.00,0.56
6933.00,0.56
6932.00,0.56
6931.00,0.56
6930.00,0.56
6929.00,0.56
6928.00,0.56
6927.00,0.56
6926.00,0.55
6925.00,0.55
6924.00,0.55
6923.00,0.55
6922.00,0.55
6921.00,0.55
6920.00,0.55
6919.00,0.55
6918.00,0.54
6917.00,0.54
6916.00,0.54
6915.00,0.54
6914.00,0.54
6913.00,0.54
6912.00,0.54
6911.00,0.54
6910.00,0.54
6909.00,0.54
6908.00,0.54
6907.00,0.54
6906.00,0.54
6905.00,0.54
6904.00,0.54
6903.00,0.54
6902.00,0.54
6901.00,0.54
6900.00,0.54
6899.00,0.54
6898.00,0.54
6897.00,0.54
6896.00,0.54
6895.00,0.54
6894.00,0.54
6893.00,0.54
6892.00,0.54
6891.00,0.54
6890.00,0.54
6889.00,0.54
6888.00,0.54
6887.00,0.54
6886.00,0.54
6885.00,0.54
6884.00,0.54
6883.00,0.54
6882.00,0.54
6881.00,0.54
6880.00,0.54
6879.00,0.54
6878.00,0.54
6877.00,0.54
6876.00,0.54
6875.00,0.54
6874.00,0.54
6873.00,0.54
6872.00,0.54
6871.00,0.54
6870.00,0.54
6869.00,0.54
6868.00,0.54
6867.00,0.54
6866.00,0.54
6865.00,0.54
6864.00,0.54
6863.00,0.54
6862.00,0.54
6861.00,0.54
6860.00,0.54
6859.00,0.54
6858.00,0.54
6857.00,0.54
6856.00,0.54
6855.00,0.54
6854.00,0.54
6853.00,0.54
6852.00,0.54
6851.00,0.54
6850.00,0.54
6849.00,0.54
6848.00,0.54
6847.00,0.54
6846.00,0.54
6845.00,0.54
6844.00,0.54
6843.00,0.54
6842.00,0.54
6841.00,0.54
6840.00,0.54
6839.00,0.54
6838.00,0.54
6837.00,0.54
6836.00,0.54
6835.00,0.54
6834.00,0.54
6833.00,0.54
6832.00,0.54
6831.00,0.54
6830.00,0.54
6829.00,0.54
6828.00,0.54
6827.00,0.54
6826.00,0.54
6825.00,0.54
6824.00,0.54
6823.00,0.54
6822.00,0.55
6821.00,0.55
6820.00,0.55
6819.00,0.55
6818.00,0.55
6817.00,0.55
6816.00,0.55
6815.00,0.55
6814.00,0.55
6813.00,0.55
6812.00,0.55
6811.00,0.55
6810.00,0.55
6809.00,0.55
6808.00,0.55
6807.00,0.55
6806.00,0.55
6805.00,0.55
6804.00,0.55
6803.00,0.55
6802.00,0.55
6801.00,0.55
6800.00,0.55
6799.00,0.55
6798.00,0.55
6797.00,0.55
6796.00,0.55
6795.00,0.55
6794.00,0.55
6793.00,0.55
6792.00,0.55
6791.00,0.55
6790.00,0.55
6789.00,0.55
6788.00,0.55
6787.00,0.55
6786.00,0.55
6785.00,0.55
6784.00,0.55
6783.00,0.55
6782.00,0.56
6781.00,0.56
6780.00,0.56
6779.00,0.56
6778.00,0.56
6777.00,0.56
6776.00,0.56
6775.00,0.56
6774.00,0.56
6773.00,0.56
6772.00,0.56
6771.00,0.56
6770.00,0.56
6769.00,0.56
6768.00,0.56
6767.00,0.56
6766.00,0.56
6765.00,0.57
6764.00,0.57
6763.00,0.57
6762.00,0.57
6761.00,0.57
6760.00,0.57
6759.00,0.57
6758.00,0.57
6757.00,0.57
6756.00,0.57
6755.00,0.57
6754.00,0.57
6753.00,0.57
6752.00,0.57
6751.00,0.57
6750.00,0.57
6749.00,0.57
6748.00,0.57
6747.00,0.57
6746.00,0.57
6745.00,0.57
6744.00,0.57
6743.00,0.57
6742.00,0.57
6741.00,0.57
6740.00,0.57
6739.00,0.57
6738.00,0.57
6737.00,0.57
6736.00,0.57
6735.00,0.57
6734.00,0.58
6733.00,0.58
6732.00,0.58
6731.00,0.58
6730.00,0.58
6729.00,0.58
6728.00,0.58
6727.00,0.58
6726.00,0.58
6725.00,0.58
6724.00,0.58
6723.00,0.58
6722.00,0.59
6721.00,0.59
6720.00,0.59
6719.00,0.59
6718.00,0.59
6717.00,0.59
6716.00,0.59
6715.00,0.59
6714.00,0.59
6713.00,0.59
6712.00,0.59
6711.00,0.59
6710.00,0.59
6709.00,0.59
6708.00,0.59
6707.00,0.59
6706.00,0.59
6705.00,0.59
6704.00,0.59
6703.00,0.59
6702.00,0.60
6701.00,0.60
6700.00,0.60
6699.00,0.60
6698.00,0.60
6697.00,0.60
6696.00,0.60
6695.00,0.60
6694.00,0.60
6693.00,0.61
6692.00,0.61
6691.00,0.61
6690.00,0.61
6689.00,0.61
6688.00,0.61
6687.00,0.61
6686.00,0.61
6685.00,0.61
6684.00,0.61
6683.00,0.61
6682.00,0.61
6681.00,0.61
6680.00,0.61
6679.00,0.61
6678.00,0.61
6677.00,0.61
6676.00,0.61
6675.00,0.61
6674.00,0.61
6673.00,0.62
6672.00,0.62
6671.00,0.62
6670.00,0.62
6669.00,0.62
6668.00,0.62
6667.00,0.62
6666.00,0.63
6665.00,0.63
6664.00,0.63
6663.00,0.63
6662.00,0.63
6661.00,0.63
6660.00,0.63
6659.00,0.63
6658.00,0.63
6657.00,0.63
6656.00,0.63
6655.00,0.63
6654.00,0.63
6653.00,0.63
6652.00,0.63
6651.00,0.63
6650.00,0.63
6649.00,0.64
6648.00,0.64
6647.00,0.64
6646.00,0.64
6645.00,0.64
6644.00,0.64
6643.00,0.64
6642.00,0.64
6641.00,0.64
6640.00,0.64
6639.00,0.64
6638.00,0.64
6637.00,0.64
6636.00,0.64
6635.00,0.65
6634.00,0.65
6633.00,0.65
6632.00,0.65
6631.00,0.65
6630.00,0.65
6629.00,0.65
6628.00,0.65
6627.00,0.65
6626.00,0.65
6625.00,0.65
6624.00,0.65
6623.00,0.65
6622.00,0.65
6621.00,0.66
6620.00,0.66
6619.00,0.65
6618.00,0.65
6617.00,0.65
6616.00,0.65
6615.00,0.65
6614.00,0.65
6613.00,0.65
6612.00,0.65
6611.00,0.66
6610.00,0.66
6609.00,0.66
6608.00,0.66
6607.00,0.66
6606.00,0.66
6605.00,0.66
6604.00,0.66
6603.00,0.66
6602.00,0.66
6601.00,0.66
6600.00,0.67
6599.00,0.67
6598.00,0.67
6597.00,0.67
6596.00,0.67
6595.00,0.67
6594.00,0.67
6593.00,0.67
6592.00,0.68
6591.00,0.68
6590.00,0.68
6589.00,0.68
6588.00,0.68
6587.00,0.68
6586.00,0.68
6585.00,0.68
6584.00,0.68
6583.00,0.68
6582.00,0.68
6581.00,0.68
6580.00,0.68
6579.00,0.68
6578.00,0.68
6577.00,0.68
6576.00,0.68
6575.00,0.68
6574.00,0.68
6573.00,0.68
6572.00,0.68
6571.00,0.68
6570.00,0.68
6569.00,0.69
6568.00,0.69
6567.00,0.69
6566.00,0.69
6565.00,0.69
6564.00,0.69
6563.00,0.69
6562.00,0.69
6561.00,0.70
6560.00,0.70
6559.00,0.70
6558.00,0.70
6557.00,0.70
6556.00,0.70
6555.00,0.70
6554.00,0.70
6553.00,0.70
6552.00,0.70
6551.00,0.70
6550.00,0.70
6549.00,0.70
6548.00,0.71
6547.00,0.71
6546.00,0.71
6545.00,0.71
6544.00,0.71
6543.00,0.71
6542.00,0.71
6541.00,0.71
6540.00,0.71
6539.00,0.71
6538.00,0.71
6537.00,0.71
6536.00,0.71
6535.00,0.71
6534.00,0.71
6533.00,0.71
6532.00,0.71
6531.00,0.71
6530.00,0.71
6529.00,0.71
6528.00,0.71
6527.00,0.71
6526.00,0.71
6525.00,0.72
6524.00,0.72
6523.00,0.72
6522.00,0.72
6521.00,0.72
6520.00,0.72
6519.00,0.72
6518.00,0.72
6517.00,0.72
6516.00,0.72
6515.00,0.72
6514.00,0.72
6513.00,0.72
6512.00,0.72
6511.00,0.73
6510.00,0.73
6509.00,0.73
6508.00,0.73
6507.00,0.73
6506.00,0.73
6505.00,0.73
6504.00,0.73
6503.00,0.73
6502.00,0.73
6501.00,0.73
6500.00,0.73
6499.00,0.73
6498.00,0.74
6497.00,0.74
6496.00,0.74
6495.00,0.74
6494.00,0.74
6493.00,0.74
6492.00,0.74
6491.00,0.74
6490.00,0.74
6489.00,0.74
6488.00,0.75
6487.00,0.75
6486.00,0.75
6485.00,0.75
6484.00,0.75
6483.00,0.75
6482.00,0.75
6481.00,0.75
6480.00,0.75
6479.00,0.75
6478.00,0.75
6477.00,0.75
6476.00,0.75
6475.00,0.75
6474.00,0.75
6473.00,0.75
6472.00,0.75
6471.00,0.75
6470.00,0.75
6469.00,0.75
6468.00,0.75
6467.00,0.75
6466.00,0.75
6465.00,0.75
6464.00,0.75
6463.00,0.75
6462.00,0.75
6461.00,0.75
6460.00,0.75
6459.00,0.75
6458.00,0.75
6457.00,0.75
6456.00,0.75
6455.00,0.75
6454.00,0.75
6453.00,0.75
6452.00,0.75
6451.00,0.75
6450.00,0.75
6449.00,0.75
6448.00,0.75
6447.00,0.75
6446.00,0.75
6445.00,0.75
6444.00,0.75
6443.00,0.75
6442.00,0.75
6441.00,0.76
6440.00,0.76
6439.00,0.76
6438.00,0.76
6437.00,0.76
6436.00,0.76
6435.00,0.76
6434.00,0.76
6433.00,0.76
6432.00,0.76
6431.00,0.77
6430.00,0.77
6429.00,0.77
6428.00,0.77
6427.00,0.77
6426.00,0.77
6425.00,0.77
6424.00,0.77
6423.00,0.77
6422.00,0.77
6421.00,0.77
6420.00,0.77
6419.00,0.77
6418.00,0.77
6417.00,0.77
6416.00,0.77
6415.00,0.77
6414.00,0.77
6413.00,0.77
6412.00,0.77
6411.00,0.77
6410.00,0.77
6409.00,0.77
6408.00,0.77
6407.00,0.77
6406.00,0.77
6405.00,0.77
6404.00,0.78
6403.00,0.78
6402.00,0.78
6401.00,0.78
6400.00,0.78
6399.00,0.78
6398.00,0.78
6397.00,0.78
6396.00,0.78
6395.00,0.78
6394.00,0.78
6393.00,0.78
6392.00,0.78
6391.00,0.78
6390.00,0.78
6389.00,0.78
6388.00,0.78
6387.00,0.78
6386.00,0.78
6385.00,0.78
6384.00,0.78
6383.00,0.78
6382.00,0.78
6381.00,0.78
6380.00,0.78
6379.00,0.78
6378.00,0.78
6377.00,0.78
6376.00,0.78
6375.00,0.78
6374.00,0.79
6373.00,0.79
6372.00,0.79
6371.00,0.79
6370.00,0.79
6369.00,0.79
6368.00,0.79
6367.00,0.79
6366.00,0.79
6365.00,0.79
6364.00,0.79
6363.00,0.79
6362.00,0.79
6361.00,0.79
6360.00,0.79
6359.00,0.79
6358.00,0.79
6357.00,0.79
6356.00,0.80
6355.00,0.80
6354.00,0.80
6353.00,0.80
6352.00,0.80
6351.00,0.80
6350.00,0.80
6349.00,0.80
6348.00,0.80
6347.00,0.80
6346.00,0.80
6345.00,0.80
6344.00,0.80
6343.00,0.80
6342.00,0.80
6341.00,0.80
6340.00,0.80
6339.00,0.81
6338.00,0.81
6337.00,0.81
6336.00,0.81
6335.00,0.81
6334.00,0.81
6333.00,0.81
6332.00,0.81
6331.00,0.81
6330.00,0.81
6329.00,0.81
6328.00,0.82
6327.00,0.82
6326.00,0.82
6325.00,0.82
6324.00,0.82
6323.00,0.82
6322.00,0.82
6321.00,0.82
6320.00,0.83
6319.00,0.83
6318.00,0.83
6317.00,0.83
6316.00,0.83
6315.00,0.83
6314.00,0.83
6313.00,0.83
6312.00,0.83
6311.00,0.84
6310.00,0.84
6309.00,0.84
6308.00,0.84
6307.00,0.84
6306.00,0.84
6305.00,0.84
6304.00,0.84
6303.00,0.84
6302.00,0.84
6301.00,0.84
6300.00,0.84
6299.00,0.84
6298.00,0.84
6297.00,0.84
6296.00,0.84
6295.00,0.84
6294.00,0.85
6293.00,0.85
6292.00,0.85
6291.00,0.85
6290.00,0.85
6289.00,0.85
6288.00,0.85
6287.00,0.85
6286.00,0.85
6285.00,0.85
6284.00,0.85
6283.00,0.86
6282.00,0.86
6281.00,0.86
6280.00,0.86
6279.00,0.86
6278.00,0.86
6277.00,0.86
6276.00,0.86
6275.00,0.86
6274.00,0.86
6273.00,0.86
6272.00,0.86
6271.00,0.87
6270.00,0.87
6269.00,0.87
6268.00,0.87
6267.00,0.87
6266.00,0.87
6265.00,0.87
6264.00,0.87
6263.00,0.87
6262.00,0.87
6261.00,0.87
6260.00,0.88
6259.00,0.88
6258.00,0.88
6257.00,0.88
6256.00,0.88
6255.00,0.88
6254.00,0.88
6253.00,0.88
6252.00,0.88
6251.00,0.89
6250.00,0.89
6249.00,0.89
6248.00,0.89
6247.00,0.89
6246.00,0.89
6245.00,0.89
6244.00,0.90
6243.00,0.90
6242.00,0.90
6241.00,0.90
6240.00,0.90
6239.00,0.90
6238.00,0.90
6237.00,0.90
6236.00,0.90
6235.00,0.91
6234.00,0.91
6233.00,0.91
6232.00,0.91
6231.00,0.91
6230.00,0.91
6229.00,0.91
6228.00,0.91
6227.00,0.91
6226.00,0.91
6225.00,0.91
6224.00,0.91
6223.00,0.91
6222.00,0.91
6221.00,0.92
6220.00,0.92
6219.00,0.92
6218.00,0.92
6217.00,0.92
6216.00,0.92
6215.00,0.92
6214.00,0.92
6213.00,0.92
6212.00,0.92
6211.00,0.92
6210.00,0.92
6209.00,0.92
6208.00,0.92
6207.00,0.93
6206.00,0.93
6205.00,0.93
6204.00,0.93
6203.00,0.93
6202.00,0.93
6201.00,0.93
6200.00,0.93
6199.00,0.93
6198.00,0.94
6197.00,0.94
6196.00,0.94
6195.00,0.94
6194.00,0.94
6193.00,0.94
6192.00,0.95
6191.00,0.95
6190.00,0.95
6189.00,0.95
6188.00,0.95
6187.00,0.95
6186.00,0.95
6185.00,0.95
6184.00,0.96
6183.00,0.96
6182.00,0.96
6181.00,0.96
6180.00,0.96
6179.00,0.96
6178.00,0.96
6177.00,0.96
6176.00,0.96
6175.00,0.96
6174.00,0.96
6173.00,0.96
6172.00,0.97
6171.00,0.97
6170.00,0.97
6169.00,0.97
6168.00,0.97
6167.00,0.97
6166.00,0.97
6165.00,0.97
6164.00,0.98
6163.00,0.98
6162.00,0.98
6161.00,0.98
6160.00,0.98
6159.00,0.98
6158.00,0.99
6157.00,0.99
6156.00,0.99
6155.00,0.99
6154.00,0.99
6153.00,0.99
6152.00,0.99
6151.00,0.99
6150.00,1.00
6149.00,1.00
6148.00,1.00
6147.00,1.00
6146.00,1.00
6145.00,1.00
6144.00,1.00
6143.00,1.00
6142.00,1.00
6141.00,1.01
6140.00,1.01
6139.00,1.01
6138.00,1.01
6137.00,1.01
6136.00,1.01
6135.00,1.01
6134.00,1.01
6133.00,1.01
6132.00,1.01
6131.00,1.02
6130.00,1.02
6129.00,1.02
6128.00,1.02
6127.00,1.02
6126.00,1.02
6125.00,1.02
6124.00,1.02
6123.00,1.03
6122.00,1.03
6121.00,1.03
6120.00,1.03
6119.00,1.03
6118.00,1.03
6117.00,1.03
6116.00,1.03
6115.00,1.03
6114.00,1.04
6113.00,1.04
6112.00,1.04
6111.00,1.04
6110.00,1.04
6109.00,1.04
6108.00,1.04
6107.00,1.04
6106.00,1.05
6105.00,1.05
6104.00,1.05
6103.00,1.05
6102.00,1.05
6101.00,1.05
6100.00,1.06
6099.00,1.06
6098.00,1.06
6097.00,1.06
6096.00,1.06
6095.00,1.06
6094.00,1.06
6093.00,1.06
6092.00,1.07
6091.00,1.07
6090.00,1.07
6089.00,1.07
6088.00,1.07
6087.00,1.07
6086.00,1.07
6085.00,1.07
6084.00,1.07
6083.00,1.07
6082.00,1.08
6081.00,1.08
6080.00,1.08
6079.00,1.08
6078.00,1.08
6077.00,1.08
6076.00,1.08
6075.00,1.08
6074.00,1.09
6073.00,1.09
6072.00,1.09
6071.00,1.09
6070.00,1.09
6069.00,1.09
6068.00,1.09
6067.00,1.09
6066.00,1.09
6065.00,1.10
6064.00,1.10
6063.00,1.10
6062.00,1.10
6061.00,1.10
6060.00,1.10
6059.00,1.10
6058.00,1.10
6057.00,1.10
6056.00,1.10
6055.00,1.10
6054.00,1.10
6053.00,1.10
6052.00,1.10
6051.00,1.10
6050.00,1.10
6049.00,1.10
6048.00,1.10
6047.00,1.10
6046.00,1.10
6045.00,1.10
6044.00,1.10
6043.00,1.11
6042.00,1.11
6041.00,1.11
6040.00,1.11
6039.00,1.11
6038.00,1.11
6037.00,1.11
6036.00,1.11
6035.00,1.11
6034.00,1.11
6033.00,1.11
6032.00,1.11
6031.00,1.11
6030.00,1.12
6029.00,1.12
6028.00,1.12
6027.00,1.12
6026.00,1.12
6025.00,1.12
6024.00,1.12
6023.00,1.12
6022.00,1.12
6021.00,1.12
6020.00,1.12
6019.00,1.12
6018.00,1.12
6017.00,1.12
6016.00,1.12
6015.00,1.12
6014.00,1.12
6013.00,1.12
6012.00,1.12
6011.00,1.12
6010.00,1.12
6009.00,1.12
6008.00,1.12
6007.00,1.12
6006.00,1.12
6005.00,1.12
6004.00,1.12
6003.00,1.12
6002.00,1.11
6001.00,1.11
6000.00,1.11
5999.00,1.11
5998.00,1.11
5997.00,1.11
5996.00,1.11
5995.00,1.11
5994.00,1.11
5993.00,1.11
5992.00,1.11
5991.00,1.11
5990.00,1.11
5989.00,1.11
5988.00,1.10
5987.00,1.10
5986.00,1.10
5985.00,1.10
5984.00,1.10
5983.00,1.09
5982.00,1.09
5981.00,1.09
5980.00,1.08
5979.00,1.08
5978.00,1.08
5977.00,1.07
5976.00,1.07
5975.00,1.07
5974.00,1.06
5973.00,1.06
5972.00,1.05
5971.00,1.05
5970.00,1.04
5969.00,1.04
5968.00,1.03
5967.00,1.03
5966.00,1.02
5965.00,1.02
5964.00,1.01
5963.00,1.00
5962.00,1.00
5961.00,0.99
5960.00,0.99
5959.00,0.98
5958.00,0.98
5957.00,0.97
5956.00,0.96
5955.00,0.96
5954.00,0.95
5953.00,0.95
5952.00,0.94
5951.00,0.94
5950.00,0.93
5949.00,0.93
5948.00,0.93
5947.00,0.92
5946.00,0.92
5945.00,0.92
5944.00,0.91
5943.00,0.91
5942.00,0.91
5941.00,0.91
5940.00,0.91
5939.00,0.90
5938.00,0.90
5937.00,0.90
5936.00,0.90
5935.00,0.90
5934.00,0.90
5933.00,0.90
5932.00,0.90
5931.00,0.90
5930.00,0.90
5929.00,0.90
5928.00,0.89
5927.00,0.89
5926.00,0.89
5925.00,0.89
5924.00,0.89
5923.00,0.89
5922.00,0.89
5921.00,0.88
5920.00,0.88
5919.00,0.88
5918.00,0.88
5917.00,0.88
5916.00,0.87
5915.00,0.87
5914.00,0.87
5913.00,0.87
5912.00,0.87
5911.00,0.86
5910.00,0.86
5909.00,0.86
5908.00,0.86
5907.00,0.86
5906.00,0.86
5905.00,0.85
5904.00,0.85
5903.00,0.85
5902.00,0.85
5901.00,0.85
5900.00,0.85
5899.00,0.85
5898.00,0.85
5897.00,0.85
5896.00,0.85
5895.00,0.86
5894.00,0.86
5893.00,0.86
5892.00,0.86
5891.00,0.86
5890.00,0.87
5889.00,0.87
5888.00,0.87
5887.00,0.87
5886.00,0.88
5885.00,0.88
5884.00,0.88
5883.00,0.88
5882.00,0.89
5881.00,0.89
5880.00,0.89
5879.00,0.90
5878.00,0.90
5877.00,0.90
5876.00,0.90
5875.00,0.91
5874.00,0.91
5873.00,0.91
5872.00,0.91
5871.00,0.91
5870.00,0.91
5869.00,0.92
5868.00,0.92
5867.00,0.92
5866.00,0.92
5865.00,0.92
5864.00,0.92
5863.00,0.92
5862.00,0.92
5861.00,0.93
5860.00,0.93
5859.00,0.93
5858.00,0.93
5857.00,0.93
5856.00,0.93
5855.00,0.93
5854.00,0.93
5853.00,0.93
5852.00,0.93
5851.00,0.93
5850.00,0.93
5849.00,0.93
5848.00,0.93
5847.00,0.93
5846.00,0.93
5845.00,0.93
5844.00,0.93
5843.00,0.93
5842.00,0.93
5841.00,0.93
5840.00,0.93
5839.00,0.93
5838.00,0.93
5837.00,0.93
5836.00,0.93
5835.00,0.93
5834.00,0.93
5833.00,0.93
5832.00,0.93
5831.00,0.93
5830.00,0.93
5829.00,0.93
5828.00,0.94
5827.00,0.94
5826.00,0.94
5825.00,0.94
5824.00,0.94
5823.00,0.94
5822.00,0.94
5821.00,0.94
5820.00,0.94
5819.00,0.94
5818.00,0.94
5817.00,0.94
5816.00,0.94
5815.00,0.94
5814.00,0.94
5813.00,0.94
5812.00,0.94
5811.00,0.94
5810.00,0.94
5809.00,0.94
5808.00,0.94
5807.00,0.94
5806.00,0.94
5805.00,0.94
5804.00,0.94
5803.00,0.94
5802.00,0.93
5801.00,0.93
5800.00,0.93
5799.00,0.93
5798.00,0.93
5797.00,0.93
5796.00,0.93
5795.00,0.93
5794.00,0.93
5793.00,0.92
5792.00,0.92
5791.00,0.92
5790.00,0.92
5789.00,0.92
5788.00,0.91
5787.00,0.91
5786.00,0.91
5785.00,0.91
5784.00,0.91
5783.00,0.91
5782.00,0.90
5781.00,0.90
5780.00,0.90
5779.00,0.90
5778.00,0.90
5777.00,0.90
5776.00,0.90
5775.00,0.90
5774.00,0.90
5773.00,0.90
5772.00,0.90
5771.00,0.90
5770.00,0.90
5769.00,0.90
5768.00,0.90
5767.00,0.90
5766.00,0.90
5765.00,0.90
5764.00,0.91
5763.00,0.91
5762.00,0.91
5761.00,0.91
5760.00,0.91
5759.00,0.92
5758.00,0.92
5757.00,0.92
5756.00,0.92
5755.00,0.93
5754.00,0.93
5753.00,0.93
5752.00,0.94
5751.00,0.94
5750.00,0.94
5749.00,0.94
5748.00,0.95
5747.00,0.95
5746.00,0.95
5745.00,0.95
5744.00,0.96
5743.00,0.96
5742.00,0.96
5741.00,0.96
5740.00,0.97
5739.00,0.97
5738.00,0.97
5737.00,0.97
5736.00,0.97
5735.00,0.98
5734.00,0.98
5733.00,0.98
5732.00,0.98
5731.00,0.98
5730.00,0.98
5729.00,0.99
5728.00,0.99
5727.00,0.99
5726.00,0.99
5725.00,0.99
5724.00,0.99
5723.00,0.99
5722.00,0.99
5721.00,0.99
5720.00,0.99
5719.00,0.99
5718.00,0.99
5717.00,0.99
5716.00,0.99
5715.00,0.99
5714.00,0.99
5713.00,0.99
5712.00,0.99
5711.00,0.99
5710.00,0.99
5709.00,0.99
5708.00,0.99
5707.00,0.99
5706.00,0.99
5705.00,0.99
5704.00,0.99
5703.00,0.99
5702.00,0.99
5701.00,0.98
5700.00,0.98
5699.00,0.98
5698.00,0.98
5697.00,0.98
5696.00,0.98
5695.00,0.98
5694.00,0.98
5693.00,0.98
5692.00,0.98
5691.00,0.97
5690.00,0.97
5689.00,0.97
5688.00,0.97
5687.00,0.97
5686.00,0.97
5685.00,0.97
5684.00,0.97
5683.00,0.97
5682.00,0.97
5681.00,0.96
5680.00,0.96
5679.00,0.96
5678.00,0.96
5677.00,0.96
5676.00,0.96
5675.00,0.96
5674.00,0.96
5673.00,0.96
5672.00,0.96
5671.00,0.96
5670.00,0.96
5669.00,0.96
5668.00,0.96
5667.00,0.97
5666.00,0.97
5665.00,0.97
5664.00,0.97
5663.00,0.97
5662.00,0.97
5661.00,0.97
5660.00,0.97
5659.00,0.98
5658.00,0.98
5657.00,0.98
5656.00,0.98
5655.00,0.98
5654.00,0.98
5653.00,0.99
5652.00,0.99
5651.00,0.99
5650.00,0.99
5649.00,0.99
5648.00,0.99
5647.00,1.00
5646.00,1.00
5645.00,1.00
5644.00,1.00
5643.00,1.00
5642.00,1.01
5641.00,1.01
5640.00,1.01
5639.00,1.01
5638.00,1.01
5637.00,1.01
5636.00,1.01
5635.00,1.02
5634.00,1.02
5633.00,1.02
5632.00,1.02
5631.00,1.02
5630.00,1.02
5629.00,1.02
5628.00,1.03
5627.00,1.03
5626.00,1.03
5625.00,1.03
5624.00,1.03
5623.00,1.03
5622.00,1.03
5621.00,1.03
5620.00,1.03
5619.00,1.04
5618.00,1.04
5617.00,1.04
5616.00,1.04
5615.00,1.04
5614.00,1.04
5613.00,1.04
5612.00,1.04
5611.00,1.05
5610.00,1.05
5609.00,1.05
5608.00,1.05
5607.00,1.05
5606.00,1.05
5605.00,1.06
5604.00,1.06
5603.00,1.06
5602.00,1.06
5601.00,1.06
5600.00,1.07
5599.00,1.07
5598.00,1.07
5597.00,1.07
5596.00,1.07
5595.00,1.08
5594.00,1.08
5593.00,1.08
5592.00,1.08
5591.00,1.08
5590.00,1.09
5589.00,1.09
5588.00,1.09
5587.00,1.09
5586.00,1.09
5585.00,1.09
5584.00,1.10
5583.00,1.10
5582.00,1.10
5581.00,1.10
5580.00,1.10
5579.00,1.10
5578.00,1.10
5577.00,1.10
5576.00,1.10
5575.00,1.11
5574.00,1.11
5573.00,1.11
5572.00,1.11
5571.00,1.11
5570.00,1.11
5569.00,1.11
5568.00,1.11
5567.00,1.11
5566.00,1.11
5565.00,1.11
5564.00,1.12
5563.00,1.12
5562.00,1.12
5561.00,1.12
5560.00,1.12
5559.00,1.12
5558.00,1.12
5557.00,1.12
5556.00,1.12
5555.00,1.13
5554.00,1.13
5553.00,1.13
5552.00,1.13
5551.00,1.13
5550.00,1.13
5549.00,1.13
5548.00,1.13
5547.00,1.14
5546.00,1.14
5545.00,1.14
5544.00,1.14
5543.00,1.14
5542.00,1.14
5541.00,1.14
5540.00,1.14
5539.00,1.14
5538.00,1.14
5537.00,1.15
5536.00,1.15
5535.00,1.15
5534.00,1.15
5533.00,1.15
5532.00,1.15
5531.00,1.15
5530.00,1.15
5529.00,1.15
5528.00,1.15
5527.00,1.15
5526.00,1.15
5525.00,1.16
5524.00,1.16
5523.00,1.16
5522.00,1.16
5521.00,1.16
5520.00,1.16
5519.00,1.16
5518.00,1.16
5517.00,1.16
5516.00,1.16
5515.00,1.16
5514.00,1.16
5513.00,1.16
5512.00,1.16
5511.00,1.16
5510.00,1.16
5509.00,1.16
5508.00,1.16
5507.00,1.16
5506.00,1.16
5505.00,1.16
5504.00,1.16
5503.00,1.17
5502.00,1.17
5501.00,1.17
5500.00,1.17
5499.00,1.17
5498.00,1.17
5497.00,1.17
5496.00,1.17
5495.00,1.17
5494.00,1.17
5493.00,1.17
5492.00,1.17
5491.00,1.17
5490.00,1.17
5489.00,1.17
5488.00,1.17
5487.00,1.17
5486.00,1.17
5485.00,1.18
5484.00,1.18
5483.00,1.18
5482.00,1.18
5481.00,1.18
5480.00,1.18
5479.00,1.18
5478.00,1.19
5477.00,1.19
5476.00,1.19
5475.00,1.19
5474.00,1.19
5473.00,1.19
5472.00,1.19
5471.00,1.19
5470.00,1.20
5469.00,1.20
5468.00,1.20
5467.00,1.20
5466.00,1.20
5465.00,1.20
5464.00,1.20
5463.00,1.20
5462.00,1.20
5461.00,1.20
5460.00,1.20
5459.00,1.20
5458.00,1.20
5457.00,1.20
5456.00,1.20
5455.00,1.20
5454.00,1.21
5453.00,1.21
5452.00,1.21
5451.00,1.21
5450.00,1.21
5449.00,1.21
5448.00,1.21
5447.00,1.21
5446.00,1.21
5445.00,1.21
5444.00,1.21
5443.00,1.21
5442.00,1.21
5441.00,1.21
5440.00,1.21
5439.00,1.21
5438.00,1.21
5437.00,1.21
5436.00,1.21
5435.00,1.21
5434.00,1.22
5433.00,1.22
5432.00,1.22
5431.00,1.22
5430.00,1.22
5429.00,1.22
5428.00,1.22
5427.00,1.22
5426.00,1.22
5425.00,1.22
5424.00,1.22
5423.00,1.22
5422.00,1.22
5421.00,1.22
5420.00,1.22
5419.00,1.22
5418.00,1.22
5417.00,1.22
5416.00,1.22
5415.00,1.22
5414.00,1.22
5413.00,1.22
5412.00,1.22
5411.00,1.22
5410.00,1.22
5409.00,1.22
5408.00,1.22
5407.00,1.22
5406.00,1.22
5405.00,1.22
5404.00,1.22
5403.00,1.22
5402.00,1.22
5401.00,1.22
5400.00,1.22
5399.00,1.22
5398.00,1.22
5397.00,1.22
5396.00,1.22
5395.00,1.22
5394.00,1.22
5393.00,1.22
5392.00,1.21
5391.00,1.21
5390.00,1.21
5389.00,1.21
5388.00,1.21
5387.00,1.21
5386.00,1.20
5385.00,1.20
5384.00,1.20
5383.00,1.20
5382.00,1.20
5381.00,1.19
5380.00,1.19
5379.00,1.19
5378.00,1.18
5377.00,1.18
5376.00,1.18
5375.00,1.18
5374.00,1.17
5373.00,1.17
5372.00,1.17
5371.00,1.16
5370.00,1.16
5369.00,1.16
5368.00,1.15
5367.00,1.15
5366.00,1.14
5365.00,1.14
5364.00,1.13
5363.00,1.13
5362.00,1.13
5361.00,1.12
5360.00,1.12
5359.00,1.11
5358.00,1.10
5357.00,1.10
5356.00,1.09
5355.00,1.09
5354.00,1.08
5353.00,1.07
5352.00,1.07
5351.00,1.06
5350.00,1.05
5349.00,1.05
5348.00,1.04
5347.00,1.03
5346.00,1.02
5345.00,1.02
5344.00,1.01
5343.00,1.00
5342.00,0.99
5341.00,0.98
5340.00,0.98
5339.00,0.97
5338.00,0.96
5337.00,0.95
5336.00,0.94
5335.00,0.94
5334.00,0.93
5333.00,0.92
5332.00,0.91
5331.00,0.91
5330.00,0.90
5329.00,0.89
5328.00,0.88
5327.00,0.87
5326.00,0.87
5325.00,0.86
5324.00,0.85
5323.00,0.84
5322.00,0.84
5321.00,0.83
5320.00,0.82
5319.00,0.81
5318.00,0.81
5317.00,0.80
5316.00,0.79
5315.00,0.78
5314.00,0.78
5313.00,0.77
5312.00,0.76
5311.00,0.76
5310.00,0.75
5309.00,0.74
5308.00,0.74
5307.00,0.73
5306.00,0.73
5305.00,0.72
5304.00,0.72
5303.00,0.72
5302.00,0.71
5301.00,0.71
5300.00,0.70
5299.00,0.70
5298.00,0.70
5297.00,0.69
5296.00,0.69
5295.00,0.69
5294.00,0.69
5293.00,0.68
5292.00,0.68
5291.00,0.68
5290.00,0.68
5289.00,0.68
5288.00,0.68
5287.00,0.67
5286.00,0.67
5285.00,0.67
5284.00,0.67
5283.00,0.67
5282.00,0.67
5281.00,0.67
5280.00,0.67
5279.00,0.66
5278.00,0.66
5277.00,0.66
5276.00,0.66
5275.00,0.66
5274.00,0.66
5273.00,0.66
5272.00,0.66
5271.00,0.66
5270.00,0.66
5269.00,0.66
5268.00,0.66
5267.00,0.66
5266.00,0.66
5265.00,0.66
5264.00,0.66
5263.00,0.66
5262.00,0.66
5261.00,0.66
5260.00,0.66
5259.00,0.66
5258.00,0.66
5257.00,0.66
5256.00,0.66
5255.00,0.66
5254.00,0.66
5253.00,0.66
5252.00,0.66
5251.00,0.66
5250.00,0.66
5249.00,0.66
5248.00,0.66
5247.00,0.66
5246.00,0.66
5245.00,0.66
5244.00,0.66
5243.00,0.66
5242.00,0.66
5241.00,0.66
5240.00,0.66
5239.00,0.66
5238.00,0.66
5237.00,0.66
5236.00,0.66
5235.00,0.66
5234.00,0.66
5233.00,0.66
5232.00,0.66
5231.00,0.66
5230.00,0.66
5229.00,0.66
5228.00,0.66
5227.00,0.66
5226.00,0.66
5225.00,0.66
5224.00,0.66
5223.00,0.66
5222.00,0.66
5221.00,0.66
5220.00,0.66
5219.00,0.66
5218.00,0.66
5217.00,0.66
5216.00,0.66
5215.00,0.66
5214.00,0.66
5213.00,0.66
5212.00,0.66
5211.00,0.66
5210.00,0.66
5209.00,0.66
5208.00,0.66
5207.00,0.66
5206.00,0.66
5205.00,0.66
5204.00,0.66
5203.00,0.66
5202.00,0.66
5201.00,0.67
5200.00,0.67
5199.00,0.67
5198.00,0.67
5197.00,0.67
5196.00,0.67
5195.00,0.67
5194.00,0.67
5193.00,0.67
5192.00,0.67
5191.00,0.67
5190.00,0.67
5189.00,0.67
5188.00,0.67
5187.00,0.67
5186.00,0.67
5185.00,0.67
5184.00,0.67
5183.00,0.67
5182.00,0.67
5181.00,0.67
5180.00,0.67
5179.00,0.67
5178.00,0.67
5177.00,0.67
5176.00,0.67
5175.00,0.68
5174.00,0.68
5173.00,0.68
5172.00,0.68
5171.00,0.68
5170.00,0.68
5169.00,0.68
5168.00,0.68
5167.00,0.68
5166.00,0.68
5165.00,0.68
5164.00,0.68
5163.00,0.68
5162.00,0.68
5161.00,0.68
5160.00,0.68
5159.00,0.68
5158.00,0.68
5157.00,0.68
5156.00,0.68
5155.00,0.68
5154.00,0.68
5153.00,0.68
5152.00,0.69
5151.00,0.69
5150.00,0.69
5149.00,0.69
5148.00,0.69
5147.00,0.69
5146.00,0.69
5145.00,0.69
5144.00,0.69
5143.00,0.69
5142.00,0.70
5141.00,0.70
5140.00,0.70
5139.00,0.70
5138.00,0.70
5137.00,0.70
5136.00,0.70
5135.00,0.70
5134.00,0.70
5133.00,0.70
5132.00,0.70
5131.00,0.70
5130.00,0.70
5129.00,0.70
5128.00,0.70
5127.00,0.70
5126.00,0.70
5125.00,0.70
5124.00,0.70
5123.00,0.70
5122.00,0.70
5121.00,0.70
5120.00,0.70
5119.00,0.70
5118.00,0.70
5117.00,0.70
5116.00,0.70
5115.00,0.70
5114.00,0.70
5113.00,0.70
5112.00,0.70
5111.00,0.70
5110.00,0.70
5109.00,0.70
5108.00,0.70
5107.00,0.70
5106.00,0.70
5105.00,0.70
5104.00,0.70
5103.00,0.70
5102.00,0.70
5101.00,0.70
5100.00,0.70
5099.00,0.71
5098.00,0.71
5097.00,0.71
5096.00,0.71
5095.00,0.71
5094.00,0.71
5093.00,0.71
5092.00,0.71
5091.00,0.71
5090.00,0.71
5089.00,0.71
5088.00,0.71
5087.00,0.71
5086.00,0.71
5085.00,0.71
5084.00,0.71
5083.00,0.72
5082.00,0.72
5081.00,0.72
5080.00,0.72
5079.00,0.72
5078.00,0.72
5077.00,0.72
5076.00,0.72
5075.00,0.72
5074.00,0.72
5073.00,0.72
5072.00,0.72
5071.00,0.72
5070.00,0.72
5069.00,0.72
5068.00,0.72
5067.00,0.72
5066.00,0.72
5065.00,0.72
5064.00,0.72
5063.00,0.72
5062.00,0.72
5061.00,0.72
5060.00,0.72
5059.00,0.72
5058.00,0.72
5057.00,0.72
5056.00,0.72
5055.00,0.72
5054.00,0.72
5053.00,0.72
5052.00,0.73
5051.00,0.73
5050.00,0.73
5049.00,0.73
5048.00,0.73
5047.00,0.73
5046.00,0.73
5045.00,0.73
5044.00,0.73
5043.00,0.73
5042.00,0.73
5041.00,0.73
5040.00,0.73
5039.00,0.73
5038.00,0.73
5037.00,0.73
5036.00,0.73
5035.00,0.73
5034.00,0.74
5033.00,0.74
5032.00,0.74
5031.00,0.74
5030.00,0.74
5029.00,0.74
5028.00,0.74
5027.00,0.74
5026.00,0.74
5025.00,0.74
5024.00,0.74
5023.00,0.74
5022.00,0.74
5021.00,0.74
5020.00,0.74
5019.00,0.74
5018.00,0.74
5017.00,0.74
5016.00,0.74
5015.00,0.74
5014.00,0.74
5013.00,0.75
5012.00,0.75
5011.00,0.75
5010.00,0.75
5009.00,0.75
5008.00,0.75
5007.00,0.75
5006.00,0.75
5005.00,0.75
5004.00,0.75
5003.00,0.75
5002.00,0.75
5001.00,0.75
5000.00,0.75
4999.00,0.75
4998.00,0.75
4997.00,0.75
4996.00,0.75
4995.00,0.75
4994.00,0.75
4993.00,0.75
4992.00,0.76
4991.00,0.76
4990.00,0.76
4989.00,0.76
4988.00,0.76
4987.00,0.76
4986.00,0.76
4985.00,0.76
4984.00,0.76
4983.00,0.76
4982.00,0.77
4981.00,0.77
4980.00,0.77
4979.00,0.77
4978.00,0.77
4977.00,0.77
4976.00,0.77
4975.00,0.77
4974.00,0.77
4973.00,0.77
4972.00,0.77
4971.00,0.77
4970.00,0.77
4969.00,0.77
4968.00,0.77
4967.00,0.78
4966.00,0.78
4965.00,0.78
4964.00,0.78
4963.00,0.78
4962.00,0.78
4961.00,0.78
4960.00,0.78
4959.00,0.78
4958.00,0.78
4957.00,0.78
4956.00,0.78
4955.00,0.78
4954.00,0.78
4953.00,0.78
4952.00,0.78
4951.00,0.78
4950.00,0.78
4949.00,0.78
4948.00,0.78
4947.00,0.79
4946.00,0.79
4945.00,0.79
4944.00,0.79
4943.00,0.79
4942.00,0.79
4941.00,0.79
4940.00,0.79
4939.00,0.79
4938.00,0.79
4937.00,0.79
4936.00,0.79
4935.00,0.79
4934.00,0.79
4933.00,0.79
4932.00,0.79
4931.00,0.79
4930.00,0.79
4929.00,0.79
4928.00,0.79
4927.00,0.79
4926.00,0.79
4925.00,0.79
4924.00,0.79
4923.00,0.80
4922.00,0.80
4921.00,0.80
4920.00,0.80
4919.00,0.80
4918.00,0.80
4917.00,0.80
4916.00,0.80
4915.00,0.80
4914.00,0.80
4913.00,0.80
4912.00,0.80
4911.00,0.80
4910.00,0.81
4909.00,0.81
4908.00,0.81
4907.00,0.81
4906.00,0.81
4905.00,0.81
4904.00,0.81
4903.00,0.81
4902.00,0.81
4901.00,0.81
4900.00,0.81
4899.00,0.81
4898.00,0.81
4897.00,0.81
4896.00,0.81
4895.00,0.81
4894.00,0.81
4893.00,0.81
4892.00,0.81
4891.00,0.81
4890.00,0.81
4889.00,0.81
4888.00,0.81
4887.00,0.81
4886.00,0.81
4885.00,0.81
4884.00,0.81
4883.00,0.81
4882.00,0.81
4881.00,0.81
4880.00,0.81
4879.00,0.82
4878.00,0.82
4877.00,0.82
4876.00,0.82
4875.00,0.82
4874.00,0.82
4873.00,0.82
4872.00,0.82
4871.00,0.82
4870.00,0.82
4869.00,0.82
4868.00,0.82
4867.00,0.82
4866.00,0.82
4865.00,0.82
4864.00,0.82
4863.00,0.82
4862.00,0.82
4861.00,0.83
4860.00,0.83
4859.00,0.83
4858.00,0.83
4857.00,0.83
4856.00,0.83
4855.00,0.83
4854.00,0.83
4853.00,0.83
4852.00,0.83
4851.00,0.83
4850.00,0.83
4849.00,0.84
4848.00,0.84
4847.00,0.84
4846.00,0.84
4845.00,0.84
4844.00,0.84
4843.00,0.84
4842.00,0.84
4841.00,0.84
4840.00,0.84
4839.00,0.84
4838.00,0.84
4837.00,0.84
4836.00,0.84
4835.00,0.84
4834.00,0.84
4833.00,0.84
4832.00,0.84
4831.00,0.84
4830.00,0.84
4829.00,0.84
4828.00,0.84
4827.00,0.84
4826.00,0.84
4825.00,0.84
4824.00,0.85
4823.00,0.85
4822.00,0.85
4821.00,0.85
4820.00,0.85
4819.00,0.85
4818.00,0.85
4817.00,0.85
4816.00,0.85
4815.00,0.85
4814.00,0.85
4813.00,0.86
4812.00,0.86
4811.00,0.86
4810.00,0.86
4809.00,0.86
4808.00,0.86
4807.00,0.86
4806.00,0.86
4805.00,0.86
4804.00,0.86
4803.00,0.86
4802.00,0.86
4801.00,0.86
4800.00,0.86
4799.00,0.86
4798.00,0.86
4797.00,0.86
4796.00,0.86
4795.00,0.86
4794.00,0.87
4793.00,0.87
4792.00,0.87
4791.00,0.87
4790.00,0.87
4789.00,0.87
4788.00,0.87
4787.00,0.87
4786.00,0.87
4785.00,0.88
4784.00,0.88
4783.00,0.88
4782.00,0.88
4781.00,0.88
4780.00,0.88
4779.00,0.88
4778.00,0.88
4777.00,0.88
4776.00,0.89
4775.00,0.89
4774.00,0.89
4773.00,0.89
4772.00,0.89
4771.00,0.89
4770.00,0.89
4769.00,0.89
4768.00,0.89
4767.00,0.89
4766.00,0.89
4765.00,0.89
4764.00,0.89
4763.00,0.90
4762.00,0.90
4761.00,0.90
4760.00,0.90
4759.00,0.90
4758.00,0.90
4757.00,0.90
4756.00,0.90
4755.00,0.90
4754.00,0.90
4753.00,0.90
4752.00,0.90
4751.00,0.90
4750.00,0.90
4749.00,0.90
4748.00,0.90
4747.00,0.91
4746.00,0.91
4745.00,0.91
4744.00,0.91
4743.00,0.91
4742.00,0.91
4741.00,0.91
4740.00,0.91
4739.00,0.91
4738.00,0.92
4737.00,0.92
4736.00,0.92
4735.00,0.92
4734.00,0.92
4733.00,0.92
4732.00,0.92
4731.00,0.92
4730.00,0.93
4729.00,0.93
4728.00,0.93
4727.00,0.93
4726.00,0.93
4725.00,0.93
4724.00,0.93
4723.00,0.93
4722.00,0.93
4721.00,0.93
4720.00,0.93
4719.00,0.93
4718.00,0.94
4717.00,0.94
4716.00,0.94
4715.00,0.94
4714.00,0.94
4713.00,0.94
4712.00,0.94
4711.00,0.95
4710.00,0.95
4709.00,0.95
4708.00,0.95
4707.00,0.95
4706.00,0.95
4705.00,0.95
4704.00,0.96
4703.00,0.96
4702.00,0.96
4701.00,0.96
4700.00,0.96
4699.00,0.96
4698.00,0.96
4697.00,0.96
4696.00,0.97
4695.00,0.97
4694.00,0.97
4693.00,0.97
4692.00,0.97
4691.00,0.97
4690.00,0.97
4689.00,0.97
4688.00,0.97
4687.00,0.97
4686.00,0.97
4685.00,0.98
4684.00,0.98
4683.00,0.98
4682.00,0.98
4681.00,0.98
4680.00,0.98
4679.00,0.98
4678.00,0.98
4677.00,0.98
4676.00,0.99
4675.00,0.99
4674.00,0.99
4673.00,0.99
4672.00,0.99
4671.00,0.99
4670.00,0.99
4669.00,0.99
4668.00,0.99
4667.00,0.99
4666.00,0.99
4665.00,1.00
4664.00,1.00
4663.00,1.00
4662.00,1.00
4661.00,1.00
4660.00,1.00
4659.00,1.00
4658.00,1.00
4657.00,1.00
4656.00,1.00
4655.00,1.00
4654.00,1.00
4653.00,1.00
4652.00,1.00
4651.00,1.01
4650.00,1.01
4649.00,1.01
4648.00,1.01
4647.00,1.01
4646.00,1.01
4645.00,1.01
4644.00,1.01
4643.00,1.01
4642.00,1.01
4641.00,1.01
4640.00,1.02
4639.00,1.02
4638.00,1.02
4637.00,1.02
4636.00,1.02
4635.00,1.02
4634.00,1.03
4633.00,1.03
4632.00,1.03
4631.00,1.03
4630.00,1.03
4629.00,1.04
4628.00,1.04
4627.00,1.04
4626.00,1.04
4625.00,1.04
4624.00,1.04
4623.00,1.04
4622.00,1.04
4621.00,1.04
4620.00,1.04
4619.00,1.04
4618.00,1.04
4617.00,1.04
4616.00,1.04
4615.00,1.04
4614.00,1.04
4613.00,1.04
4612.00,1.04
4611.00,1.04
4610.00,1.04
4609.00,1.04
4608.00,1.04
4607.00,1.04
4606.00,1.05
4605.00,1.05
4604.00,1.05
4603.00,1.05
4602.00,1.05
4601.00,1.05
4600.00,1.05
4599.00,1.05
4598.00,1.05
4597.00,1.05
4596.00,1.05
4595.00,1.05
4594.00,1.05
4593.00,1.06
4592.00,1.06
4591.00,1.06
4590.00,1.06
4589.00,1.06
4588.00,1.06
4587.00,1.06
4586.00,1.06
4585.00,1.07
4584.00,1.07
4583.00,1.07
4582.00,1.07
4581.00,1.07
4580.00,1.07
4579.00,1.07
4578.00,1.07
4577.00,1.07
4576.00,1.07
4575.00,1.07
4574.00,1.07
4573.00,1.08
4572.00,1.08
4571.00,1.08
4570.00,1.08
4569.00,1.08
4568.00,1.08
4567.00,1.08
4566.00,1.08
4565.00,1.08
4564.00,1.08
4563.00,1.08
4562.00,1.08
4561.00,1.08
4560.00,1.08
4559.00,1.08
4558.00,1.08
4557.00,1.08
4556.00,1.08
4555.00,1.09
4554.00,1.09
4553.00,1.09
4552.00,1.09
4551.00,1.09
4550.00,1.09
4549.00,1.09
4548.00,1.09
4547.00,1.09
4546.00,1.09
4545.00,1.09
4544.00,1.09
4543.00,1.09
4542.00,1.09
4541.00,1.09
4540.00,1.09
4539.00,1.10
4538.00,1.10
4537.00,1.10
4536.00,1.10
4535.00,1.10
4534.00,1.10
4533.00,1.10
4532.00,1.10
4531.00,1.11
4530.00,1.11
4529.00,1.11
4528.00,1.11
4527.00,1.11
4526.00,1.11
4525.00,1.11
4524.00,1.11
4523.00,1.11
4522.00,1.11
4521.00,1.11
4520.00,1.11
4519.00,1.11
4518.00,1.11
4517.00,1.11
4516.00,1.11
4515.00,1.11
4514.00,1.11
4513.00,1.11
4512.00,1.11
4511.00,1.11
4510.00,1.11
4509.00,1.11
4508.00,1.11
4507.00,1.11
4506.00,1.11
4505.00,1.11
4504.00,1.11
4503.00,1.11
4502.00,1.11
4501.00,1.11
4500.00,1.11
4499.00,1.11
4498.00,1.11
4497.00,1.11
4496.00,1.11
4495.00,1.10
4494.00,1.10
4493.00,1.10
4492.00,1.10
4491.00,1.10
4490.00,1.10
4489.00,1.10
4488.00,1.10
4487.00,1.10
4486.00,1.10
4485.00,1.10
4484.00,1.09
4483.00,1.09
4482.00,1.09
4481.00,1.09
4480.00,1.09
4479.00,1.09
4478.00,1.09
4477.00,1.09
4476.00,1.08
4475.00,1.08
4474.00,1.08
4473.00,1.08
4472.00,1.08
4471.00,1.08
4470.00,1.07
4469.00,1.07
4468.00,1.07
4467.00,1.07
4466.00,1.07
4465.00,1.07
4464.00,1.06
4463.00,1.06
4462.00,1.06
4461.00,1.06
4460.00,1.06
4459.00,1.06
4458.00,1.05
4457.00,1.05
4456.00,1.05
4455.00,1.05
4454.00,1.05
4453.00,1.04
4452.00,1.04
4451.00,1.04
4450.00,1.04
4449.00,1.04
4448.00,1.03
4447.00,1.03
4446.00,1.03
4445.00,1.03
4444.00,1.03
4443.00,1.02
4442.00,1.02
4441.00,1.02
4440.00,1.02
4439.00,1.01
4438.00,1.01
4437.00,1.01
4436.00,1.01
4435.00,1.01
4434.00,1.00
4433.00,1.00
4432.00,1.00
4431.00,1.00
4430.00,1.00
4429.00,1.00
4428.00,0.99
4427.00,0.99
4426.00,0.99
4425.00,0.99
4424.00,0.99
4423.00,0.99
4422.00,0.99
4421.00,0.99
4420.00,0.99
4419.00,0.99
4418.00,0.99
4417.00,0.99
4416.00,0.99
4415.00,0.99
4414.00,0.99
4413.00,0.99
4412.00,0.99
4411.00,0.99
4410.00,0.99
4409.00,0.99
4408.00,0.99
4407.00,0.99
4406.00,0.99
4405.00,0.99
4404.00,0.99
4403.00,0.99
4402.00,0.99
4401.00,0.99
4400.00,0.99
4399.00,0.99
4398.00,0.99
4397.00,1.00
4396.00,1.00
4395.00,1.00
4394.00,1.00
4393.00,1.00
4392.00,1.00
4391.00,1.00
4390.00,1.00
4389.00,1.00
4388.00,1.00
4387.00,1.00
4386.00,1.01
4385.00,1.01
4384.00,1.01
4383.00,1.01
4382.00,1.01
4381.00,1.01
4380.00,1.01
4379.00,1.01
4378.00,1.01
4377.00,1.01
4376.00,1.01
4375.00,1.01
4374.00,1.01
4373.00,1.01
4372.00,1.01
4371.00,1.01
4370.00,1.01
4369.00,1.01
4368.00,1.01
4367.00,1.01
4366.00,1.01
4365.00,1.01
4364.00,1.01
4363.00,1.01
4362.00,1.01
4361.00,1.01
4360.00,1.01
4359.00,1.01
4358.00,1.01
4357.00,1.01
4356.00,1.01
4355.00,1.01
4354.00,1.01
4353.00,1.01
4352.00,1.01
4351.00,1.01
4350.00,1.01
4349.00,1.01
4348.00,1.01
4347.00,1.01
4346.00,1.01
4345.00,1.02
4344.00,1.02
4343.00,1.02
4342.00,1.02
4341.00,1.02
4340.00,1.02
4339.00,1.02
4338.00,1.02
4337.00,1.02
4336.00,1.02
4335.00,1.02
4334.00,1.02
4333.00,1.02
4332.00,1.02
4331.00,1.02
4330.00,1.02
4329.00,1.03
4328.00,1.03
4327.00,1.03
4326.00,1.03
4325.00,1.03
4324.00,1.03
4323.00,1.03
4322.00,1.04
4321.00,1.04
4320.00,1.04
4319.00,1.04
4318.00,1.04
4317.00,1.04
4316.00,1.05
4315.00,1.05
4314.00,1.05
4313.00,1.05
4312.00,1.05
4311.00,1.06
4310.00,1.06
4309.00,1.06
4308.00,1.06
4307.00,1.06
4306.00,1.06
4305.00,1.06
4304.00,1.06
4303.00,1.06
4302.00,1.07
4301.00,1.07
4300.00,1.07
4299.00,1.07
4298.00,1.07
4297.00,1.07
4296.00,1.07
4295.00,1.07
4294.00,1.07
4293.00,1.07
4292.00,1.07
4291.00,1.07
4290.00,1.07
4289.00,1.07
4288.00,1.07
4287.00,1.07
4286.00,1.07
4285.00,1.08
4284.00,1.08
4283.00,1.08
4282.00,1.08
4281.00,1.08
4280.00,1.08
4279.00,1.08
4278.00,1.08
4277.00,1.08
4276.00,1.08
4275.00,1.08
4274.00,1.08
4273.00,1.08
4272.00,1.08
4271.00,1.08
4270.00,1.08
4269.00,1.08
4268.00,1.08
4267.00,1.08
4266.00,1.08
4265.00,1.08
4264.00,1.08
4263.00,1.08
4262.00,1.08
4261.00,1.08
4260.00,1.08
4259.00,1.08
4258.00,1.08
4257.00,1.08
4256.00,1.08
4255.00,1.08
4254.00,1.08
4253.00,1.08
4252.00,1.08
4251.00,1.08
4250.00,1.09
4249.00,1.09
4248.00,1.09
4247.00,1.09
4246.00,1.09
4245.00,1.09
4244.00,1.09
4243.00,1.09
4242.00,1.09
4241.00,1.09
4240.00,1.09
4239.00,1.09
4238.00,1.09
4237.00,1.09
4236.00,1.09
4235.00,1.09
4234.00,1.09
4233.00,1.09
4232.00,1.09
4231.00,1.09
4230.00,1.09
4229.00,1.09
4228.00,1.09
4227.00,1.09
4226.00,1.09
4225.00,1.09
4224.00,1.10
4223.00,1.10
4222.00,1.10
4221.00,1.10
4220.00,1.10
4219.00,1.10
4218.00,1.11
4217.00,1.11
4216.00,1.11
4215.00,1.11
4214.00,1.11
4213.00,1.12
4212.00,1.12
4211.00,1.12
4210.00,1.12
4209.00,1.12
4208.00,1.12
4207.00,1.12
4206.00,1.12
4205.00,1.12
4204.00,1.12
4203.00,1.12
4202.00,1.12
4201.00,1.12
4200.00,1.12
4199.00,1.12
4198.00,1.12
4197.00,1.12
4196.00,1.12
4195.00,1.12
4194.00,1.12
4193.00,1.12
4192.00,1.12
4191.00,1.12
4190.00,1.12
4189.00,1.12
4188.00,1.12
4187.00,1.12
4186.00,1.13
4185.00,1.13
4184.00,1.13
4183.00,1.13
4182.00,1.13
4181.00,1.13
4180.00,1.13
4179.00,1.13
4178.00,1.13
4177.00,1.13
4176.00,1.13
4175.00,1.13
4174.00,1.13
4173.00,1.13
4172.00,1.13
4171.00,1.13
4170.00,1.13
4169.00,1.13
4168.00,1.13
4167.00,1.13
4166.00,1.13
4165.00,1.13
4164.00,1.13
4163.00,1.13
4162.00,1.13
4161.00,1.13
4160.00,1.13
4159.00,1.13
4158.00,1.13
4157.00,1.13
4156.00,1.13
4155.00,1.13
4154.00,1.13
4153.00,1.14
4152.00,1.14
4151.00,1.14
4150.00,1.14
4149.00,1.14
4148.00,1.14
4147.00,1.14
4146.00,1.14
4145.00,1.15
4144.00,1.15
4143.00,1.15
4142.00,1.15
4141.00,1.15
4140.00,1.15
4139.00,1.15
4138.00,1.15
4137.00,1.15
4136.00,1.15
4135.00,1.15
4134.00,1.15
4133.00,1.14
4132.00,1.14
4131.00,1.14
4130.00,1.14
4129.00,1.14
4128.00,1.14
4127.00,1.14
4126.00,1.14
4125.00,1.14
4124.00,1.14
4123.00,1.14
4122.00,1.14
4121.00,1.14
4120.00,1.14
4119.00,1.14
4118.00,1.14
4117.00,1.14
4116.00,1.14
4115.00,1.14
4114.00,1.14
4113.00,1.14
4112.00,1.14
4111.00,1.14
4110.00,1.14
4109.00,1.14
4108.00,1.14
4107.00,1.14
4106.00,1.14
4105.00,1.14
4104.00,1.14
4103.00,1.14
4102.00,1.14
4101.00,1.14
4100.00,1.14
4099.00,1.14
4098.00,1.14
4097.00,1.14
4096.00,1.15
4095.00,1.15
4094.00,1.15
4093.00,1.15
4092.00,1.15
4091.00,1.16
4090.00,1.16
4089.00,1.16
4088.00,1.16
4087.00,1.17
4086.00,1.17
4085.00,1.17
4084.00,1.17
4083.00,1.17
4082.00,1.17
4081.00,1.17
4080.00,1.17
4079.00,1.18
4078.00,1.18
4077.00,1.18
4076.00,1.18
4075.00,1.18
4074.00,1.18
4073.00,1.18
4072.00,1.18
4071.00,1.18
4070.00,1.18
4069.00,1.18
4068.00,1.18
4067.00,1.18
4066.00,1.18
4065.00,1.18
4064.00,1.18
4063.00,1.18
4062.00,1.18
4061.00,1.18
4060.00,1.18
4059.00,1.18
4058.00,1.18
4057.00,1.18
4056.00,1.18
4055.00,1.18
4054.00,1.18
4053.00,1.18
4052.00,1.18
4051.00,1.18
4050.00,1.18
4049.00,1.18
4048.00,1.18
4047.00,1.18
4046.00,1.18
4045.00,1.18
4044.00,1.18
4043.00,1.19
4042.00,1.19
4041.00,1.19
4040.00,1.19
4039.00,1.19
4038.00,1.19
4037.00,1.19
4036.00,1.19
4035.00,1.19
4034.00,1.19
4033.00,1.20
4032.00,1.20
4031.00,1.20
4030.00,1.20
4029.00,1.20
4028.00,1.20
4027.00,1.20
4026.00,1.20
4025.00,1.20
4024.00,1.20
4023.00,1.21
4022.00,1.21
4021.00,1.21
4020.00,1.21
4019.00,1.21
4018.00,1.21
4017.00,1.21
4016.00,1.21
4015.00,1.22
4014.00,1.22
4013.00,1.22
4012.00,1.22
4011.00,1.22
4010.00,1.22
4009.00,1.22
4008.00,1.22
4007.00,1.22
4006.00,1.22
4005.00,1.22
4004.00,1.22
4003.00,1.22
4002.00,1.22
4001.00,1.22
4000.00,1.22
