创建为新数据集,样品 417 用户 Administrator 日期 星期四, 三月 08 2018
cm-1,%T
10000.00,1.28
9999.00,1.28
9998.00,1.28
9997.00,1.28
9996.00,1.28
9995.00,1.27
9994.00,1.27
9993.00,1.27
9992.00,1.27
9991.00,1.27
9990.00,1.28
9989.00,1.28
9988.00,1.28
9987.00,1.28
9986.00,1.28
9985.00,1.28
9984.00,1.28
9983.00,1.28
9982.00,1.28
9981.00,1.28
9980.00,1.28
9979.00,1.28
9978.00,1.27
9977.00,1.27
9976.00,1.27
9975.00,1.27
9974.00,1.27
9973.00,1.27
9972.00,1.27
9971.00,1.27
9970.00,1.27
9969.00,1.27
9968.00,1.27
9967.00,1.27
9966.00,1.27
9965.00,1.27
9964.00,1.27
9963.00,1.26
9962.00,1.26
9961.00,1.26
9960.00,1.26
9959.00,1.26
9958.00,1.26
9957.00,1.26
9956.00,1.26
9955.00,1.26
9954.00,1.26
9953.00,1.26
9952.00,1.27
9951.00,1.27
9950.00,1.27
9949.00,1.27
9948.00,1.27
9947.00,1.27
9946.00,1.27
9945.00,1.27
9944.00,1.28
9943.00,1.28
9942.00,1.28
9941.00,1.28
9940.00,1.28
9939.00,1.28
9938.00,1.28
9937.00,1.28
9936.00,1.28
9935.00,1.28
9934.00,1.28
9933.00,1.28
9932.00,1.28
9931.00,1.28
9930.00,1.28
9929.00,1.28
9928.00,1.28
9927.00,1.28
9926.00,1.28
9925.00,1.28
9924.00,1.28
9923.00,1.28
9922.00,1.27
9921.00,1.27
9920.00,1.27
9919.00,1.27
9918.00,1.27
9917.00,1.27
9916.00,1.26
9915.00,1.26
9914.00,1.26
9913.00,1.26
9912.00,1.25
9911.00,1.25
9910.00,1.25
9909.00,1.25
9908.00,1.25
9907.00,1.24
9906.00,1.24
9905.00,1.24
9904.00,1.24
9903.00,1.24
9902.00,1.24
9901.00,1.24
9900.00,1.24
9899.00,1.24
9898.00,1.24
9897.00,1.25
9896.00,1.25
9895.00,1.25
9894.00,1.25
9893.00,1.25
9892.00,1.25
9891.00,1.25
9890.00,1.25
9889.00,1.25
9888.00,1.25
9887.00,1.25
9886.00,1.26
9885.00,1.26
9884.00,1.26
9883.00,1.26
9882.00,1.26
9881.00,1.26
9880.00,1.26
9879.00,1.26
9878.00,1.26
9877.00,1.26
9876.00,1.26
9875.00,1.26
9874.00,1.26
9873.00,1.26
9872.00,1.26
9871.00,1.26
9870.00,1.26
9869.00,1.26
9868.00,1.26
9867.00,1.26
9866.00,1.26
9865.00,1.26
9864.00,1.26
9863.00,1.26
9862.00,1.26
9861.00,1.27
9860.00,1.27
9859.00,1.27
9858.00,1.27
9857.00,1.27
9856.00,1.27
9855.00,1.27
9854.00,1.27
9853.00,1.27
9852.00,1.27
9851.00,1.28
9850.00,1.28
9849.00,1.28
9848.00,1.28
9847.00,1.28
9846.00,1.28
9845.00,1.28
9844.00,1.28
9843.00,1.28
9842.00,1.28
9841.00,1.28
9840.00,1.28
9839.00,1.27
9838.00,1.27
9837.00,1.27
9836.00,1.27
9835.00,1.27
9834.00,1.27
9833.00,1.27
9832.00,1.27
9831.00,1.27
9830.00,1.27
9829.00,1.26
9828.00,1.26
9827.00,1.26
9826.00,1.26
9825.00,1.26
9824.00,1.26
9823.00,1.26
9822.00,1.26
9821.00,1.26
9820.00,1.26
9819.00,1.26
9818.00,1.26
9817.00,1.25
9816.00,1.25
9815.00,1.25
9814.00,1.25
9813.00,1.25
9812.00,1.25
9811.00,1.25
9810.00,1.24
9809.00,1.24
9808.00,1.24
9807.00,1.24
9806.00,1.24
9805.00,1.24
9804.00,1.24
9803.00,1.23
9802.00,1.23
9801.00,1.23
9800.00,1.23
9799.00,1.23
9798.00,1.23
9797.00,1.23
9796.00,1.23
9795.00,1.24
9794.00,1.24
9793.00,1.24
9792.00,1.24
9791.00,1.24
9790.00,1.24
9789.00,1.24
9788.00,1.25
9787.00,1.25
9786.00,1.25
9785.00,1.25
9784.00,1.25
9783.00,1.25
9782.00,1.25
9781.00,1.25
9780.00,1.25
9779.00,1.26
9778.00,1.26
9777.00,1.26
9776.00,1.26
9775.00,1.26
9774.00,1.26
9773.00,1.26
9772.00,1.26
9771.00,1.26
9770.00,1.26
9769.00,1.26
9768.00,1.26
9767.00,1.26
9766.00,1.26
9765.00,1.26
9764.00,1.26
9763.00,1.26
9762.00,1.26
9761.00,1.26
9760.00,1.26
9759.00,1.26
9758.00,1.27
9757.00,1.27
9756.00,1.27
9755.00,1.27
9754.00,1.27
9753.00,1.27
9752.00,1.27
9751.00,1.27
9750.00,1.27
9749.00,1.27
9748.00,1.27
9747.00,1.26
9746.00,1.26
9745.00,1.26
9744.00,1.26
9743.00,1.26
9742.00,1.26
9741.00,1.25
9740.00,1.25
9739.00,1.25
9738.00,1.25
9737.00,1.25
9736.00,1.25
9735.00,1.25
9734.00,1.25
9733.00,1.25
9732.00,1.25
9731.00,1.25
9730.00,1.25
9729.00,1.25
9728.00,1.25
9727.00,1.25
9726.00,1.26
9725.00,1.26
9724.00,1.26
9723.00,1.26
9722.00,1.26
9721.00,1.26
9720.00,1.26
9719.00,1.26
9718.00,1.26
9717.00,1.26
9716.00,1.26
9715.00,1.27
9714.00,1.27
9713.00,1.27
9712.00,1.27
9711.00,1.27
9710.00,1.27
9709.00,1.27
9708.00,1.27
9707.00,1.27
9706.00,1.27
9705.00,1.27
9704.00,1.27
9703.00,1.27
9702.00,1.27
9701.00,1.27
9700.00,1.27
9699.00,1.27
9698.00,1.26
9697.00,1.26
9696.00,1.26
9695.00,1.26
9694.00,1.26
9693.00,1.25
9692.00,1.25
9691.00,1.25
9690.00,1.25
9689.00,1.25
9688.00,1.25
9687.00,1.25
9686.00,1.25
9685.00,1.25
9684.00,1.25
9683.00,1.25
9682.00,1.25
9681.00,1.26
9680.00,1.26
9679.00,1.26
9678.00,1.26
9677.00,1.26
9676.00,1.26
9675.00,1.26
9674.00,1.26
9673.00,1.26
9672.00,1.26
9671.00,1.26
9670.00,1.26
9669.00,1.26
9668.00,1.26
9667.00,1.26
9666.00,1.26
9665.00,1.26
9664.00,1.25
9663.00,1.25
9662.00,1.25
9661.00,1.25
9660.00,1.25
9659.00,1.25
9658.00,1.25
9657.00,1.25
9656.00,1.25
9655.00,1.25
9654.00,1.25
9653.00,1.25
9652.00,1.25
9651.00,1.25
9650.00,1.26
9649.00,1.26
9648.00,1.26
9647.00,1.26
9646.00,1.26
9645.00,1.26
9644.00,1.26
9643.00,1.26
9642.00,1.27
9641.00,1.27
9640.00,1.27
9639.00,1.26
9638.00,1.26
9637.00,1.26
9636.00,1.26
9635.00,1.26
9634.00,1.26
9633.00,1.26
9632.00,1.26
9631.00,1.26
9630.00,1.26
9629.00,1.26
9628.00,1.25
9627.00,1.25
9626.00,1.25
9625.00,1.25
9624.00,1.25
9623.00,1.25
9622.00,1.25
9621.00,1.24
9620.00,1.24
9619.00,1.24
9618.00,1.24
9617.00,1.24
9616.00,1.24
9615.00,1.24
9614.00,1.24
9613.00,1.24
9612.00,1.24
9611.00,1.24
9610.00,1.25
9609.00,1.25
9608.00,1.25
9607.00,1.25
9606.00,1.25
9605.00,1.25
9604.00,1.25
9603.00,1.26
9602.00,1.26
9601.00,1.26
9600.00,1.26
9599.00,1.26
9598.00,1.26
9597.00,1.26
9596.00,1.26
9595.00,1.26
9594.00,1.26
9593.00,1.26
9592.00,1.26
9591.00,1.26
9590.00,1.26
9589.00,1.26
9588.00,1.26
9587.00,1.26
9586.00,1.25
9585.00,1.25
9584.00,1.25
9583.00,1.25
9582.00,1.25
9581.00,1.25
9580.00,1.25
9579.00,1.25
9578.00,1.24
9577.00,1.24
9576.00,1.24
9575.00,1.24
9574.00,1.24
9573.00,1.24
9572.00,1.24
9571.00,1.24
9570.00,1.24
9569.00,1.24
9568.00,1.24
9567.00,1.24
9566.00,1.24
9565.00,1.24
9564.00,1.24
9563.00,1.24
9562.00,1.24
9561.00,1.24
9560.00,1.24
9559.00,1.25
9558.00,1.25
9557.00,1.25
9556.00,1.25
9555.00,1.25
9554.00,1.25
9553.00,1.25
9552.00,1.25
9551.00,1.25
9550.00,1.25
9549.00,1.25
9548.00,1.25
9547.00,1.24
9546.00,1.24
9545.00,1.24
9544.00,1.24
9543.00,1.24
9542.00,1.24
9541.00,1.23
9540.00,1.23
9539.00,1.23
9538.00,1.23
9537.00,1.23
9536.00,1.23
9535.00,1.23
9534.00,1.23
9533.00,1.23
9532.00,1.23
9531.00,1.23
9530.00,1.23
9529.00,1.23
9528.00,1.23
9527.00,1.23
9526.00,1.23
9525.00,1.23
9524.00,1.23
9523.00,1.23
9522.00,1.23
9521.00,1.24
9520.00,1.24
9519.00,1.24
9518.00,1.24
9517.00,1.24
9516.00,1.24
9515.00,1.24
9514.00,1.24
9513.00,1.25
9512.00,1.25
9511.00,1.25
9510.00,1.25
9509.00,1.25
9508.00,1.25
9507.00,1.25
9506.00,1.25
9505.00,1.26
9504.00,1.26
9503.00,1.26
9502.00,1.26
9501.00,1.26
9500.00,1.27
9499.00,1.27
9498.00,1.27
9497.00,1.27
9496.00,1.27
9495.00,1.27
9494.00,1.27
9493.00,1.28
9492.00,1.28
9491.00,1.28
9490.00,1.28
9489.00,1.28
9488.00,1.28
9487.00,1.27
9486.00,1.27
9485.00,1.27
9484.00,1.27
9483.00,1.27
9482.00,1.27
9481.00,1.27
9480.00,1.27
9479.00,1.26
9478.00,1.26
9477.00,1.26
9476.00,1.26
9475.00,1.26
9474.00,1.26
9473.00,1.26
9472.00,1.26
9471.00,1.26
9470.00,1.26
9469.00,1.26
9468.00,1.26
9467.00,1.26
9466.00,1.26
9465.00,1.26
9464.00,1.26
9463.00,1.26
9462.00,1.26
9461.00,1.26
9460.00,1.26
9459.00,1.26
9458.00,1.26
9457.00,1.26
9456.00,1.26
9455.00,1.26
9454.00,1.26
9453.00,1.26
9452.00,1.26
9451.00,1.25
9450.00,1.25
9449.00,1.25
9448.00,1.25
9447.00,1.25
9446.00,1.25
9445.00,1.25
9444.00,1.24
9443.00,1.24
9442.00,1.24
9441.00,1.24
9440.00,1.24
9439.00,1.24
9438.00,1.24
9437.00,1.24
9436.00,1.24
9435.00,1.24
9434.00,1.24
9433.00,1.24
9432.00,1.24
9431.00,1.24
9430.00,1.25
9429.00,1.25
9428.00,1.25
9427.00,1.25
9426.00,1.25
9425.00,1.25
9424.00,1.25
9423.00,1.26
9422.00,1.26
9421.00,1.26
9420.00,1.26
9419.00,1.26
9418.00,1.26
9417.00,1.26
9416.00,1.27
9415.00,1.27
9414.00,1.27
9413.00,1.27
9412.00,1.27
9411.00,1.27
9410.00,1.26
9409.00,1.26
9408.00,1.26
9407.00,1.26
9406.00,1.26
9405.00,1.26
9404.00,1.26
9403.00,1.25
9402.00,1.25
9401.00,1.25
9400.00,1.25
9399.00,1.25
9398.00,1.25
9397.00,1.25
9396.00,1.24
9395.00,1.24
9394.00,1.24
9393.00,1.24
9392.00,1.24
9391.00,1.24
9390.00,1.24
9389.00,1.25
9388.00,1.25
9387.00,1.25
9386.00,1.25
9385.00,1.25
9384.00,1.25
9383.00,1.25
9382.00,1.25
9381.00,1.25
9380.00,1.25
9379.00,1.25
9378.00,1.25
9377.00,1.26
9376.00,1.26
9375.00,1.26
9374.00,1.26
9373.00,1.26
9372.00,1.26
9371.00,1.26
9370.00,1.26
9369.00,1.26
9368.00,1.26
9367.00,1.26
9366.00,1.26
9365.00,1.27
9364.00,1.27
9363.00,1.27
9362.00,1.27
9361.00,1.27
9360.00,1.27
9359.00,1.27
9358.00,1.27
9357.00,1.27
9356.00,1.27
9355.00,1.27
9354.00,1.27
9353.00,1.27
9352.00,1.27
9351.00,1.27
9350.00,1.27
9349.00,1.26
9348.00,1.26
9347.00,1.26
9346.00,1.26
9345.00,1.26
9344.00,1.26
9343.00,1.26
9342.00,1.26
9341.00,1.26
9340.00,1.26
9339.00,1.25
9338.00,1.25
9337.00,1.25
9336.00,1.25
9335.00,1.25
9334.00,1.25
9333.00,1.25
9332.00,1.24
9331.00,1.24
9330.00,1.24
9329.00,1.24
9328.00,1.24
9327.00,1.24
9326.00,1.24
9325.00,1.24
9324.00,1.24
9323.00,1.24
9322.00,1.25
9321.00,1.25
9320.00,1.25
9319.00,1.25
9318.00,1.25
9317.00,1.25
9316.00,1.26
9315.00,1.26
9314.00,1.26
9313.00,1.26
9312.00,1.26
9311.00,1.26
9310.00,1.26
9309.00,1.26
9308.00,1.26
9307.00,1.25
9306.00,1.25
9305.00,1.25
9304.00,1.25
9303.00,1.25
9302.00,1.24
9301.00,1.24
9300.00,1.24
9299.00,1.24
9298.00,1.24
9297.00,1.24
9296.00,1.24
9295.00,1.24
9294.00,1.24
9293.00,1.24
9292.00,1.24
9291.00,1.24
9290.00,1.25
9289.00,1.25
9288.00,1.25
9287.00,1.25
9286.00,1.25
9285.00,1.26
9284.00,1.26
9283.00,1.26
9282.00,1.26
9281.00,1.26
9280.00,1.26
9279.00,1.26
9278.00,1.26
9277.00,1.26
9276.00,1.26
9275.00,1.26
9274.00,1.26
9273.00,1.26
9272.00,1.26
9271.00,1.26
9270.00,1.25
9269.00,1.25
9268.00,1.25
9267.00,1.25
9266.00,1.25
9265.00,1.24
9264.00,1.24
9263.00,1.24
9262.00,1.24
9261.00,1.24
9260.00,1.24
9259.00,1.24
9258.00,1.24
9257.00,1.25
9256.00,1.25
9255.00,1.25
9254.00,1.25
9253.00,1.25
9252.00,1.25
9251.00,1.25
9250.00,1.25
9249.00,1.26
9248.00,1.26
9247.00,1.26
9246.00,1.26
9245.00,1.26
9244.00,1.26
9243.00,1.26
9242.00,1.26
9241.00,1.26
9240.00,1.25
9239.00,1.25
9238.00,1.25
9237.00,1.25
9236.00,1.25
9235.00,1.25
9234.00,1.25
9233.00,1.25
9232.00,1.25
9231.00,1.25
9230.00,1.25
9229.00,1.25
9228.00,1.26
9227.00,1.26
9226.00,1.26
9225.00,1.26
9224.00,1.26
9223.00,1.26
9222.00,1.26
9221.00,1.26
9220.00,1.26
9219.00,1.26
9218.00,1.26
9217.00,1.26
9216.00,1.26
9215.00,1.26
9214.00,1.26
9213.00,1.25
9212.00,1.25
9211.00,1.25
9210.00,1.25
9209.00,1.25
9208.00,1.25
9207.00,1.25
9206.00,1.25
9205.00,1.25
9204.00,1.25
9203.00,1.25
9202.00,1.25
9201.00,1.25
9200.00,1.25
9199.00,1.25
9198.00,1.25
9197.00,1.25
9196.00,1.25
9195.00,1.25
9194.00,1.25
9193.00,1.25
9192.00,1.25
9191.00,1.25
9190.00,1.25
9189.00,1.26
9188.00,1.26
9187.00,1.26
9186.00,1.26
9185.00,1.26
9184.00,1.26
9183.00,1.26
9182.00,1.26
9181.00,1.26
9180.00,1.26
9179.00,1.26
9178.00,1.26
9177.00,1.26
9176.00,1.26
9175.00,1.26
9174.00,1.26
9173.00,1.26
9172.00,1.26
9171.00,1.26
9170.00,1.26
9169.00,1.26
9168.00,1.26
9167.00,1.26
9166.00,1.26
9165.00,1.26
9164.00,1.26
9163.00,1.26
9162.00,1.26
9161.00,1.26
9160.00,1.26
9159.00,1.26
9158.00,1.26
9157.00,1.26
9156.00,1.26
9155.00,1.26
9154.00,1.26
9153.00,1.26
9152.00,1.26
9151.00,1.26
9150.00,1.26
9149.00,1.26
9148.00,1.26
9147.00,1.26
9146.00,1.26
9145.00,1.26
9144.00,1.26
9143.00,1.26
9142.00,1.26
9141.00,1.26
9140.00,1.26
9139.00,1.26
9138.00,1.26
9137.00,1.26
9136.00,1.26
9135.00,1.26
9134.00,1.26
9133.00,1.26
9132.00,1.26
9131.00,1.26
9130.00,1.25
9129.00,1.25
9128.00,1.25
9127.00,1.25
9126.00,1.25
9125.00,1.25
9124.00,1.25
9123.00,1.25
9122.00,1.25
9121.00,1.25
9120.00,1.25
9119.00,1.25
9118.00,1.25
9117.00,1.25
9116.00,1.25
9115.00,1.24
9114.00,1.24
9113.00,1.24
9112.00,1.24
9111.00,1.24
9110.00,1.24
9109.00,1.24
9108.00,1.24
9107.00,1.24
9106.00,1.24
9105.00,1.24
9104.00,1.24
9103.00,1.24
9102.00,1.24
9101.00,1.24
9100.00,1.24
9099.00,1.25
9098.00,1.25
9097.00,1.25
9096.00,1.25
9095.00,1.25
9094.00,1.25
9093.00,1.26
9092.00,1.26
9091.00,1.26
9090.00,1.26
9089.00,1.26
9088.00,1.26
9087.00,1.26
9086.00,1.26
9085.00,1.26
9084.00,1.26
9083.00,1.26
9082.00,1.26
9081.00,1.26
9080.00,1.26
9079.00,1.26
9078.00,1.26
9077.00,1.26
9076.00,1.26
9075.00,1.27
9074.00,1.27
9073.00,1.27
9072.00,1.27
9071.00,1.27
9070.00,1.27
9069.00,1.27
9068.00,1.27
9067.00,1.27
9066.00,1.27
9065.00,1.27
9064.00,1.27
9063.00,1.26
9062.00,1.26
9061.00,1.26
9060.00,1.26
9059.00,1.26
9058.00,1.26
9057.00,1.26
9056.00,1.26
9055.00,1.26
9054.00,1.26
9053.00,1.26
9052.00,1.27
9051.00,1.27
9050.00,1.27
9049.00,1.27
9048.00,1.27
9047.00,1.27
9046.00,1.27
9045.00,1.27
9044.00,1.27
9043.00,1.27
9042.00,1.27
9041.00,1.27
9040.00,1.27
9039.00,1.27
9038.00,1.27
9037.00,1.27
9036.00,1.27
9035.00,1.27
9034.00,1.27
9033.00,1.27
9032.00,1.27
9031.00,1.27
9030.00,1.27
9029.00,1.27
9028.00,1.27
9027.00,1.28
9026.00,1.28
9025.00,1.28
9024.00,1.28
9023.00,1.28
9022.00,1.27
9021.00,1.27
9020.00,1.27
9019.00,1.27
9018.00,1.27
9017.00,1.27
9016.00,1.26
9015.00,1.26
9014.00,1.26
9013.00,1.26
9012.00,1.25
9011.00,1.25
9010.00,1.25
9009.00,1.25
9008.00,1.25
9007.00,1.25
9006.00,1.25
9005.00,1.25
9004.00,1.24
9003.00,1.24
9002.00,1.24
9001.00,1.24
9000.00,1.24
8999.00,1.24
8998.00,1.24
8997.00,1.24
8996.00,1.24
8995.00,1.24
8994.00,1.24
8993.00,1.24
8992.00,1.24
8991.00,1.24
8990.00,1.24
8989.00,1.24
8988.00,1.24
8987.00,1.24
8986.00,1.24
8985.00,1.24
8984.00,1.24
8983.00,1.24
8982.00,1.24
8981.00,1.24
8980.00,1.24
8979.00,1.24
8978.00,1.24
8977.00,1.24
8976.00,1.24
8975.00,1.24
8974.00,1.24
8973.00,1.24
8972.00,1.24
8971.00,1.24
8970.00,1.24
8969.00,1.24
8968.00,1.24
8967.00,1.24
8966.00,1.24
8965.00,1.24
8964.00,1.23
8963.00,1.23
8962.00,1.23
8961.00,1.23
8960.00,1.23
8959.00,1.23
8958.00,1.23
8957.00,1.24
8956.00,1.24
8955.00,1.24
8954.00,1.24
8953.00,1.24
8952.00,1.24
8951.00,1.24
8950.00,1.24
8949.00,1.25
8948.00,1.25
8947.00,1.25
8946.00,1.25
8945.00,1.25
8944.00,1.25
8943.00,1.25
8942.00,1.25
8941.00,1.25
8940.00,1.26
8939.00,1.26
8938.00,1.26
8937.00,1.26
8936.00,1.26
8935.00,1.26
8934.00,1.26
8933.00,1.26
8932.00,1.26
8931.00,1.26
8930.00,1.26
8929.00,1.26
8928.00,1.26
8927.00,1.26
8926.00,1.26
8925.00,1.26
8924.00,1.26
8923.00,1.26
8922.00,1.26
8921.00,1.26
8920.00,1.26
8919.00,1.26
8918.00,1.26
8917.00,1.26
8916.00,1.26
8915.00,1.26
8914.00,1.26
8913.00,1.26
8912.00,1.26
8911.00,1.26
8910.00,1.26
8909.00,1.26
8908.00,1.26
8907.00,1.25
8906.00,1.25
8905.00,1.25
8904.00,1.25
8903.00,1.25
8902.00,1.25
8901.00,1.25
8900.00,1.25
8899.00,1.25
8898.00,1.25
8897.00,1.25
8896.00,1.25
8895.00,1.25
8894.00,1.25
8893.00,1.25
8892.00,1.25
8891.00,1.25
8890.00,1.25
8889.00,1.25
8888.00,1.25
8887.00,1.25
8886.00,1.25
8885.00,1.25
8884.00,1.25
8883.00,1.24
8882.00,1.24
8881.00,1.24
8880.00,1.24
8879.00,1.24
8878.00,1.24
8877.00,1.24
8876.00,1.24
8875.00,1.24
8874.00,1.24
8873.00,1.24
8872.00,1.25
8871.00,1.25
8870.00,1.25
8869.00,1.25
8868.00,1.25
8867.00,1.25
8866.00,1.25
8865.00,1.25
8864.00,1.25
8863.00,1.25
8862.00,1.25
8861.00,1.25
8860.00,1.25
8859.00,1.25
8858.00,1.25
8857.00,1.25
8856.00,1.25
8855.00,1.25
8854.00,1.25
8853.00,1.25
8852.00,1.25
8851.00,1.25
8850.00,1.25
8849.00,1.25
8848.00,1.25
8847.00,1.25
8846.00,1.25
8845.00,1.25
8844.00,1.25
8843.00,1.25
8842.00,1.24
8841.00,1.24
8840.00,1.24
8839.00,1.24
8838.00,1.24
8837.00,1.24
8836.00,1.23
8835.00,1.23
8834.00,1.23
8833.00,1.23
8832.00,1.23
8831.00,1.23
8830.00,1.23
8829.00,1.23
8828.00,1.23
8827.00,1.23
8826.00,1.23
8825.00,1.23
8824.00,1.24
8823.00,1.24
8822.00,1.24
8821.00,1.24
8820.00,1.24
8819.00,1.24
8818.00,1.24
8817.00,1.23
8816.00,1.23
8815.00,1.23
8814.00,1.23
8813.00,1.23
8812.00,1.23
8811.00,1.23
8810.00,1.23
8809.00,1.22
8808.00,1.22
8807.00,1.22
8806.00,1.22
8805.00,1.22
8804.00,1.22
8803.00,1.22
8802.00,1.22
8801.00,1.22
8800.00,1.22
8799.00,1.22
8798.00,1.22
8797.00,1.22
8796.00,1.22
8795.00,1.22
8794.00,1.22
8793.00,1.22
8792.00,1.22
8791.00,1.22
8790.00,1.22
8789.00,1.22
8788.00,1.22
8787.00,1.22
8786.00,1.22
8785.00,1.22
8784.00,1.21
8783.00,1.21
8782.00,1.21
8781.00,1.21
8780.00,1.21
8779.00,1.21
8778.00,1.20
8777.00,1.20
8776.00,1.20
8775.00,1.20
8774.00,1.20
8773.00,1.20
8772.00,1.20
8771.00,1.20
8770.00,1.20
8769.00,1.20
8768.00,1.20
8767.00,1.20
8766.00,1.20
8765.00,1.20
8764.00,1.20
8763.00,1.20
8762.00,1.20
8761.00,1.20
8760.00,1.20
8759.00,1.20
8758.00,1.20
8757.00,1.20
8756.00,1.21
8755.00,1.21
8754.00,1.20
8753.00,1.20
8752.00,1.20
8751.00,1.20
8750.00,1.20
8749.00,1.20
8748.00,1.20
8747.00,1.20
8746.00,1.20
8745.00,1.20
8744.00,1.20
8743.00,1.20
8742.00,1.20
8741.00,1.20
8740.00,1.20
8739.00,1.20
8738.00,1.20
8737.00,1.20
8736.00,1.20
8735.00,1.20
8734.00,1.20
8733.00,1.20
8732.00,1.20
8731.00,1.20
8730.00,1.20
8729.00,1.20
8728.00,1.20
8727.00,1.20
8726.00,1.20
8725.00,1.20
8724.00,1.20
8723.00,1.20
8722.00,1.20
8721.00,1.20
8720.00,1.20
8719.00,1.20
8718.00,1.20
8717.00,1.20
8716.00,1.20
8715.00,1.19
8714.00,1.19
8713.00,1.19
8712.00,1.19
8711.00,1.19
8710.00,1.19
8709.00,1.19
8708.00,1.20
8707.00,1.20
8706.00,1.20
8705.00,1.20
8704.00,1.20
8703.00,1.20
8702.00,1.20
8701.00,1.20
8700.00,1.20
8699.00,1.20
8698.00,1.20
8697.00,1.20
8696.00,1.20
8695.00,1.20
8694.00,1.20
8693.00,1.20
8692.00,1.20
8691.00,1.20
8690.00,1.20
8689.00,1.19
8688.00,1.19
8687.00,1.19
8686.00,1.19
8685.00,1.19
8684.00,1.19
8683.00,1.19
8682.00,1.19
8681.00,1.18
8680.00,1.18
8679.00,1.18
8678.00,1.18
8677.00,1.18
8676.00,1.18
8675.00,1.18
8674.00,1.18
8673.00,1.18
8672.00,1.18
8671.00,1.18
8670.00,1.18
8669.00,1.18
8668.00,1.18
8667.00,1.18
8666.00,1.18
8665.00,1.18
8664.00,1.18
8663.00,1.18
8662.00,1.18
8661.00,1.18
8660.00,1.17
8659.00,1.17
8658.00,1.17
8657.00,1.17
8656.00,1.17
8655.00,1.17
8654.00,1.17
8653.00,1.17
8652.00,1.17
8651.00,1.17
8650.00,1.16
8649.00,1.16
8648.00,1.16
8647.00,1.16
8646.00,1.16
8645.00,1.16
8644.00,1.16
8643.00,1.16
8642.00,1.16
8641.00,1.16
8640.00,1.17
8639.00,1.17
8638.00,1.17
8637.00,1.17
8636.00,1.17
8635.00,1.17
8634.00,1.17
8633.00,1.17
8632.00,1.17
8631.00,1.17
8630.00,1.17
8629.00,1.17
8628.00,1.17
8627.00,1.17
8626.00,1.18
8625.00,1.18
8624.00,1.18
8623.00,1.18
8622.00,1.18
8621.00,1.18
8620.00,1.18
8619.00,1.18
8618.00,1.18
8617.00,1.17
8616.00,1.17
8615.00,1.17
8614.00,1.17
8613.00,1.17
8612.00,1.16
8611.00,1.16
8610.00,1.16
8609.00,1.16
8608.00,1.15
8607.00,1.15
8606.00,1.15
8605.00,1.15
8604.00,1.14
8603.00,1.14
8602.00,1.14
8601.00,1.14
8600.00,1.14
8599.00,1.14
8598.00,1.14
8597.00,1.14
8596.00,1.14
8595.00,1.14
8594.00,1.14
8593.00,1.14
8592.00,1.14
8591.00,1.14
8590.00,1.14
8589.00,1.14
8588.00,1.14
8587.00,1.15
8586.00,1.15
8585.00,1.15
8584.00,1.15
8583.00,1.15
8582.00,1.15
8581.00,1.15
8580.00,1.15
8579.00,1.15
8578.00,1.15
8577.00,1.15
8576.00,1.15
8575.00,1.15
8574.00,1.15
8573.00,1.15
8572.00,1.15
8571.00,1.15
8570.00,1.15
8569.00,1.14
8568.00,1.14
8567.00,1.14
8566.00,1.14
8565.00,1.14
8564.00,1.14
8563.00,1.14
8562.00,1.14
8561.00,1.14
8560.00,1.14
8559.00,1.14
8558.00,1.14
8557.00,1.14
8556.00,1.14
8555.00,1.14
8554.00,1.14
8553.00,1.14
8552.00,1.14
8551.00,1.14
8550.00,1.14
8549.00,1.14
8548.00,1.14
8547.00,1.14
8546.00,1.14
8545.00,1.14
8544.00,1.14
8543.00,1.14
8542.00,1.14
8541.00,1.14
8540.00,1.14
8539.00,1.14
8538.00,1.14
8537.00,1.14
8536.00,1.14
8535.00,1.14
8534.00,1.14
8533.00,1.13
8532.00,1.13
8531.00,1.13
8530.00,1.13
8529.00,1.13
8528.00,1.13
8527.00,1.12
8526.00,1.12
8525.00,1.12
8524.00,1.12
8523.00,1.12
8522.00,1.12
8521.00,1.12
8520.00,1.12
8519.00,1.12
8518.00,1.12
8517.00,1.12
8516.00,1.12
8515.00,1.12
8514.00,1.12
8513.00,1.12
8512.00,1.12
8511.00,1.12
8510.00,1.12
8509.00,1.12
8508.00,1.12
8507.00,1.12
8506.00,1.12
8505.00,1.12
8504.00,1.12
8503.00,1.12
8502.00,1.12
8501.00,1.12
8500.00,1.12
8499.00,1.12
8498.00,1.12
8497.00,1.12
8496.00,1.12
8495.00,1.12
8494.00,1.12
8493.00,1.11
8492.00,1.11
8491.00,1.11
8490.00,1.11
8489.00,1.11
8488.00,1.11
8487.00,1.10
8486.00,1.10
8485.00,1.10
8484.00,1.10
8483.00,1.09
8482.00,1.09
8481.00,1.09
8480.00,1.09
8479.00,1.09
8478.00,1.09
8477.00,1.08
8476.00,1.08
8475.00,1.08
8474.00,1.08
8473.00,1.08
8472.00,1.08
8471.00,1.08
8470.00,1.08
8469.00,1.08
8468.00,1.08
8467.00,1.08
8466.00,1.08
8465.00,1.08
8464.00,1.08
8463.00,1.08
8462.00,1.08
8461.00,1.08
8460.00,1.08
8459.00,1.08
8458.00,1.08
8457.00,1.08
8456.00,1.08
8455.00,1.08
8454.00,1.08
8453.00,1.08
8452.00,1.08
8451.00,1.07
8450.00,1.07
8449.00,1.07
8448.00,1.07
8447.00,1.07
8446.00,1.07
8445.00,1.07
8444.00,1.07
8443.00,1.07
8442.00,1.07
8441.00,1.07
8440.00,1.07
8439.00,1.07
8438.00,1.07
8437.00,1.07
8436.00,1.07
8435.00,1.07
8434.00,1.07
8433.00,1.07
8432.00,1.07
8431.00,1.07
8430.00,1.07
8429.00,1.07
8428.00,1.07
8427.00,1.07
8426.00,1.07
8425.00,1.07
8424.00,1.07
8423.00,1.07
8422.00,1.07
8421.00,1.07
8420.00,1.07
8419.00,1.07
8418.00,1.07
8417.00,1.07
8416.00,1.07
8415.00,1.07
8414.00,1.07
8413.00,1.07
8412.00,1.08
8411.00,1.08
8410.00,1.08
8409.00,1.08
8408.00,1.08
8407.00,1.08
8406.00,1.08
8405.00,1.08
8404.00,1.08
8403.00,1.09
8402.00,1.09
8401.00,1.09
8400.00,1.09
8399.00,1.09
8398.00,1.09
8397.00,1.09
8396.00,1.09
8395.00,1.09
8394.00,1.09
8393.00,1.09
8392.00,1.09
8391.00,1.09
8390.00,1.09
8389.00,1.09
8388.00,1.09
8387.00,1.09
8386.00,1.09
8385.00,1.09
8384.00,1.10
8383.00,1.10
8382.00,1.10
8381.00,1.10
8380.00,1.10
8379.00,1.10
8378.00,1.10
8377.00,1.10
8376.00,1.10
8375.00,1.10
8374.00,1.10
8373.00,1.11
8372.00,1.11
8371.00,1.11
8370.00,1.11
8369.00,1.11
8368.00,1.12
8367.00,1.12
8366.00,1.12
8365.00,1.12
8364.00,1.12
8363.00,1.13
8362.00,1.13
8361.00,1.13
8360.00,1.13
8359.00,1.13
8358.00,1.13
8357.00,1.13
8356.00,1.13
8355.00,1.13
8354.00,1.13
8353.00,1.13
8352.00,1.13
8351.00,1.13
8350.00,1.13
8349.00,1.13
8348.00,1.13
8347.00,1.13
8346.00,1.13
8345.00,1.13
8344.00,1.13
8343.00,1.13
8342.00,1.13
8341.00,1.13
8340.00,1.13
8339.00,1.13
8338.00,1.13
8337.00,1.13
8336.00,1.13
8335.00,1.13
8334.00,1.13
8333.00,1.13
8332.00,1.13
8331.00,1.12
8330.00,1.12
8329.00,1.12
8328.00,1.12
8327.00,1.12
8326.00,1.12
8325.00,1.12
8324.00,1.12
8323.00,1.12
8322.00,1.12
8321.00,1.12
8320.00,1.12
8319.00,1.11
8318.00,1.11
8317.00,1.11
8316.00,1.11
8315.00,1.11
8314.00,1.11
8313.00,1.11
8312.00,1.11
8311.00,1.11
8310.00,1.11
8309.00,1.11
8308.00,1.11
8307.00,1.11
8306.00,1.11
8305.00,1.11
8304.00,1.11
8303.00,1.11
8302.00,1.11
8301.00,1.11
8300.00,1.11
8299.00,1.11
8298.00,1.11
8297.00,1.12
8296.00,1.12
8295.00,1.12
8294.00,1.12
8293.00,1.12
8292.00,1.12
8291.00,1.12
8290.00,1.12
8289.00,1.12
8288.00,1.13
8287.00,1.13
8286.00,1.13
8285.00,1.13
8284.00,1.13
8283.00,1.13
8282.00,1.13
8281.00,1.13
8280.00,1.13
8279.00,1.13
8278.00,1.13
8277.00,1.13
8276.00,1.13
8275.00,1.13
8274.00,1.13
8273.00,1.13
8272.00,1.13
8271.00,1.13
8270.00,1.13
8269.00,1.13
8268.00,1.13
8267.00,1.13
8266.00,1.13
8265.00,1.13
8264.00,1.13
8263.00,1.13
8262.00,1.13
8261.00,1.13
8260.00,1.13
8259.00,1.13
8258.00,1.13
8257.00,1.14
8256.00,1.14
8255.00,1.14
8254.00,1.14
8253.00,1.14
8252.00,1.14
8251.00,1.14
8250.00,1.14
8249.00,1.15
8248.00,1.15
8247.00,1.15
8246.00,1.15
8245.00,1.15
8244.00,1.15
8243.00,1.15
8242.00,1.15
8241.00,1.15
8240.00,1.15
8239.00,1.15
8238.00,1.15
8237.00,1.15
8236.00,1.16
8235.00,1.16
8234.00,1.16
8233.00,1.16
8232.00,1.16
8231.00,1.16
8230.00,1.16
8229.00,1.16
8228.00,1.16
8227.00,1.16
8226.00,1.16
8225.00,1.16
8224.00,1.16
8223.00,1.16
8222.00,1.16
8221.00,1.15
8220.00,1.15
8219.00,1.15
8218.00,1.15
8217.00,1.15
8216.00,1.15
8215.00,1.15
8214.00,1.16
8213.00,1.16
8212.00,1.16
8211.00,1.16
8210.00,1.16
8209.00,1.16
8208.00,1.16
8207.00,1.16
8206.00,1.16
8205.00,1.16
8204.00,1.16
8203.00,1.16
8202.00,1.16
8201.00,1.16
8200.00,1.16
8199.00,1.16
8198.00,1.16
8197.00,1.16
8196.00,1.16
8195.00,1.16
8194.00,1.16
8193.00,1.16
8192.00,1.16
8191.00,1.16
8190.00,1.16
8189.00,1.16
8188.00,1.16
8187.00,1.16
8186.00,1.16
8185.00,1.16
8184.00,1.16
8183.00,1.16
8182.00,1.16
8181.00,1.16
8180.00,1.16
8179.00,1.16
8178.00,1.16
8177.00,1.16
8176.00,1.16
8175.00,1.16
8174.00,1.16
8173.00,1.16
8172.00,1.16
8171.00,1.17
8170.00,1.17
8169.00,1.17
8168.00,1.17
8167.00,1.17
8166.00,1.17
8165.00,1.17
8164.00,1.17
8163.00,1.17
8162.00,1.17
8161.00,1.17
8160.00,1.17
8159.00,1.17
8158.00,1.17
8157.00,1.18
8156.00,1.18
8155.00,1.18
8154.00,1.18
8153.00,1.18
8152.00,1.18
8151.00,1.18
8150.00,1.18
8149.00,1.18
8148.00,1.18
8147.00,1.18
8146.00,1.18
8145.00,1.18
8144.00,1.18
8143.00,1.18
8142.00,1.18
8141.00,1.18
8140.00,1.18
8139.00,1.18
8138.00,1.18
8137.00,1.18
8136.00,1.18
8135.00,1.18
8134.00,1.18
8133.00,1.18
8132.00,1.18
8131.00,1.18
8130.00,1.18
8129.00,1.18
8128.00,1.18
8127.00,1.18
8126.00,1.18
8125.00,1.18
8124.00,1.19
8123.00,1.19
8122.00,1.19
8121.00,1.19
8120.00,1.19
8119.00,1.19
8118.00,1.19
8117.00,1.19
8116.00,1.19
8115.00,1.19
8114.00,1.19
8113.00,1.19
8112.00,1.19
8111.00,1.19
8110.00,1.19
8109.00,1.19
8108.00,1.19
8107.00,1.19
8106.00,1.19
8105.00,1.19
8104.00,1.20
8103.00,1.20
8102.00,1.20
8101.00,1.20
8100.00,1.20
8099.00,1.20
8098.00,1.20
8097.00,1.20
8096.00,1.20
8095.00,1.20
8094.00,1.20
8093.00,1.20
8092.00,1.20
8091.00,1.21
8090.00,1.21
8089.00,1.21
8088.00,1.21
8087.00,1.21
8086.00,1.21
8085.00,1.21
8084.00,1.21
8083.00,1.21
8082.00,1.21
8081.00,1.21
8080.00,1.21
8079.00,1.21
8078.00,1.21
8077.00,1.21
8076.00,1.21
8075.00,1.21
8074.00,1.21
8073.00,1.21
8072.00,1.21
8071.00,1.21
8070.00,1.21
8069.00,1.21
8068.00,1.21
8067.00,1.21
8066.00,1.21
8065.00,1.21
8064.00,1.21
8063.00,1.21
8062.00,1.21
8061.00,1.21
8060.00,1.21
8059.00,1.21
8058.00,1.21
8057.00,1.21
8056.00,1.21
8055.00,1.21
8054.00,1.21
8053.00,1.21
8052.00,1.21
8051.00,1.21
8050.00,1.21
8049.00,1.21
8048.00,1.21
8047.00,1.21
8046.00,1.21
8045.00,1.21
8044.00,1.21
8043.00,1.21
8042.00,1.21
8041.00,1.21
8040.00,1.21
8039.00,1.21
8038.00,1.21
8037.00,1.21
8036.00,1.21
8035.00,1.21
8034.00,1.21
8033.00,1.21
8032.00,1.21
8031.00,1.22
8030.00,1.22
8029.00,1.22
8028.00,1.22
8027.00,1.22
8026.00,1.22
8025.00,1.22
8024.00,1.22
8023.00,1.22
8022.00,1.22
8021.00,1.22
8020.00,1.22
8019.00,1.22
8018.00,1.22
8017.00,1.22
8016.00,1.22
8015.00,1.22
8014.00,1.22
8013.00,1.22
8012.00,1.22
8011.00,1.22
8010.00,1.22
8009.00,1.22
8008.00,1.22
8007.00,1.22
8006.00,1.22
8005.00,1.22
8004.00,1.22
8003.00,1.22
8002.00,1.22
8001.00,1.22
8000.00,1.22
7999.00,1.22
7998.00,1.22
7997.00,1.22
7996.00,1.22
7995.00,1.22
7994.00,1.23
7993.00,1.23
7992.00,1.23
7991.00,1.23
7990.00,1.23
7989.00,1.23
7988.00,1.23
7987.00,1.23
7986.00,1.23
7985.00,1.23
7984.00,1.23
7983.00,1.23
7982.00,1.23
7981.00,1.23
7980.00,1.24
7979.00,1.24
7978.00,1.24
7977.00,1.24
7976.00,1.24
7975.00,1.24
7974.00,1.24
7973.00,1.24
7972.00,1.24
7971.00,1.24
7970.00,1.24
7969.00,1.24
7968.00,1.24
7967.00,1.24
7966.00,1.24
7965.00,1.24
7964.00,1.24
7963.00,1.24
7962.00,1.25
7961.00,1.25
7960.00,1.25
7959.00,1.25
7958.00,1.25
7957.00,1.25
7956.00,1.25
7955.00,1.25
7954.00,1.25
7953.00,1.26
7952.00,1.26
7951.00,1.26
7950.00,1.26
7949.00,1.26
7948.00,1.26
7947.00,1.26
7946.00,1.26
7945.00,1.26
7944.00,1.26
7943.00,1.26
7942.00,1.26
7941.00,1.26
7940.00,1.26
7939.00,1.26
7938.00,1.26
7937.00,1.26
7936.00,1.26
7935.00,1.25
7934.00,1.25
7933.00,1.25
7932.00,1.25
7931.00,1.25
7930.00,1.25
7929.00,1.25
7928.00,1.25
7927.00,1.25
7926.00,1.25
7925.00,1.25
7924.00,1.25
7923.00,1.25
7922.00,1.25
7921.00,1.25
7920.00,1.25
7919.00,1.25
7918.00,1.25
7917.00,1.25
7916.00,1.25
7915.00,1.25
7914.00,1.25
7913.00,1.25
7912.00,1.25
7911.00,1.25
7910.00,1.25
7909.00,1.25
7908.00,1.25
7907.00,1.25
7906.00,1.25
7905.00,1.25
7904.00,1.25
7903.00,1.25
7902.00,1.25
7901.00,1.25
7900.00,1.25
7899.00,1.24
7898.00,1.24
7897.00,1.24
7896.00,1.24
7895.00,1.24
7894.00,1.24
7893.00,1.24
7892.00,1.24
7891.00,1.24
7890.00,1.24
7889.00,1.24
7888.00,1.24
7887.00,1.24
7886.00,1.24
7885.00,1.24
7884.00,1.24
7883.00,1.24
7882.00,1.24
7881.00,1.24
7880.00,1.24
7879.00,1.25
7878.00,1.25
7877.00,1.25
7876.00,1.25
7875.00,1.25
7874.00,1.25
7873.00,1.25
7872.00,1.25
7871.00,1.25
7870.00,1.25
7869.00,1.26
7868.00,1.26
7867.00,1.26
7866.00,1.26
7865.00,1.26
7864.00,1.26
7863.00,1.26
7862.00,1.26
7861.00,1.26
7860.00,1.26
7859.00,1.26
7858.00,1.26
7857.00,1.26
7856.00,1.26
7855.00,1.26
7854.00,1.25
7853.00,1.25
7852.00,1.25
7851.00,1.25
7850.00,1.25
7849.00,1.25
7848.00,1.25
7847.00,1.25
7846.00,1.25
7845.00,1.25
7844.00,1.25
7843.00,1.26
7842.00,1.26
7841.00,1.26
7840.00,1.26
7839.00,1.26
7838.00,1.26
7837.00,1.26
7836.00,1.26
7835.00,1.26
7834.00,1.27
7833.00,1.27
7832.00,1.27
7831.00,1.27
7830.00,1.27
7829.00,1.27
7828.00,1.27
7827.00,1.27
7826.00,1.27
7825.00,1.27
7824.00,1.27
7823.00,1.27
7822.00,1.27
7821.00,1.27
7820.00,1.27
7819.00,1.27
7818.00,1.27
7817.00,1.27
7816.00,1.27
7815.00,1.27
7814.00,1.27
7813.00,1.27
7812.00,1.27
7811.00,1.27
7810.00,1.27
7809.00,1.27
7808.00,1.27
7807.00,1.27
7806.00,1.27
7805.00,1.27
7804.00,1.27
7803.00,1.27
7802.00,1.27
7801.00,1.27
7800.00,1.27
7799.00,1.27
7798.00,1.27
7797.00,1.27
7796.00,1.27
7795.00,1.27
7794.00,1.27
7793.00,1.27
7792.00,1.27
7791.00,1.27
7790.00,1.27
7789.00,1.27
7788.00,1.27
7787.00,1.27
7786.00,1.27
7785.00,1.27
7784.00,1.27
7783.00,1.27
7782.00,1.27
7781.00,1.27
7780.00,1.27
7779.00,1.27
7778.00,1.27
7777.00,1.27
7776.00,1.27
7775.00,1.27
7774.00,1.27
7773.00,1.27
7772.00,1.27
7771.00,1.27
7770.00,1.27
7769.00,1.27
7768.00,1.27
7767.00,1.27
7766.00,1.27
7765.00,1.27
7764.00,1.27
7763.00,1.27
7762.00,1.27
7761.00,1.27
7760.00,1.27
7759.00,1.27
7758.00,1.27
7757.00,1.27
7756.00,1.27
7755.00,1.27
7754.00,1.27
7753.00,1.27
7752.00,1.27
7751.00,1.27
7750.00,1.27
7749.00,1.27
7748.00,1.27
7747.00,1.27
7746.00,1.27
7745.00,1.27
7744.00,1.27
7743.00,1.27
7742.00,1.27
7741.00,1.27
7740.00,1.27
7739.00,1.27
7738.00,1.27
7737.00,1.27
7736.00,1.27
7735.00,1.27
7734.00,1.27
7733.00,1.27
7732.00,1.27
7731.00,1.27
7730.00,1.27
7729.00,1.27
7728.00,1.27
7727.00,1.27
7726.00,1.27
7725.00,1.27
7724.00,1.27
7723.00,1.27
7722.00,1.27
7721.00,1.27
7720.00,1.27
7719.00,1.27
7718.00,1.27
7717.00,1.27
7716.00,1.27
7715.00,1.27
7714.00,1.27
7713.00,1.27
7712.00,1.27
7711.00,1.27
7710.00,1.27
7709.00,1.27
7708.00,1.27
7707.00,1.27
7706.00,1.27
7705.00,1.27
7704.00,1.27
7703.00,1.27
7702.00,1.27
7701.00,1.27
7700.00,1.27
7699.00,1.27
7698.00,1.27
7697.00,1.27
7696.00,1.27
7695.00,1.27
7694.00,1.27
7693.00,1.27
7692.00,1.26
7691.00,1.26
7690.00,1.26
7689.00,1.26
7688.00,1.26
7687.00,1.26
7686.00,1.27
7685.00,1.27
7684.00,1.27
7683.00,1.27
7682.00,1.27
7681.00,1.27
7680.00,1.27
7679.00,1.27
7678.00,1.27
7677.00,1.27
7676.00,1.27
7675.00,1.27
7674.00,1.28
7673.00,1.28
7672.00,1.28
7671.00,1.28
7670.00,1.28
7669.00,1.28
7668.00,1.28
7667.00,1.28
7666.00,1.28
7665.00,1.28
7664.00,1.28
7663.00,1.28
7662.00,1.28
7661.00,1.28
7660.00,1.28
7659.00,1.27
7658.00,1.27
7657.00,1.27
7656.00,1.27
7655.00,1.27
7654.00,1.27
7653.00,1.27
7652.00,1.27
7651.00,1.27
7650.00,1.27
7649.00,1.27
7648.00,1.27
7647.00,1.27
7646.00,1.27
7645.00,1.27
7644.00,1.27
7643.00,1.27
7642.00,1.27
7641.00,1.27
7640.00,1.27
7639.00,1.27
7638.00,1.27
7637.00,1.27
7636.00,1.27
7635.00,1.27
7634.00,1.27
7633.00,1.27
7632.00,1.27
7631.00,1.27
7630.00,1.27
7629.00,1.28
7628.00,1.28
7627.00,1.28
7626.00,1.28
7625.00,1.28
7624.00,1.28
7623.00,1.28
7622.00,1.28
7621.00,1.28
7620.00,1.28
7619.00,1.28
7618.00,1.28
7617.00,1.28
7616.00,1.28
7615.00,1.28
7614.00,1.28
7613.00,1.28
7612.00,1.28
7611.00,1.28
7610.00,1.28
7609.00,1.28
7608.00,1.28
7607.00,1.28
7606.00,1.28
7605.00,1.28
7604.00,1.28
7603.00,1.28
7602.00,1.28
7601.00,1.28
7600.00,1.28
7599.00,1.28
7598.00,1.28
7597.00,1.28
7596.00,1.28
7595.00,1.28
7594.00,1.28
7593.00,1.28
7592.00,1.27
7591.00,1.27
7590.00,1.27
7589.00,1.27
7588.00,1.27
7587.00,1.27
7586.00,1.27
7585.00,1.27
7584.00,1.27
7583.00,1.27
7582.00,1.27
7581.00,1.27
7580.00,1.27
7579.00,1.27
7578.00,1.27
7577.00,1.27
7576.00,1.27
7575.00,1.27
7574.00,1.27
7573.00,1.27
7572.00,1.27
7571.00,1.27
7570.00,1.27
7569.00,1.27
7568.00,1.27
7567.00,1.27
7566.00,1.27
7565.00,1.27
7564.00,1.27
7563.00,1.26
7562.00,1.26
7561.00,1.26
7560.00,1.26
7559.00,1.26
7558.00,1.26
7557.00,1.26
7556.00,1.26
7555.00,1.26
7554.00,1.26
7553.00,1.26
7552.00,1.26
7551.00,1.26
7550.00,1.26
7549.00,1.26
7548.00,1.26
7547.00,1.26
7546.00,1.26
7545.00,1.26
7544.00,1.26
7543.00,1.26
7542.00,1.26
7541.00,1.26
7540.00,1.26
7539.00,1.26
7538.00,1.26
7537.00,1.26
7536.00,1.26
7535.00,1.26
7534.00,1.26
7533.00,1.26
7532.00,1.26
7531.00,1.26
7530.00,1.26
7529.00,1.26
7528.00,1.25
7527.00,1.25
7526.00,1.25
7525.00,1.25
7524.00,1.25
7523.00,1.25
7522.00,1.25
7521.00,1.25
7520.00,1.25
7519.00,1.25
7518.00,1.25
7517.00,1.25
7516.00,1.25
7515.00,1.25
7514.00,1.25
7513.00,1.25
7512.00,1.25
7511.00,1.25
7510.00,1.25
7509.00,1.25
7508.00,1.25
7507.00,1.25
7506.00,1.25
7505.00,1.25
7504.00,1.25
7503.00,1.25
7502.00,1.25
7501.00,1.25
7500.00,1.25
7499.00,1.25
7498.00,1.25
7497.00,1.25
7496.00,1.25
7495.00,1.25
7494.00,1.25
7493.00,1.25
7492.00,1.25
7491.00,1.25
7490.00,1.25
7489.00,1.25
7488.00,1.25
7487.00,1.25
7486.00,1.25
7485.00,1.25
7484.00,1.24
7483.00,1.24
7482.00,1.24
7481.00,1.24
7480.00,1.24
7479.00,1.24
7478.00,1.24
7477.00,1.23
7476.00,1.23
7475.00,1.23
7474.00,1.23
7473.00,1.23
7472.00,1.23
7471.00,1.23
7470.00,1.23
7469.00,1.23
7468.00,1.23
7467.00,1.23
7466.00,1.23
7465.00,1.22
7464.00,1.22
7463.00,1.22
7462.00,1.22
7461.00,1.22
7460.00,1.22
7459.00,1.22
7458.00,1.22
7457.00,1.22
7456.00,1.22
7455.00,1.22
7454.00,1.22
7453.00,1.22
7452.00,1.22
7451.00,1.22
7450.00,1.22
7449.00,1.22
7448.00,1.22
7447.00,1.22
7446.00,1.22
7445.00,1.22
7444.00,1.21
7443.00,1.21
7442.00,1.21
7441.00,1.21
7440.00,1.21
7439.00,1.21
7438.00,1.21
7437.00,1.21
7436.00,1.21
7435.00,1.21
7434.00,1.21
7433.00,1.21
7432.00,1.21
7431.00,1.21
7430.00,1.20
7429.00,1.20
7428.00,1.20
7427.00,1.20
7426.00,1.20
7425.00,1.20
7424.00,1.20
7423.00,1.20
7422.00,1.19
7421.00,1.19
7420.00,1.19
7419.00,1.19
7418.00,1.19
7417.00,1.19
7416.00,1.19
7415.00,1.19
7414.00,1.19
7413.00,1.18
7412.00,1.18
7411.00,1.18
7410.00,1.18
7409.00,1.18
7408.00,1.18
7407.00,1.18
7406.00,1.18
7405.00,1.18
7404.00,1.17
7403.00,1.17
7402.00,1.17
7401.00,1.17
7400.00,1.17
7399.00,1.17
7398.00,1.17
7397.00,1.16
7396.00,1.16
7395.00,1.16
7394.00,1.16
7393.00,1.16
7392.00,1.16
7391.00,1.16
7390.00,1.16
7389.00,1.15
7388.00,1.15
7387.00,1.15
7386.00,1.15
7385.00,1.15
7384.00,1.15
7383.00,1.15
7382.00,1.15
7381.00,1.15
7380.00,1.15
7379.00,1.15
7378.00,1.15
7377.00,1.14
7376.00,1.14
7375.00,1.14
7374.00,1.14
7373.00,1.14
7372.00,1.14
7371.00,1.14
7370.00,1.14
7369.00,1.14
7368.00,1.14
7367.00,1.14
7366.00,1.14
7365.00,1.14
7364.00,1.14
7363.00,1.13
7362.00,1.13
7361.00,1.13
7360.00,1.13
7359.00,1.13
7358.00,1.13
7357.00,1.13
7356.00,1.13
7355.00,1.13
7354.00,1.13
7353.00,1.13
7352.00,1.13
7351.00,1.13
7350.00,1.13
7349.00,1.13
7348.00,1.13
7347.00,1.12
7346.00,1.12
7345.00,1.12
7344.00,1.12
7343.00,1.12
7342.00,1.12
7341.00,1.12
7340.00,1.12
7339.00,1.12
7338.00,1.12
7337.00,1.12
7336.00,1.12
7335.00,1.12
7334.00,1.12
7333.00,1.12
7332.00,1.12
7331.00,1.12
7330.00,1.12
7329.00,1.12
7328.00,1.12
7327.00,1.12
7326.00,1.12
7325.00,1.12
7324.00,1.12
7323.00,1.12
7322.00,1.12
7321.00,1.12
7320.00,1.12
7319.00,1.12
7318.00,1.12
7317.00,1.12
7316.00,1.12
7315.00,1.12
7314.00,1.12
7313.00,1.12
7312.00,1.12
7311.00,1.12
7310.00,1.12
7309.00,1.12
7308.00,1.12
7307.00,1.12
7306.00,1.11
7305.00,1.11
7304.00,1.11
7303.00,1.11
7302.00,1.11
7301.00,1.11
7300.00,1.11
7299.00,1.11
7298.00,1.11
7297.00,1.10
7296.00,1.10
7295.00,1.10
7294.00,1.10
7293.00,1.10
7292.00,1.10
7291.00,1.10
7290.00,1.10
7289.00,1.10
7288.00,1.09
7287.00,1.09
7286.00,1.09
7285.00,1.09
7284.00,1.09
7283.00,1.09
7282.00,1.09
7281.00,1.09
7280.00,1.09
7279.00,1.09
7278.00,1.09
7277.00,1.08
7276.00,1.08
7275.00,1.08
7274.00,1.08
7273.00,1.08
7272.00,1.08
7271.00,1.08
7270.00,1.07
7269.00,1.07
7268.00,1.07
7267.00,1.07
7266.00,1.07
7265.00,1.07
7264.00,1.06
7263.00,1.06
7262.00,1.06
7261.00,1.06
7260.00,1.06
7259.00,1.06
7258.00,1.05
7257.00,1.05
7256.00,1.05
7255.00,1.05
7254.00,1.05
7253.00,1.04
7252.00,1.04
7251.00,1.04
7250.00,1.04
7249.00,1.03
7248.00,1.03
7247.00,1.03
7246.00,1.03
7245.00,1.02
7244.00,1.02
7243.00,1.02
7242.00,1.02
7241.00,1.01
7240.00,1.01
7239.00,1.01
7238.00,1.01
7237.00,1.01
7236.00,1.00
7235.00,1.00
7234.00,1.00
7233.00,1.00
7232.00,0.99
7231.00,0.99
7230.00,0.99
7229.00,0.99
7228.00,0.98
7227.00,0.98
7226.00,0.98
7225.00,0.97
7224.00,0.97
7223.00,0.96
7222.00,0.96
7221.00,0.96
7220.00,0.95
7219.00,0.95
7218.00,0.94
7217.00,0.94
7216.00,0.93
7215.00,0.93
7214.00,0.93
7213.00,0.92
7212.00,0.92
7211.00,0.92
7210.00,0.91
7209.00,0.91
7208.00,0.90
7207.00,0.90
7206.00,0.90
7205.00,0.89
7204.00,0.89
7203.00,0.89
7202.00,0.88
7201.00,0.88
7200.00,0.88
7199.00,0.87
7198.00,0.87
7197.00,0.87
7196.00,0.86
7195.00,0.86
7194.00,0.85
7193.00,0.85
7192.00,0.85
7191.00,0.84
7190.00,0.84
7189.00,0.84
7188.00,0.83
7187.00,0.83
7186.00,0.83
7185.00,0.83
7184.00,0.82
7183.00,0.82
7182.00,0.82
7181.00,0.81
7180.00,0.81
7179.00,0.81
7178.00,0.80
7177.00,0.80
7176.00,0.80
7175.00,0.79
7174.00,0.79
7173.00,0.79
7172.00,0.78
7171.00,0.78
7170.00,0.78
7169.00,0.77
7168.00,0.77
7167.00,0.77
7166.00,0.76
7165.00,0.76
7164.00,0.76
7163.00,0.76
7162.00,0.75
7161.00,0.75
7160.00,0.75
7159.00,0.75
7158.00,0.74
7157.00,0.74
7156.00,0.74
7155.00,0.74
7154.00,0.74
7153.00,0.73
7152.00,0.73
7151.00,0.73
7150.00,0.73
7149.00,0.72
7148.00,0.72
7147.00,0.72
7146.00,0.72
7145.00,0.71
7144.00,0.71
7143.00,0.71
7142.00,0.70
7141.00,0.70
7140.00,0.70
7139.00,0.70
7138.00,0.69
7137.00,0.69
7136.00,0.69
7135.00,0.69
7134.00,0.68
7133.00,0.68
7132.00,0.68
7131.00,0.68
7130.00,0.68
7129.00,0.67
7128.00,0.67
7127.00,0.67
7126.00,0.67
7125.00,0.67
7124.00,0.66
7123.00,0.66
7122.00,0.66
7121.00,0.66
7120.00,0.66
7119.00,0.65
7118.00,0.65
7117.00,0.65
7116.00,0.65
7115.00,0.65
7114.00,0.64
7113.00,0.64
7112.00,0.64
7111.00,0.64
7110.00,0.63
7109.00,0.63
7108.00,0.63
7107.00,0.62
7106.00,0.62
7105.00,0.62
7104.00,0.62
7103.00,0.61
7102.00,0.61
7101.00,0.61
7100.00,0.60
7099.00,0.60
7098.00,0.60
7097.00,0.60
7096.00,0.59
7095.00,0.59
7094.00,0.59
7093.00,0.59
7092.00,0.59
7091.00,0.58
7090.00,0.58
7089.00,0.58
7088.00,0.58
7087.00,0.58
7086.00,0.57
7085.00,0.57
7084.00,0.57
7083.00,0.57
7082.00,0.57
7081.00,0.57
7080.00,0.57
7079.00,0.56
7078.00,0.56
7077.00,0.56
7076.00,0.56
7075.00,0.56
7074.00,0.56
7073.00,0.55
7072.00,0.55
7071.00,0.55
7070.00,0.55
7069.00,0.55
7068.00,0.55
7067.00,0.55
7066.00,0.54
7065.00,0.54
7064.00,0.54
7063.00,0.54
7062.00,0.54
7061.00,0.54
7060.00,0.54
7059.00,0.54
7058.00,0.54
7057.00,0.54
7056.00,0.54
7055.00,0.54
7054.00,0.54
7053.00,0.54
7052.00,0.53
7051.00,0.53
7050.00,0.53
7049.00,0.53
7048.00,0.53
7047.00,0.53
7046.00,0.53
7045.00,0.53
7044.00,0.53
7043.00,0.53
7042.00,0.53
7041.00,0.53
7040.00,0.53
7039.00,0.53
7038.00,0.53
7037.00,0.52
7036.00,0.52
7035.00,0.52
7034.00,0.52
7033.00,0.52
7032.00,0.52
7031.00,0.52
7030.00,0.52
7029.00,0.52
7028.00,0.52
7027.00,0.51
7026.00,0.51
7025.00,0.51
7024.00,0.51
7023.00,0.51
7022.00,0.51
7021.00,0.51
7020.00,0.50
7019.00,0.50
7018.00,0.50
7017.00,0.50
7016.00,0.50
7015.00,0.50
7014.00,0.50
7013.00,0.50
7012.00,0.50
7011.00,0.50
7010.00,0.49
7009.00,0.49
7008.00,0.49
7007.00,0.49
7006.00,0.49
7005.00,0.49
7004.00,0.49
7003.00,0.49
7002.00,0.49
7001.00,0.49
7000.00,0.49
6999.00,0.49
6998.00,0.49
6997.00,0.49
6996.00,0.48
6995.00,0.48
6994.00,0.48
6993.00,0.48
6992.00,0.48
6991.00,0.48
6990.00,0.48
6989.00,0.48
6988.00,0.48
6987.00,0.47
6986.00,0.47
6985.00,0.47
6984.00,0.47
6983.00,0.47
6982.00,0.47
6981.00,0.47
6980.00,0.47
6979.00,0.47
6978.00,0.47
6977.00,0.47
6976.00,0.47
6975.00,0.47
6974.00,0.47
6973.00,0.47
6972.00,0.47
6971.00,0.47
6970.00,0.47
6969.00,0.47
6968.00,0.47
6967.00,0.47
6966.00,0.47
6965.00,0.47
6964.00,0.47
6963.00,0.47
6962.00,0.47
6961.00,0.47
6960.00,0.47
6959.00,0.46
6958.00,0.46
6957.00,0.46
6956.00,0.46
6955.00,0.46
6954.00,0.46
6953.00,0.46
6952.00,0.46
6951.00,0.46
6950.00,0.46
6949.00,0.46
6948.00,0.46
6947.00,0.46
6946.00,0.46
6945.00,0.46
6944.00,0.46
6943.00,0.46
6942.00,0.46
6941.00,0.46
6940.00,0.46
6939.00,0.46
6938.00,0.46
6937.00,0.46
6936.00,0.46
6935.00,0.46
6934.00,0.46
6933.00,0.46
6932.00,0.46
6931.00,0.46
6930.00,0.46
6929.00,0.46
6928.00,0.46
6927.00,0.46
6926.00,0.46
6925.00,0.46
6924.00,0.46
6923.00,0.46
6922.00,0.46
6921.00,0.46
6920.00,0.46
6919.00,0.45
6918.00,0.45
6917.00,0.45
6916.00,0.45
6915.00,0.45
6914.00,0.45
6913.00,0.45
6912.00,0.45
6911.00,0.45
6910.00,0.45
6909.00,0.45
6908.00,0.45
6907.00,0.45
6906.00,0.45
6905.00,0.45
6904.00,0.45
6903.00,0.45
6902.00,0.45
6901.00,0.45
6900.00,0.45
6899.00,0.45
6898.00,0.45
6897.00,0.45
6896.00,0.45
6895.00,0.45
6894.00,0.45
6893.00,0.45
6892.00,0.45
6891.00,0.45
6890.00,0.45
6889.00,0.45
6888.00,0.45
6887.00,0.45
6886.00,0.45
6885.00,0.45
6884.00,0.45
6883.00,0.45
6882.00,0.45
6881.00,0.45
6880.00,0.45
6879.00,0.45
6878.00,0.45
6877.00,0.46
6876.00,0.46
6875.00,0.46
6874.00,0.46
6873.00,0.46
6872.00,0.46
6871.00,0.46
6870.00,0.46
6869.00,0.46
6868.00,0.46
6867.00,0.46
6866.00,0.46
6865.00,0.46
6864.00,0.46
6863.00,0.46
6862.00,0.46
6861.00,0.46
6860.00,0.46
6859.00,0.46
6858.00,0.46
6857.00,0.46
6856.00,0.45
6855.00,0.45
6854.00,0.45
6853.00,0.45
6852.00,0.45
6851.00,0.45
6850.00,0.45
6849.00,0.45
6848.00,0.45
6847.00,0.45
6846.00,0.45
6845.00,0.45
6844.00,0.45
6843.00,0.45
6842.00,0.45
6841.00,0.45
6840.00,0.45
6839.00,0.45
6838.00,0.45
6837.00,0.45
6836.00,0.45
6835.00,0.45
6834.00,0.45
6833.00,0.46
6832.00,0.46
6831.00,0.46
6830.00,0.46
6829.00,0.46
6828.00,0.46
6827.00,0.46
6826.00,0.46
6825.00,0.46
6824.00,0.46
6823.00,0.46
6822.00,0.46
6821.00,0.46
6820.00,0.46
6819.00,0.46
6818.00,0.46
6817.00,0.46
6816.00,0.46
6815.00,0.46
6814.00,0.46
6813.00,0.46
6812.00,0.46
6811.00,0.46
6810.00,0.46
6809.00,0.46
6808.00,0.46
6807.00,0.46
6806.00,0.46
6805.00,0.46
6804.00,0.46
6803.00,0.46
6802.00,0.46
6801.00,0.46
6800.00,0.46
6799.00,0.46
6798.00,0.47
6797.00,0.47
6796.00,0.47
6795.00,0.47
6794.00,0.47
6793.00,0.47
6792.00,0.47
6791.00,0.47
6790.00,0.47
6789.00,0.47
6788.00,0.47
6787.00,0.47
6786.00,0.47
6785.00,0.47
6784.00,0.47
6783.00,0.47
6782.00,0.48
6781.00,0.48
6780.00,0.48
6779.00,0.48
6778.00,0.48
6777.00,0.48
6776.00,0.48
6775.00,0.48
6774.00,0.48
6773.00,0.48
6772.00,0.48
6771.00,0.48
6770.00,0.48
6769.00,0.48
6768.00,0.48
6767.00,0.48
6766.00,0.48
6765.00,0.48
6764.00,0.48
6763.00,0.48
6762.00,0.48
6761.00,0.48
6760.00,0.48
6759.00,0.48
6758.00,0.48
6757.00,0.48
6756.00,0.48
6755.00,0.48
6754.00,0.48
6753.00,0.48
6752.00,0.48
6751.00,0.48
6750.00,0.48
6749.00,0.48
6748.00,0.48
6747.00,0.49
6746.00,0.49
6745.00,0.49
6744.00,0.49
6743.00,0.49
6742.00,0.49
6741.00,0.49
6740.00,0.49
6739.00,0.49
6738.00,0.49
6737.00,0.49
6736.00,0.49
6735.00,0.49
6734.00,0.49
6733.00,0.49
6732.00,0.49
6731.00,0.49
6730.00,0.49
6729.00,0.50
6728.00,0.50
6727.00,0.50
6726.00,0.50
6725.00,0.50
6724.00,0.50
6723.00,0.50
6722.00,0.50
6721.00,0.50
6720.00,0.50
6719.00,0.50
6718.00,0.50
6717.00,0.50
6716.00,0.50
6715.00,0.50
6714.00,0.51
6713.00,0.51
6712.00,0.51
6711.00,0.51
6710.00,0.51
6709.00,0.51
6708.00,0.51
6707.00,0.51
6706.00,0.51
6705.00,0.52
6704.00,0.52
6703.00,0.52
6702.00,0.52
6701.00,0.52
6700.00,0.52
6699.00,0.52
6698.00,0.52
6697.00,0.52
6696.00,0.52
6695.00,0.52
6694.00,0.52
6693.00,0.52
6692.00,0.52
6691.00,0.52
6690.00,0.52
6689.00,0.52
6688.00,0.53
6687.00,0.53
6686.00,0.53
6685.00,0.53
6684.00,0.53
6683.00,0.53
6682.00,0.53
6681.00,0.53
6680.00,0.53
6679.00,0.53
6678.00,0.53
6677.00,0.53
6676.00,0.53
6675.00,0.53
6674.00,0.53
6673.00,0.53
6672.00,0.53
6671.00,0.53
6670.00,0.53
6669.00,0.53
6668.00,0.53
6667.00,0.53
6666.00,0.53
6665.00,0.53
6664.00,0.54
6663.00,0.54
6662.00,0.54
6661.00,0.54
6660.00,0.54
6659.00,0.54
6658.00,0.54
6657.00,0.54
6656.00,0.54
6655.00,0.54
6654.00,0.55
6653.00,0.55
6652.00,0.55
6651.00,0.55
6650.00,0.55
6649.00,0.55
6648.00,0.55
6647.00,0.55
6646.00,0.56
6645.00,0.56
6644.00,0.56
6643.00,0.56
6642.00,0.56
6641.00,0.56
6640.00,0.56
6639.00,0.56
6638.00,0.57
6637.00,0.57
6636.00,0.57
6635.00,0.57
6634.00,0.57
6633.00,0.57
6632.00,0.57
6631.00,0.57
6630.00,0.57
6629.00,0.57
6628.00,0.57
6627.00,0.57
6626.00,0.58
6625.00,0.58
6624.00,0.58
6623.00,0.58
6622.00,0.58
6621.00,0.58
6620.00,0.58
6619.00,0.58
6618.00,0.58
6617.00,0.59
6616.00,0.59
6615.00,0.59
6614.00,0.59
6613.00,0.59
6612.00,0.59
6611.00,0.59
6610.00,0.59
6609.00,0.60
6608.00,0.60
6607.00,0.60
6606.00,0.60
6605.00,0.60
6604.00,0.60
6603.00,0.60
6602.00,0.60
6601.00,0.60
6600.00,0.60
6599.00,0.60
6598.00,0.60
6597.00,0.60
6596.00,0.60
6595.00,0.60
6594.00,0.60
6593.00,0.60
6592.00,0.60
6591.00,0.60
6590.00,0.60
6589.00,0.61
6588.00,0.61
6587.00,0.61
6586.00,0.61
6585.00,0.61
6584.00,0.61
6583.00,0.61
6582.00,0.61
6581.00,0.61
6580.00,0.61
6579.00,0.61
6578.00,0.61
6577.00,0.61
6576.00,0.62
6575.00,0.62
6574.00,0.62
6573.00,0.62
6572.00,0.62
6571.00,0.62
6570.00,0.62
6569.00,0.62
6568.00,0.62
6567.00,0.63
6566.00,0.63
6565.00,0.63
6564.00,0.63
6563.00,0.63
6562.00,0.63
6561.00,0.63
6560.00,0.63
6559.00,0.63
6558.00,0.64
6557.00,0.64
6556.00,0.64
6555.00,0.64
6554.00,0.64
6553.00,0.64
6552.00,0.64
6551.00,0.64
6550.00,0.64
6549.00,0.64
6548.00,0.64
6547.00,0.64
6546.00,0.65
6545.00,0.65
6544.00,0.65
6543.00,0.65
6542.00,0.65
6541.00,0.65
6540.00,0.65
6539.00,0.65
6538.00,0.65
6537.00,0.65
6536.00,0.66
6535.00,0.66
6534.00,0.66
6533.00,0.66
6532.00,0.66
6531.00,0.66
6530.00,0.66
6529.00,0.66
6528.00,0.66
6527.00,0.66
6526.00,0.66
6525.00,0.66
6524.00,0.67
6523.00,0.67
6522.00,0.67
6521.00,0.67
6520.00,0.67
6519.00,0.67
6518.00,0.67
6517.00,0.67
6516.00,0.67
6515.00,0.67
6514.00,0.67
6513.00,0.67
6512.00,0.67
6511.00,0.67
6510.00,0.67
6509.00,0.68
6508.00,0.68
6507.00,0.68
6506.00,0.68
6505.00,0.68
6504.00,0.68
6503.00,0.68
6502.00,0.68
6501.00,0.68
6500.00,0.68
6499.00,0.69
6498.00,0.69
6497.00,0.69
6496.00,0.69
6495.00,0.69
6494.00,0.69
6493.00,0.69
6492.00,0.69
6491.00,0.69
6490.00,0.69
6489.00,0.69
6488.00,0.69
6487.00,0.69
6486.00,0.69
6485.00,0.69
6484.00,0.69
6483.00,0.69
6482.00,0.69
6481.00,0.69
6480.00,0.69
6479.00,0.70
6478.00,0.70
6477.00,0.70
6476.00,0.70
6475.00,0.70
6474.00,0.70
6473.00,0.70
6472.00,0.70
6471.00,0.70
6470.00,0.70
6469.00,0.70
6468.00,0.70
6467.00,0.70
6466.00,0.70
6465.00,0.71
6464.00,0.71
6463.00,0.71
6462.00,0.71
6461.00,0.71
6460.00,0.71
6459.00,0.71
6458.00,0.71
6457.00,0.71
6456.00,0.71
6455.00,0.71
6454.00,0.71
6453.00,0.71
6452.00,0.71
6451.00,0.71
6450.00,0.71
6449.00,0.71
6448.00,0.71
6447.00,0.71
6446.00,0.71
6445.00,0.71
6444.00,0.72
6443.00,0.72
6442.00,0.72
6441.00,0.72
6440.00,0.72
6439.00,0.72
6438.00,0.72
6437.00,0.72
6436.00,0.72
6435.00,0.72
6434.00,0.73
6433.00,0.73
6432.00,0.73
6431.00,0.73
6430.00,0.73
6429.00,0.73
6428.00,0.73
6427.00,0.73
6426.00,0.73
6425.00,0.73
6424.00,0.73
6423.00,0.73
6422.00,0.73
6421.00,0.73
6420.00,0.73
6419.00,0.73
6418.00,0.73
6417.00,0.73
6416.00,0.73
6415.00,0.73
6414.00,0.74
6413.00,0.74
6412.00,0.74
6411.00,0.74
6410.00,0.74
6409.00,0.74
6408.00,0.74
6407.00,0.74
6406.00,0.74
6405.00,0.74
6404.00,0.74
6403.00,0.74
6402.00,0.75
6401.00,0.75
6400.00,0.75
6399.00,0.75
6398.00,0.75
6397.00,0.75
6396.00,0.75
6395.00,0.75
6394.00,0.75
6393.00,0.75
6392.00,0.75
6391.00,0.75
6390.00,0.75
6389.00,0.75
6388.00,0.75
6387.00,0.75
6386.00,0.75
6385.00,0.75
6384.00,0.75
6383.00,0.75
6382.00,0.75
6381.00,0.75
6380.00,0.75
6379.00,0.75
6378.00,0.75
6377.00,0.75
6376.00,0.75
6375.00,0.76
6374.00,0.76
6373.00,0.76
6372.00,0.76
6371.00,0.76
6370.00,0.76
6369.00,0.76
6368.00,0.76
6367.00,0.76
6366.00,0.77
6365.00,0.77
6364.00,0.77
6363.00,0.77
6362.00,0.77
6361.00,0.77
6360.00,0.77
6359.00,0.77
6358.00,0.77
6357.00,0.77
6356.00,0.78
6355.00,0.78
6354.00,0.78
6353.00,0.78
6352.00,0.78
6351.00,0.78
6350.00,0.78
6349.00,0.78
6348.00,0.78
6347.00,0.78
6346.00,0.78
6345.00,0.78
6344.00,0.78
6343.00,0.78
6342.00,0.79
6341.00,0.79
6340.00,0.79
6339.00,0.79
6338.00,0.79
6337.00,0.79
6336.00,0.79
6335.00,0.79
6334.00,0.79
6333.00,0.79
6332.00,0.79
6331.00,0.79
6330.00,0.80
6329.00,0.80
6328.00,0.80
6327.00,0.80
6326.00,0.80
6325.00,0.80
6324.00,0.80
6323.00,0.80
6322.00,0.80
6321.00,0.81
6320.00,0.81
6319.00,0.81
6318.00,0.81
6317.00,0.81
6316.00,0.81
6315.00,0.81
6314.00,0.81
6313.00,0.81
6312.00,0.81
6311.00,0.81
6310.00,0.81
6309.00,0.81
6308.00,0.82
6307.00,0.82
6306.00,0.82
6305.00,0.82
6304.00,0.82
6303.00,0.82
6302.00,0.82
6301.00,0.82
6300.00,0.83
6299.00,0.83
6298.00,0.83
6297.00,0.83
6296.00,0.83
6295.00,0.83
6294.00,0.84
6293.00,0.84
6292.00,0.84
6291.00,0.84
6290.00,0.84
6289.00,0.84
6288.00,0.84
6287.00,0.84
6286.00,0.85
6285.00,0.85
6284.00,0.85
6283.00,0.85
6282.00,0.85
6281.00,0.85
6280.00,0.85
6279.00,0.85
6278.00,0.85
6277.00,0.85
6276.00,0.86
6275.00,0.86
6274.00,0.86
6273.00,0.86
6272.00,0.86
6271.00,0.86
6270.00,0.86
6269.00,0.86
6268.00,0.86
6267.00,0.86
6266.00,0.86
6265.00,0.86
6264.00,0.87
6263.00,0.87
6262.00,0.87
6261.00,0.87
6260.00,0.87
6259.00,0.87
6258.00,0.87
6257.00,0.87
6256.00,0.87
6255.00,0.87
6254.00,0.88
6253.00,0.88
6252.00,0.88
6251.00,0.88
6250.00,0.88
6249.00,0.88
6248.00,0.88
6247.00,0.88
6246.00,0.89
6245.00,0.89
6244.00,0.89
6243.00,0.89
6242.00,0.89
6241.00,0.89
6240.00,0.89
6239.00,0.89
6238.00,0.89
6237.00,0.89
6236.00,0.89
6235.00,0.90
6234.00,0.90
6233.00,0.90
6232.00,0.90
6231.00,0.90
6230.00,0.90
6229.00,0.90
6228.00,0.90
6227.00,0.91
6226.00,0.91
6225.00,0.91
6224.00,0.91
6223.00,0.91
6222.00,0.91
6221.00,0.92
6220.00,0.92
6219.00,0.92
6218.00,0.92
6217.00,0.92
6216.00,0.92
6215.00,0.92
6214.00,0.93
6213.00,0.93
6212.00,0.93
6211.00,0.93
6210.00,0.93
6209.00,0.93
6208.00,0.93
6207.00,0.93
6206.00,0.93
6205.00,0.94
6204.00,0.94
6203.00,0.94
6202.00,0.94
6201.00,0.94
6200.00,0.94
6199.00,0.94
6198.00,0.95
6197.00,0.95
6196.00,0.95
6195.00,0.95
6194.00,0.95
6193.00,0.95
6192.00,0.96
6191.00,0.96
6190.00,0.96
6189.00,0.96
6188.00,0.96
6187.00,0.96
6186.00,0.97
6185.00,0.97
6184.00,0.97
6183.00,0.97
6182.00,0.97
6181.00,0.97
6180.00,0.97
6179.00,0.98
6178.00,0.98
6177.00,0.98
6176.00,0.98
6175.00,0.98
6174.00,0.98
6173.00,0.98
6172.00,0.99
6171.00,0.99
6170.00,0.99
6169.00,0.99
6168.00,0.99
6167.00,0.99
6166.00,1.00
6165.00,1.00
6164.00,1.00
6163.00,1.00
6162.00,1.00
6161.00,1.01
6160.00,1.01
6159.00,1.01
6158.00,1.01
6157.00,1.01
6156.00,1.01
6155.00,1.02
6154.00,1.02
6153.00,1.02
6152.00,1.02
6151.00,1.02
6150.00,1.02
6149.00,1.03
6148.00,1.03
6147.00,1.03
6146.00,1.03
6145.00,1.03
6144.00,1.03
6143.00,1.04
6142.00,1.04
6141.00,1.04
6140.00,1.04
6139.00,1.04
6138.00,1.04
6137.00,1.04
6136.00,1.05
6135.00,1.05
6134.00,1.05
6133.00,1.05
6132.00,1.05
6131.00,1.05
6130.00,1.05
6129.00,1.06
6128.00,1.06
6127.00,1.06
6126.00,1.06
6125.00,1.06
6124.00,1.06
6123.00,1.06
6122.00,1.07
6121.00,1.07
6120.00,1.07
6119.00,1.07
6118.00,1.07
6117.00,1.07
6116.00,1.08
6115.00,1.08
6114.00,1.08
6113.00,1.08
6112.00,1.08
6111.00,1.08
6110.00,1.08
6109.00,1.08
6108.00,1.09
6107.00,1.09
6106.00,1.09
6105.00,1.09
6104.00,1.09
6103.00,1.09
6102.00,1.09
6101.00,1.09
6100.00,1.10
6099.00,1.10
6098.00,1.10
6097.00,1.10
6096.00,1.10
6095.00,1.10
6094.00,1.10
6093.00,1.11
6092.00,1.11
6091.00,1.11
6090.00,1.11
6089.00,1.11
6088.00,1.11
6087.00,1.11
6086.00,1.12
6085.00,1.12
6084.00,1.12
6083.00,1.12
6082.00,1.12
6081.00,1.12
6080.00,1.12
6079.00,1.12
6078.00,1.12
6077.00,1.12
6076.00,1.12
6075.00,1.12
6074.00,1.12
6073.00,1.13
6072.00,1.13
6071.00,1.13
6070.00,1.13
6069.00,1.13
6068.00,1.13
6067.00,1.13
6066.00,1.13
6065.00,1.13
6064.00,1.14
6063.00,1.14
6062.00,1.14
6061.00,1.14
6060.00,1.14
6059.00,1.14
6058.00,1.14
6057.00,1.14
6056.00,1.14
6055.00,1.14
6054.00,1.15
6053.00,1.15
6052.00,1.15
6051.00,1.15
6050.00,1.15
6049.00,1.15
6048.00,1.15
6047.00,1.15
6046.00,1.15
6045.00,1.16
6044.00,1.16
6043.00,1.16
6042.00,1.16
6041.00,1.16
6040.00,1.16
6039.00,1.16
6038.00,1.17
6037.00,1.17
6036.00,1.17
6035.00,1.17
6034.00,1.17
6033.00,1.17
6032.00,1.17
6031.00,1.17
6030.00,1.17
6029.00,1.17
6028.00,1.17
6027.00,1.17
6026.00,1.17
6025.00,1.17
6024.00,1.17
6023.00,1.18
6022.00,1.18
6021.00,1.18
6020.00,1.18
6019.00,1.18
6018.00,1.18
6017.00,1.18
6016.00,1.18
6015.00,1.18
6014.00,1.18
6013.00,1.18
6012.00,1.18
6011.00,1.18
6010.00,1.18
6009.00,1.18
6008.00,1.18
6007.00,1.18
6006.00,1.18
6005.00,1.18
6004.00,1.18
6003.00,1.18
6002.00,1.18
6001.00,1.18
6000.00,1.18
5999.00,1.18
5998.00,1.17
5997.00,1.17
5996.00,1.17
5995.00,1.17
5994.00,1.17
5993.00,1.17
5992.00,1.17
5991.00,1.16
5990.00,1.16
5989.00,1.16
5988.00,1.16
5987.00,1.15
5986.00,1.15
5985.00,1.15
5984.00,1.14
5983.00,1.14
5982.00,1.14
5981.00,1.13
5980.00,1.13
5979.00,1.13
5978.00,1.12
5977.00,1.12
5976.00,1.11
5975.00,1.11
5974.00,1.10
5973.00,1.10
5972.00,1.10
5971.00,1.09
5970.00,1.09
5969.00,1.08
5968.00,1.07
5967.00,1.07
5966.00,1.06
5965.00,1.06
5964.00,1.05
5963.00,1.04
5962.00,1.04
5961.00,1.03
5960.00,1.02
5959.00,1.01
5958.00,1.01
5957.00,1.00
5956.00,0.99
5955.00,0.99
5954.00,0.98
5953.00,0.97
5952.00,0.97
5951.00,0.96
5950.00,0.96
5949.00,0.95
5948.00,0.95
5947.00,0.94
5946.00,0.94
5945.00,0.93
5944.00,0.93
5943.00,0.93
5942.00,0.93
5941.00,0.92
5940.00,0.92
5939.00,0.92
5938.00,0.92
5937.00,0.92
5936.00,0.91
5935.00,0.91
5934.00,0.91
5933.00,0.91
5932.00,0.91
5931.00,0.91
5930.00,0.91
5929.00,0.91
5928.00,0.91
5927.00,0.90
5926.00,0.90
5925.00,0.90
5924.00,0.90
5923.00,0.90
5922.00,0.90
5921.00,0.89
5920.00,0.89
5919.00,0.89
5918.00,0.89
5917.00,0.89
5916.00,0.88
5915.00,0.88
5914.00,0.88
5913.00,0.88
5912.00,0.88
5911.00,0.87
5910.00,0.87
5909.00,0.87
5908.00,0.87
5907.00,0.87
5906.00,0.87
5905.00,0.87
5904.00,0.86
5903.00,0.86
5902.00,0.86
5901.00,0.86
5900.00,0.86
5899.00,0.86
5898.00,0.86
5897.00,0.86
5896.00,0.86
5895.00,0.87
5894.00,0.87
5893.00,0.87
5892.00,0.87
5891.00,0.87
5890.00,0.87
5889.00,0.88
5888.00,0.88
5887.00,0.88
5886.00,0.88
5885.00,0.88
5884.00,0.89
5883.00,0.89
5882.00,0.89
5881.00,0.90
5880.00,0.90
5879.00,0.90
5878.00,0.90
5877.00,0.91
5876.00,0.91
5875.00,0.91
5874.00,0.91
5873.00,0.92
5872.00,0.92
5871.00,0.92
5870.00,0.92
5869.00,0.93
5868.00,0.93
5867.00,0.93
5866.00,0.93
5865.00,0.93
5864.00,0.94
5863.00,0.94
5862.00,0.94
5861.00,0.94
5860.00,0.94
5859.00,0.94
5858.00,0.94
5857.00,0.95
5856.00,0.95
5855.00,0.95
5854.00,0.95
5853.00,0.95
5852.00,0.95
5851.00,0.95
5850.00,0.95
5849.00,0.95
5848.00,0.95
5847.00,0.95
5846.00,0.95
5845.00,0.95
5844.00,0.95
5843.00,0.95
5842.00,0.95
5841.00,0.95
5840.00,0.95
5839.00,0.95
5838.00,0.95
5837.00,0.95
5836.00,0.95
5835.00,0.95
5834.00,0.95
5833.00,0.95
5832.00,0.95
5831.00,0.95
5830.00,0.95
5829.00,0.95
5828.00,0.95
5827.00,0.95
5826.00,0.95
5825.00,0.95
5824.00,0.95
5823.00,0.95
5822.00,0.95
5821.00,0.95
5820.00,0.95
5819.00,0.95
5818.00,0.95
5817.00,0.95
5816.00,0.95
5815.00,0.96
5814.00,0.96
5813.00,0.96
5812.00,0.96
5811.00,0.96
5810.00,0.96
5809.00,0.96
5808.00,0.95
5807.00,0.95
5806.00,0.95
5805.00,0.95
5804.00,0.95
5803.00,0.95
5802.00,0.95
5801.00,0.95
5800.00,0.95
5799.00,0.95
5798.00,0.95
5797.00,0.94
5796.00,0.94
5795.00,0.94
5794.00,0.94
5793.00,0.94
5792.00,0.93
5791.00,0.93
5790.00,0.93
5789.00,0.93
5788.00,0.92
5787.00,0.92
5786.00,0.92
5785.00,0.92
5784.00,0.92
5783.00,0.91
5782.00,0.91
5781.00,0.91
5780.00,0.91
5779.00,0.91
5778.00,0.91
5777.00,0.91
5776.00,0.91
5775.00,0.91
5774.00,0.91
5773.00,0.91
5772.00,0.91
5771.00,0.91
5770.00,0.91
5769.00,0.91
5768.00,0.91
5767.00,0.91
5766.00,0.91
5765.00,0.91
5764.00,0.91
5763.00,0.92
5762.00,0.92
5761.00,0.92
5760.00,0.92
5759.00,0.92
5758.00,0.93
5757.00,0.93
5756.00,0.93
5755.00,0.94
5754.00,0.94
5753.00,0.94
5752.00,0.95
5751.00,0.95
5750.00,0.95
5749.00,0.96
5748.00,0.96
5747.00,0.96
5746.00,0.97
5745.00,0.97
5744.00,0.97
5743.00,0.98
5742.00,0.98
5741.00,0.98
5740.00,0.99
5739.00,0.99
5738.00,0.99
5737.00,1.00
5736.00,1.00
5735.00,1.00
5734.00,1.00
5733.00,1.00
5732.00,1.00
5731.00,1.01
5730.00,1.01
5729.00,1.01
5728.00,1.01
5727.00,1.01
5726.00,1.01
5725.00,1.01
5724.00,1.01
5723.00,1.01
5722.00,1.01
5721.00,1.01
5720.00,1.02
5719.00,1.02
5718.00,1.02
5717.00,1.02
5716.00,1.01
5715.00,1.01
5714.00,1.01
5713.00,1.01
5712.00,1.01
5711.00,1.01
5710.00,1.01
5709.00,1.01
5708.00,1.01
5707.00,1.01
5706.00,1.01
5705.00,1.01
5704.00,1.01
5703.00,1.00
5702.00,1.00
5701.00,1.00
5700.00,1.00
5699.00,1.00
5698.00,1.00
5697.00,1.00
5696.00,1.00
5695.00,0.99
5694.00,0.99
5693.00,0.99
5692.00,0.99
5691.00,0.99
5690.00,0.99
5689.00,0.99
5688.00,0.98
5687.00,0.98
5686.00,0.98
5685.00,0.98
5684.00,0.98
5683.00,0.98
5682.00,0.98
5681.00,0.98
5680.00,0.98
5679.00,0.98
5678.00,0.98
5677.00,0.98
5676.00,0.98
5675.00,0.98
5674.00,0.98
5673.00,0.98
5672.00,0.98
5671.00,0.98
5670.00,0.98
5669.00,0.98
5668.00,0.98
5667.00,0.98
5666.00,0.98
5665.00,0.98
5664.00,0.98
5663.00,0.99
5662.00,0.99
5661.00,0.99
5660.00,0.99
5659.00,0.99
5658.00,0.99
5657.00,0.99
5656.00,0.99
5655.00,0.99
5654.00,1.00
5653.00,1.00
5652.00,1.00
5651.00,1.00
5650.00,1.00
5649.00,1.01
5648.00,1.01
5647.00,1.01
5646.00,1.01
5645.00,1.01
5644.00,1.02
5643.00,1.02
5642.00,1.02
5641.00,1.02
5640.00,1.02
5639.00,1.02
5638.00,1.03
5637.00,1.03
5636.00,1.03
5635.00,1.03
5634.00,1.03
5633.00,1.03
5632.00,1.04
5631.00,1.04
5630.00,1.04
5629.00,1.04
5628.00,1.04
5627.00,1.04
5626.00,1.05
5625.00,1.05
5624.00,1.05
5623.00,1.05
5622.00,1.05
5621.00,1.05
5620.00,1.06
5619.00,1.06
5618.00,1.06
5617.00,1.06
5616.00,1.06
5615.00,1.06
5614.00,1.07
5613.00,1.07
5612.00,1.07
5611.00,1.07
5610.00,1.07
5609.00,1.07
5608.00,1.07
5607.00,1.08
5606.00,1.08
5605.00,1.08
5604.00,1.08
5603.00,1.08
5602.00,1.08
5601.00,1.09
5600.00,1.09
5599.00,1.09
5598.00,1.09
5597.00,1.09
5596.00,1.10
5595.00,1.10
5594.00,1.10
5593.00,1.10
5592.00,1.10
5591.00,1.11
5590.00,1.11
5589.00,1.11
5588.00,1.11
5587.00,1.11
5586.00,1.12
5585.00,1.12
5584.00,1.12
5583.00,1.12
5582.00,1.12
5581.00,1.12
5580.00,1.13
5579.00,1.13
5578.00,1.13
5577.00,1.13
5576.00,1.13
5575.00,1.13
5574.00,1.14
5573.00,1.14
5572.00,1.14
5571.00,1.14
5570.00,1.14
5569.00,1.14
5568.00,1.15
5567.00,1.15
5566.00,1.15
5565.00,1.15
5564.00,1.15
5563.00,1.15
5562.00,1.15
5561.00,1.15
5560.00,1.15
5559.00,1.16
5558.00,1.16
5557.00,1.16
5556.00,1.16
5555.00,1.16
5554.00,1.16
5553.00,1.16
5552.00,1.16
5551.00,1.17
5550.00,1.17
5549.00,1.17
5548.00,1.17
5547.00,1.17
5546.00,1.17
5545.00,1.17
5544.00,1.18
5543.00,1.18
5542.00,1.18
5541.00,1.18
5540.00,1.18
5539.00,1.18
5538.00,1.19
5537.00,1.19
5536.00,1.19
5535.00,1.19
5534.00,1.19
5533.00,1.20
5532.00,1.20
5531.00,1.20
5530.00,1.20
5529.00,1.20
5528.00,1.20
5527.00,1.20
5526.00,1.20
5525.00,1.20
5524.00,1.20
5523.00,1.21
5522.00,1.21
5521.00,1.21
5520.00,1.21
5519.00,1.21
5518.00,1.21
5517.00,1.21
5516.00,1.21
5515.00,1.21
5514.00,1.21
5513.00,1.21
5512.00,1.21
5511.00,1.21
5510.00,1.21
5509.00,1.21
5508.00,1.21
5507.00,1.21
5506.00,1.21
5505.00,1.21
5504.00,1.21
5503.00,1.21
5502.00,1.21
5501.00,1.21
5500.00,1.21
5499.00,1.21
5498.00,1.21
5497.00,1.21
5496.00,1.22
5495.00,1.22
5494.00,1.22
5493.00,1.22
5492.00,1.22
5491.00,1.22
5490.00,1.22
5489.00,1.22
5488.00,1.22
5487.00,1.22
5486.00,1.23
5485.00,1.23
5484.00,1.23
5483.00,1.23
5482.00,1.23
5481.00,1.23
5480.00,1.23
5479.00,1.23
5478.00,1.24
5477.00,1.24
5476.00,1.24
5475.00,1.24
5474.00,1.24
5473.00,1.24
5472.00,1.24
5471.00,1.24
5470.00,1.24
5469.00,1.25
5468.00,1.25
5467.00,1.25
5466.00,1.25
5465.00,1.25
5464.00,1.25
5463.00,1.25
5462.00,1.25
5461.00,1.25
5460.00,1.26
5459.00,1.26
5458.00,1.26
5457.00,1.26
5456.00,1.26
5455.00,1.26
5454.00,1.26
5453.00,1.26
5452.00,1.26
5451.00,1.26
5450.00,1.26
5449.00,1.26
5448.00,1.26
5447.00,1.27
5446.00,1.27
5445.00,1.27
5444.00,1.27
5443.00,1.27
5442.00,1.27
5441.00,1.27
5440.00,1.27
5439.00,1.27
5438.00,1.27
5437.00,1.27
5436.00,1.27
5435.00,1.27
5434.00,1.27
5433.00,1.27
5432.00,1.27
5431.00,1.27
5430.00,1.27
5429.00,1.27
5428.00,1.28
5427.00,1.28
5426.00,1.28
5425.00,1.28
5424.00,1.28
5423.00,1.28
5422.00,1.28
5421.00,1.28
5420.00,1.28
5419.00,1.28
5418.00,1.28
5417.00,1.28
5416.00,1.28
5415.00,1.28
5414.00,1.28
5413.00,1.28
5412.00,1.28
5411.00,1.28
5410.00,1.28
5409.00,1.28
5408.00,1.28
5407.00,1.28
5406.00,1.28
5405.00,1.28
5404.00,1.28
5403.00,1.28
5402.00,1.28
5401.00,1.27
5400.00,1.27
5399.00,1.27
5398.00,1.27
5397.00,1.27
5396.00,1.27
5395.00,1.27
5394.00,1.27
5393.00,1.27
5392.00,1.26
5391.00,1.26
5390.00,1.26
5389.00,1.26
5388.00,1.25
5387.00,1.25
5386.00,1.25
5385.00,1.25
5384.00,1.24
5383.00,1.24
5382.00,1.24
5381.00,1.23
5380.00,1.23
5379.00,1.23
5378.00,1.22
5377.00,1.22
5376.00,1.21
5375.00,1.21
5374.00,1.21
5373.00,1.20
5372.00,1.20
5371.00,1.19
5370.00,1.19
5369.00,1.18
5368.00,1.18
5367.00,1.17
5366.00,1.17
5365.00,1.16
5364.00,1.16
5363.00,1.15
5362.00,1.14
5361.00,1.14
5360.00,1.13
5359.00,1.12
5358.00,1.12
5357.00,1.11
5356.00,1.10
5355.00,1.09
5354.00,1.09
5353.00,1.08
5352.00,1.07
5351.00,1.06
5350.00,1.05
5349.00,1.04
5348.00,1.03
5347.00,1.02
5346.00,1.01
5345.00,1.00
5344.00,0.99
5343.00,0.98
5342.00,0.97
5341.00,0.96
5340.00,0.96
5339.00,0.95
5338.00,0.93
5337.00,0.92
5336.00,0.91
5335.00,0.90
5334.00,0.89
5333.00,0.89
5332.00,0.88
5331.00,0.87
5330.00,0.86
5329.00,0.85
5328.00,0.84
5327.00,0.83
5326.00,0.82
5325.00,0.81
5324.00,0.80
5323.00,0.79
5322.00,0.78
5321.00,0.77
5320.00,0.77
5319.00,0.76
5318.00,0.75
5317.00,0.74
5316.00,0.74
5315.00,0.73
5314.00,0.72
5313.00,0.71
5312.00,0.71
5311.00,0.70
5310.00,0.69
5309.00,0.69
5308.00,0.68
5307.00,0.67
5306.00,0.67
5305.00,0.66
5304.00,0.66
5303.00,0.65
5302.00,0.65
5301.00,0.64
5300.00,0.64
5299.00,0.63
5298.00,0.63
5297.00,0.63
5296.00,0.63
5295.00,0.62
5294.00,0.62
5293.00,0.62
5292.00,0.62
5291.00,0.61
5290.00,0.61
5289.00,0.61
5288.00,0.61
5287.00,0.61
5286.00,0.61
5285.00,0.60
5284.00,0.60
5283.00,0.60
5282.00,0.60
5281.00,0.60
5280.00,0.60
5279.00,0.60
5278.00,0.60
5277.00,0.59
5276.00,0.59
5275.00,0.59
5274.00,0.59
5273.00,0.59
5272.00,0.59
5271.00,0.59
5270.00,0.59
5269.00,0.59
5268.00,0.59
5267.00,0.58
5266.00,0.58
5265.00,0.58
5264.00,0.58
5263.00,0.58
5262.00,0.58
5261.00,0.58
5260.00,0.58
5259.00,0.58
5258.00,0.58
5257.00,0.58
5256.00,0.58
5255.00,0.58
5254.00,0.58
5253.00,0.58
5252.00,0.58
5251.00,0.58
5250.00,0.58
5249.00,0.58
5248.00,0.58
5247.00,0.58
5246.00,0.58
5245.00,0.58
5244.00,0.58
5243.00,0.58
5242.00,0.58
5241.00,0.58
5240.00,0.58
5239.00,0.58
5238.00,0.58
5237.00,0.58
5236.00,0.59
5235.00,0.59
5234.00,0.59
5233.00,0.59
5232.00,0.59
5231.00,0.59
5230.00,0.59
5229.00,0.59
5228.00,0.59
5227.00,0.59
5226.00,0.59
5225.00,0.59
5224.00,0.59
5223.00,0.59
5222.00,0.59
5221.00,0.59
5220.00,0.59
5219.00,0.59
5218.00,0.59
5217.00,0.59
5216.00,0.59
5215.00,0.59
5214.00,0.59
5213.00,0.59
5212.00,0.59
5211.00,0.59
5210.00,0.59
5209.00,0.59
5208.00,0.59
5207.00,0.59
5206.00,0.59
5205.00,0.59
5204.00,0.59
5203.00,0.59
5202.00,0.59
5201.00,0.59
5200.00,0.59
5199.00,0.59
5198.00,0.59
5197.00,0.59
5196.00,0.59
5195.00,0.60
5194.00,0.60
5193.00,0.60
5192.00,0.60
5191.00,0.60
5190.00,0.60
5189.00,0.60
5188.00,0.60
5187.00,0.60
5186.00,0.60
5185.00,0.60
5184.00,0.60
5183.00,0.60
5182.00,0.60
5181.00,0.60
5180.00,0.60
5179.00,0.60
5178.00,0.60
5177.00,0.61
5176.00,0.61
5175.00,0.61
5174.00,0.61
5173.00,0.61
5172.00,0.61
5171.00,0.61
5170.00,0.61
5169.00,0.61
5168.00,0.61
5167.00,0.61
5166.00,0.61
5165.00,0.61
5164.00,0.61
5163.00,0.61
5162.00,0.61
5161.00,0.61
5160.00,0.61
5159.00,0.61
5158.00,0.61
5157.00,0.61
5156.00,0.61
5155.00,0.61
5154.00,0.61
5153.00,0.61
5152.00,0.61
5151.00,0.61
5150.00,0.62
5149.00,0.62
5148.00,0.62
5147.00,0.62
5146.00,0.62
5145.00,0.62
5144.00,0.62
5143.00,0.62
5142.00,0.62
5141.00,0.62
5140.00,0.62
5139.00,0.62
5138.00,0.62
5137.00,0.62
5136.00,0.62
5135.00,0.62
5134.00,0.62
5133.00,0.62
5132.00,0.62
5131.00,0.62
5130.00,0.63
5129.00,0.63
5128.00,0.63
5127.00,0.63
5126.00,0.63
5125.00,0.63
5124.00,0.63
5123.00,0.63
5122.00,0.63
5121.00,0.63
5120.00,0.63
5119.00,0.63
5118.00,0.63
5117.00,0.63
5116.00,0.63
5115.00,0.63
5114.00,0.63
5113.00,0.63
5112.00,0.63
5111.00,0.63
5110.00,0.63
5109.00,0.63
5108.00,0.63
5107.00,0.63
5106.00,0.63
5105.00,0.63
5104.00,0.64
5103.00,0.64
5102.00,0.64
5101.00,0.64
5100.00,0.64
5099.00,0.64
5098.00,0.64
5097.00,0.64
5096.00,0.64
5095.00,0.64
5094.00,0.64
5093.00,0.64
5092.00,0.64
5091.00,0.64
5090.00,0.64
5089.00,0.64
5088.00,0.64
5087.00,0.64
5086.00,0.64
5085.00,0.64
5084.00,0.65
5083.00,0.65
5082.00,0.65
5081.00,0.65
5080.00,0.65
5079.00,0.65
5078.00,0.65
5077.00,0.65
5076.00,0.65
5075.00,0.65
5074.00,0.65
5073.00,0.65
5072.00,0.65
5071.00,0.66
5070.00,0.66
5069.00,0.66
5068.00,0.66
5067.00,0.66
5066.00,0.66
5065.00,0.66
5064.00,0.66
5063.00,0.66
5062.00,0.66
5061.00,0.66
5060.00,0.66
5059.00,0.66
5058.00,0.66
5057.00,0.66
5056.00,0.66
5055.00,0.66
5054.00,0.66
5053.00,0.66
5052.00,0.66
5051.00,0.66
5050.00,0.66
5049.00,0.66
5048.00,0.66
5047.00,0.66
5046.00,0.66
5045.00,0.66
5044.00,0.66
5043.00,0.66
5042.00,0.66
5041.00,0.67
5040.00,0.67
5039.00,0.67
5038.00,0.67
5037.00,0.67
5036.00,0.67
5035.00,0.67
5034.00,0.67
5033.00,0.67
5032.00,0.67
5031.00,0.67
5030.00,0.67
5029.00,0.67
5028.00,0.67
5027.00,0.67
5026.00,0.67
5025.00,0.67
5024.00,0.68
5023.00,0.68
5022.00,0.68
5021.00,0.68
5020.00,0.68
5019.00,0.68
5018.00,0.68
5017.00,0.68
5016.00,0.68
5015.00,0.68
5014.00,0.68
5013.00,0.68
5012.00,0.68
5011.00,0.68
5010.00,0.69
5009.00,0.69
5008.00,0.69
5007.00,0.69
5006.00,0.69
5005.00,0.69
5004.00,0.69
5003.00,0.69
5002.00,0.69
5001.00,0.69
5000.00,0.70
4999.00,0.70
4998.00,0.70
4997.00,0.70
4996.00,0.70
4995.00,0.70
4994.00,0.70
4993.00,0.70
4992.00,0.70
4991.00,0.70
4990.00,0.70
4989.00,0.71
4988.00,0.71
4987.00,0.71
4986.00,0.71
4985.00,0.71
4984.00,0.71
4983.00,0.71
4982.00,0.71
4981.00,0.71
4980.00,0.71
4979.00,0.71
4978.00,0.71
4977.00,0.71
4976.00,0.71
4975.00,0.72
4974.00,0.72
4973.00,0.72
4972.00,0.72
4971.00,0.72
4970.00,0.72
4969.00,0.72
4968.00,0.72
4967.00,0.72
4966.00,0.72
4965.00,0.73
4964.00,0.73
4963.00,0.73
4962.00,0.73
4961.00,0.73
4960.00,0.73
4959.00,0.73
4958.00,0.73
4957.00,0.73
4956.00,0.73
4955.00,0.73
4954.00,0.73
4953.00,0.73
4952.00,0.73
4951.00,0.73
4950.00,0.73
4949.00,0.73
4948.00,0.73
4947.00,0.73
4946.00,0.73
4945.00,0.74
4944.00,0.74
4943.00,0.74
4942.00,0.74
4941.00,0.74
4940.00,0.74
4939.00,0.74
4938.00,0.74
4937.00,0.74
4936.00,0.74
4935.00,0.74
4934.00,0.74
4933.00,0.75
4932.00,0.75
4931.00,0.75
4930.00,0.75
4929.00,0.75
4928.00,0.75
4927.00,0.75
4926.00,0.75
4925.00,0.75
4924.00,0.75
4923.00,0.75
4922.00,0.76
4921.00,0.76
4920.00,0.76
4919.00,0.76
4918.00,0.76
4917.00,0.76
4916.00,0.76
4915.00,0.76
4914.00,0.77
4913.00,0.77
4912.00,0.77
4911.00,0.77
4910.00,0.77
4909.00,0.77
4908.00,0.77
4907.00,0.77
4906.00,0.77
4905.00,0.77
4904.00,0.77
4903.00,0.77
4902.00,0.77
4901.00,0.77
4900.00,0.77
4899.00,0.77
4898.00,0.77
4897.00,0.77
4896.00,0.77
4895.00,0.77
4894.00,0.77
4893.00,0.77
4892.00,0.77
4891.00,0.77
4890.00,0.77
4889.00,0.77
4888.00,0.77
4887.00,0.77
4886.00,0.77
4885.00,0.77
4884.00,0.77
4883.00,0.77
4882.00,0.77
4881.00,0.77
4880.00,0.77
4879.00,0.78
4878.00,0.78
4877.00,0.78
4876.00,0.78
4875.00,0.78
4874.00,0.78
4873.00,0.78
4872.00,0.78
4871.00,0.78
4870.00,0.79
4869.00,0.79
4868.00,0.79
4867.00,0.79
4866.00,0.79
4865.00,0.79
4864.00,0.79
4863.00,0.79
4862.00,0.79
4861.00,0.79
4860.00,0.79
4859.00,0.79
4858.00,0.79
4857.00,0.79
4856.00,0.79
4855.00,0.79
4854.00,0.79
4853.00,0.79
4852.00,0.79
4851.00,0.79
4850.00,0.79
4849.00,0.79
4848.00,0.79
4847.00,0.79
4846.00,0.80
4845.00,0.80
4844.00,0.80
4843.00,0.80
4842.00,0.80
4841.00,0.80
4840.00,0.80
4839.00,0.80
4838.00,0.80
4837.00,0.80
4836.00,0.80
4835.00,0.80
4834.00,0.80
4833.00,0.80
4832.00,0.80
4831.00,0.81
4830.00,0.81
4829.00,0.81
4828.00,0.81
4827.00,0.81
4826.00,0.81
4825.00,0.81
4824.00,0.81
4823.00,0.81
4822.00,0.81
4821.00,0.82
4820.00,0.82
4819.00,0.82
4818.00,0.82
4817.00,0.82
4816.00,0.82
4815.00,0.82
4814.00,0.82
4813.00,0.82
4812.00,0.82
4811.00,0.82
4810.00,0.82
4809.00,0.82
4808.00,0.83
4807.00,0.83
4806.00,0.83
4805.00,0.83
4804.00,0.83
4803.00,0.83
4802.00,0.83
4801.00,0.83
4800.00,0.83
4799.00,0.83
4798.00,0.83
4797.00,0.83
4796.00,0.83
4795.00,0.83
4794.00,0.83
4793.00,0.83
4792.00,0.83
4791.00,0.84
4790.00,0.84
4789.00,0.84
4788.00,0.84
4787.00,0.84
4786.00,0.84
4785.00,0.84
4784.00,0.84
4783.00,0.84
4782.00,0.85
4781.00,0.85
4780.00,0.85
4779.00,0.85
4778.00,0.85
4777.00,0.85
4776.00,0.85
4775.00,0.85
4774.00,0.85
4773.00,0.85
4772.00,0.86
4771.00,0.86
4770.00,0.86
4769.00,0.86
4768.00,0.86
4767.00,0.86
4766.00,0.86
4765.00,0.86
4764.00,0.86
4763.00,0.86
4762.00,0.86
4761.00,0.86
4760.00,0.86
4759.00,0.87
4758.00,0.87
4757.00,0.87
4756.00,0.87
4755.00,0.87
4754.00,0.87
4753.00,0.87
4752.00,0.87
4751.00,0.88
4750.00,0.88
4749.00,0.88
4748.00,0.88
4747.00,0.88
4746.00,0.88
4745.00,0.88
4744.00,0.88
4743.00,0.89
4742.00,0.89
4741.00,0.89
4740.00,0.89
4739.00,0.89
4738.00,0.89
4737.00,0.89
4736.00,0.90
4735.00,0.90
4734.00,0.90
4733.00,0.90
4732.00,0.90
4731.00,0.90
4730.00,0.91
4729.00,0.91
4728.00,0.91
4727.00,0.91
4726.00,0.91
4725.00,0.91
4724.00,0.91
4723.00,0.91
4722.00,0.92
4721.00,0.92
4720.00,0.92
4719.00,0.92
4718.00,0.92
4717.00,0.92
4716.00,0.92
4715.00,0.92
4714.00,0.93
4713.00,0.93
4712.00,0.93
4711.00,0.93
4710.00,0.93
4709.00,0.93
4708.00,0.93
4707.00,0.94
4706.00,0.94
4705.00,0.94
4704.00,0.94
4703.00,0.94
4702.00,0.94
4701.00,0.94
4700.00,0.95
4699.00,0.95
4698.00,0.95
4697.00,0.95
4696.00,0.95
4695.00,0.95
4694.00,0.96
4693.00,0.96
4692.00,0.96
4691.00,0.96
4690.00,0.96
4689.00,0.96
4688.00,0.97
4687.00,0.97
4686.00,0.97
4685.00,0.97
4684.00,0.97
4683.00,0.98
4682.00,0.98
4681.00,0.98
4680.00,0.98
4679.00,0.98
4678.00,0.99
4677.00,0.99
4676.00,0.99
4675.00,0.99
4674.00,0.99
4673.00,0.99
4672.00,0.99
4671.00,0.99
4670.00,1.00
4669.00,1.00
4668.00,1.00
4667.00,1.00
4666.00,1.00
4665.00,1.00
4664.00,1.00
4663.00,1.00
4662.00,1.00
4661.00,1.00
4660.00,1.00
4659.00,1.00
4658.00,1.01
4657.00,1.01
4656.00,1.01
4655.00,1.01
4654.00,1.01
4653.00,1.01
4652.00,1.01
4651.00,1.02
4650.00,1.02
4649.00,1.02
4648.00,1.02
4647.00,1.02
4646.00,1.02
4645.00,1.02
4644.00,1.03
4643.00,1.03
4642.00,1.03
4641.00,1.03
4640.00,1.03
4639.00,1.03
4638.00,1.03
4637.00,1.03
4636.00,1.03
4635.00,1.03
4634.00,1.03
4633.00,1.03
4632.00,1.04
4631.00,1.04
4630.00,1.04
4629.00,1.04
4628.00,1.04
4627.00,1.04
4626.00,1.04
4625.00,1.04
4624.00,1.04
4623.00,1.04
4622.00,1.04
4621.00,1.04
4620.00,1.04
4619.00,1.05
4618.00,1.05
4617.00,1.05
4616.00,1.05
4615.00,1.05
4614.00,1.05
4613.00,1.05
4612.00,1.05
4611.00,1.06
4610.00,1.06
4609.00,1.06
4608.00,1.06
4607.00,1.06
4606.00,1.07
4605.00,1.07
4604.00,1.07
4603.00,1.07
4602.00,1.07
4601.00,1.08
4600.00,1.08
4599.00,1.08
4598.00,1.08
4597.00,1.08
4596.00,1.08
4595.00,1.08
4594.00,1.08
4593.00,1.08
4592.00,1.08
4591.00,1.08
4590.00,1.08
4589.00,1.08
4588.00,1.08
4587.00,1.09
4586.00,1.09
4585.00,1.09
4584.00,1.09
4583.00,1.09
4582.00,1.09
4581.00,1.09
4580.00,1.09
4579.00,1.09
4578.00,1.09
4577.00,1.09
4576.00,1.10
4575.00,1.10
4574.00,1.10
4573.00,1.10
4572.00,1.10
4571.00,1.10
4570.00,1.10
4569.00,1.10
4568.00,1.10
4567.00,1.10
4566.00,1.11
4565.00,1.11
4564.00,1.11
4563.00,1.11
4562.00,1.11
4561.00,1.11
4560.00,1.11
4559.00,1.11
4558.00,1.11
4557.00,1.11
4556.00,1.11
4555.00,1.11
4554.00,1.11
4553.00,1.12
4552.00,1.12
4551.00,1.12
4550.00,1.12
4549.00,1.12
4548.00,1.12
4547.00,1.12
4546.00,1.12
4545.00,1.12
4544.00,1.12
4543.00,1.12
4542.00,1.13
4541.00,1.13
4540.00,1.13
4539.00,1.13
4538.00,1.13
4537.00,1.13
4536.00,1.13
4535.00,1.13
4534.00,1.13
4533.00,1.13
4532.00,1.13
4531.00,1.13
4530.00,1.13
4529.00,1.13
4528.00,1.13
4527.00,1.13
4526.00,1.13
4525.00,1.13
4524.00,1.13
4523.00,1.13
4522.00,1.13
4521.00,1.13
4520.00,1.13
4519.00,1.13
4518.00,1.13
4517.00,1.13
4516.00,1.14
4515.00,1.14
4514.00,1.14
4513.00,1.14
4512.00,1.14
4511.00,1.14
4510.00,1.14
4509.00,1.14
4508.00,1.14
4507.00,1.14
4506.00,1.14
4505.00,1.14
4504.00,1.14
4503.00,1.14
4502.00,1.14
4501.00,1.14
4500.00,1.14
4499.00,1.14
4498.00,1.14
4497.00,1.14
4496.00,1.14
4495.00,1.14
4494.00,1.14
4493.00,1.14
4492.00,1.14
4491.00,1.14
4490.00,1.13
4489.00,1.13
4488.00,1.13
4487.00,1.13
4486.00,1.13
4485.00,1.13
4484.00,1.13
4483.00,1.13
4482.00,1.13
4481.00,1.12
4480.00,1.12
4479.00,1.12
4478.00,1.12
4477.00,1.12
4476.00,1.11
4475.00,1.11
4474.00,1.11
4473.00,1.11
4472.00,1.11
4471.00,1.10
4470.00,1.10
4469.00,1.10
4468.00,1.10
4467.00,1.09
4466.00,1.09
4465.00,1.09
4464.00,1.08
4463.00,1.08
4462.00,1.08
4461.00,1.08
4460.00,1.07
4459.00,1.07
4458.00,1.07
4457.00,1.07
4456.00,1.06
4455.00,1.06
4454.00,1.06
4453.00,1.06
4452.00,1.05
4451.00,1.05
4450.00,1.05
4449.00,1.05
4448.00,1.05
4447.00,1.04
4446.00,1.04
4445.00,1.04
4444.00,1.04
4443.00,1.03
4442.00,1.03
4441.00,1.03
4440.00,1.03
4439.00,1.02
4438.00,1.02
4437.00,1.02
4436.00,1.02
4435.00,1.01
4434.00,1.01
4433.00,1.01
4432.00,1.01
4431.00,1.00
4430.00,1.00
4429.00,1.00
4428.00,1.00
4427.00,1.00
4426.00,1.00
4425.00,1.00
4424.00,0.99
4423.00,0.99
4422.00,0.99
4421.00,0.99
4420.00,0.99
4419.00,0.99
4418.00,0.99
4417.00,0.99
4416.00,0.99
4415.00,0.99
4414.00,0.99
4413.00,0.99
4412.00,0.99
4411.00,0.99
4410.00,0.99
4409.00,0.99
4408.00,0.99
4407.00,1.00
4406.00,1.00
4405.00,1.00
4404.00,1.00
4403.00,1.00
4402.00,1.00
4401.00,1.00
4400.00,1.00
4399.00,1.00
4398.00,1.00
4397.00,1.00
4396.00,1.00
4395.00,1.00
4394.00,1.01
4393.00,1.01
4392.00,1.01
4391.00,1.01
4390.00,1.01
4389.00,1.01
4388.00,1.01
4387.00,1.01
4386.00,1.01
4385.00,1.02
4384.00,1.02
4383.00,1.02
4382.00,1.02
4381.00,1.02
4380.00,1.02
4379.00,1.02
4378.00,1.02
4377.00,1.02
4376.00,1.02
4375.00,1.02
4374.00,1.02
4373.00,1.03
4372.00,1.03
4371.00,1.03
4370.00,1.03
4369.00,1.03
4368.00,1.03
4367.00,1.03
4366.00,1.03
4365.00,1.03
4364.00,1.03
4363.00,1.03
4362.00,1.03
4361.00,1.03
4360.00,1.03
4359.00,1.03
4358.00,1.03
4357.00,1.03
4356.00,1.03
4355.00,1.03
4354.00,1.03
4353.00,1.03
4352.00,1.03
4351.00,1.03
4350.00,1.03
4349.00,1.03
4348.00,1.03
4347.00,1.03
4346.00,1.03
4345.00,1.03
4344.00,1.03
4343.00,1.03
4342.00,1.03
4341.00,1.03
4340.00,1.03
4339.00,1.03
4338.00,1.03
4337.00,1.04
4336.00,1.04
4335.00,1.04
4334.00,1.04
4333.00,1.04
4332.00,1.05
4331.00,1.05
4330.00,1.05
4329.00,1.05
4328.00,1.05
4327.00,1.06
4326.00,1.06
4325.00,1.06
4324.00,1.06
4323.00,1.06
4322.00,1.06
4321.00,1.06
4320.00,1.06
4319.00,1.06
4318.00,1.07
4317.00,1.07
4316.00,1.07
4315.00,1.07
4314.00,1.07
4313.00,1.07
4312.00,1.07
4311.00,1.07
4310.00,1.07
4309.00,1.07
4308.00,1.07
4307.00,1.07
4306.00,1.07
4305.00,1.07
4304.00,1.07
4303.00,1.07
4302.00,1.07
4301.00,1.07
4300.00,1.08
4299.00,1.08
4298.00,1.08
4297.00,1.08
4296.00,1.08
4295.00,1.08
4294.00,1.08
4293.00,1.09
4292.00,1.09
4291.00,1.09
4290.00,1.09
4289.00,1.09
4288.00,1.09
4287.00,1.10
4286.00,1.10
4285.00,1.10
4284.00,1.10
4283.00,1.10
4282.00,1.10
4281.00,1.10
4280.00,1.10
4279.00,1.11
4278.00,1.11
4277.00,1.11
4276.00,1.11
4275.00,1.11
4274.00,1.10
4273.00,1.10
4272.00,1.10
4271.00,1.10
4270.00,1.10
4269.00,1.10
4268.00,1.10
4267.00,1.10
4266.00,1.10
4265.00,1.10
4264.00,1.10
4263.00,1.10
4262.00,1.10
4261.00,1.10
4260.00,1.10
4259.00,1.10
4258.00,1.10
4257.00,1.10
4256.00,1.11
4255.00,1.11
4254.00,1.11
4253.00,1.11
4252.00,1.11
4251.00,1.12
4250.00,1.12
4249.00,1.12
4248.00,1.12
4247.00,1.12
4246.00,1.12
4245.00,1.12
4244.00,1.13
4243.00,1.13
4242.00,1.13
4241.00,1.13
4240.00,1.13
4239.00,1.13
4238.00,1.13
4237.00,1.13
4236.00,1.13
4235.00,1.13
4234.00,1.13
4233.00,1.13
4232.00,1.13
4231.00,1.14
4230.00,1.14
4229.00,1.14
4228.00,1.14
4227.00,1.14
4226.00,1.14
4225.00,1.14
4224.00,1.14
4223.00,1.15
4222.00,1.15
4221.00,1.15
4220.00,1.15
4219.00,1.15
4218.00,1.15
4217.00,1.15
4216.00,1.15
4215.00,1.15
4214.00,1.15
4213.00,1.15
4212.00,1.15
4211.00,1.15
4210.00,1.15
4209.00,1.15
4208.00,1.16
4207.00,1.16
4206.00,1.16
4205.00,1.16
4204.00,1.16
4203.00,1.16
4202.00,1.16
4201.00,1.16
4200.00,1.16
4199.00,1.16
4198.00,1.16
4197.00,1.16
4196.00,1.16
4195.00,1.17
4194.00,1.17
4193.00,1.17
4192.00,1.17
4191.00,1.17
4190.00,1.17
4189.00,1.17
4188.00,1.17
4187.00,1.17
4186.00,1.17
4185.00,1.17
4184.00,1.17
4183.00,1.17
4182.00,1.17
4181.00,1.17
4180.00,1.17
4179.00,1.17
4178.00,1.17
4177.00,1.17
4176.00,1.17
4175.00,1.17
4174.00,1.17
4173.00,1.17
4172.00,1.17
4171.00,1.17
4170.00,1.17
4169.00,1.17
4168.00,1.17
4167.00,1.17
4166.00,1.17
4165.00,1.17
4164.00,1.17
4163.00,1.17
4162.00,1.17
4161.00,1.17
4160.00,1.17
4159.00,1.17
4158.00,1.17
4157.00,1.17
4156.00,1.17
4155.00,1.17
4154.00,1.17
4153.00,1.17
4152.00,1.17
4151.00,1.17
4150.00,1.17
4149.00,1.17
4148.00,1.18
4147.00,1.18
4146.00,1.18
4145.00,1.18
4144.00,1.18
4143.00,1.18
4142.00,1.18
4141.00,1.18
4140.00,1.18
4139.00,1.18
4138.00,1.18
4137.00,1.18
4136.00,1.18
4135.00,1.18
4134.00,1.18
4133.00,1.18
4132.00,1.18
4131.00,1.18
4130.00,1.18
4129.00,1.18
4128.00,1.18
4127.00,1.19
4126.00,1.19
4125.00,1.19
4124.00,1.19
4123.00,1.19
4122.00,1.19
4121.00,1.19
4120.00,1.19
4119.00,1.19
4118.00,1.19
4117.00,1.19
4116.00,1.19
4115.00,1.19
4114.00,1.19
4113.00,1.19
4112.00,1.19
4111.00,1.20
4110.00,1.20
4109.00,1.20
4108.00,1.20
4107.00,1.20
4106.00,1.20
4105.00,1.20
4104.00,1.20
4103.00,1.20
4102.00,1.20
4101.00,1.20
4100.00,1.21
4099.00,1.21
4098.00,1.21
4097.00,1.21
4096.00,1.21
4095.00,1.21
4094.00,1.21
4093.00,1.21
4092.00,1.21
4091.00,1.22
4090.00,1.22
4089.00,1.22
4088.00,1.22
4087.00,1.22
4086.00,1.22
4085.00,1.22
4084.00,1.22
4083.00,1.22
4082.00,1.22
4081.00,1.22
4080.00,1.22
4079.00,1.22
4078.00,1.22
4077.00,1.22
4076.00,1.22
4075.00,1.22
4074.00,1.22
4073.00,1.22
4072.00,1.23
4071.00,1.23
4070.00,1.23
4069.00,1.23
4068.00,1.23
4067.00,1.23
4066.00,1.23
4065.00,1.23
4064.00,1.23
4063.00,1.23
4062.00,1.23
4061.00,1.23
4060.00,1.23
4059.00,1.23
4058.00,1.23
4057.00,1.23
4056.00,1.23
4055.00,1.23
4054.00,1.23
4053.00,1.24
4052.00,1.24
4051.00,1.24
4050.00,1.24
4049.00,1.24
4048.00,1.24
4047.00,1.24
4046.00,1.24
4045.00,1.24
4044.00,1.24
4043.00,1.24
4042.00,1.24
4041.00,1.25
4040.00,1.25
4039.00,1.25
4038.00,1.25
4037.00,1.25
4036.00,1.25
4035.00,1.26
4034.00,1.26
4033.00,1.26
4032.00,1.26
4031.00,1.26
4030.00,1.26
4029.00,1.27
4028.00,1.27
4027.00,1.27
4026.00,1.27
4025.00,1.27
4024.00,1.27
4023.00,1.27
4022.00,1.27
4021.00,1.28
4020.00,1.28
4019.00,1.28
4018.00,1.28
4017.00,1.28
4016.00,1.28
4015.00,1.28
4014.00,1.28
4013.00,1.28
4012.00,1.28
4011.00,1.28
4010.00,1.28
4009.00,1.28
4008.00,1.28
4007.00,1.28
4006.00,1.28
4005.00,1.28
4004.00,1.28
4003.00,1.28
4002.00,1.28
4001.00,1.28
4000.00,1.28
