创建为新数据集,样品 420 用户 Administrator 日期 星期四, 三月 08 2018
cm-1,%T
10000.00,1.35
9999.00,1.35
9998.00,1.35
9997.00,1.35
9996.00,1.35
9995.00,1.35
9994.00,1.35
9993.00,1.35
9992.00,1.35
9991.00,1.35
9990.00,1.35
9989.00,1.35
9988.00,1.35
9987.00,1.35
9986.00,1.35
9985.00,1.35
9984.00,1.35
9983.00,1.34
9982.00,1.34
9981.00,1.34
9980.00,1.34
9979.00,1.34
9978.00,1.34
9977.00,1.34
9976.00,1.34
9975.00,1.34
9974.00,1.34
9973.00,1.34
9972.00,1.34
9971.00,1.35
9970.00,1.35
9969.00,1.35
9968.00,1.35
9967.00,1.35
9966.00,1.35
9965.00,1.35
9964.00,1.35
9963.00,1.35
9962.00,1.35
9961.00,1.34
9960.00,1.34
9959.00,1.34
9958.00,1.34
9957.00,1.33
9956.00,1.33
9955.00,1.33
9954.00,1.32
9953.00,1.32
9952.00,1.32
9951.00,1.31
9950.00,1.31
9949.00,1.31
9948.00,1.30
9947.00,1.30
9946.00,1.30
9945.00,1.30
9944.00,1.30
9943.00,1.30
9942.00,1.30
9941.00,1.30
9940.00,1.30
9939.00,1.30
9938.00,1.30
9937.00,1.30
9936.00,1.31
9935.00,1.31
9934.00,1.31
9933.00,1.31
9932.00,1.31
9931.00,1.32
9930.00,1.32
9929.00,1.32
9928.00,1.32
9927.00,1.32
9926.00,1.32
9925.00,1.32
9924.00,1.33
9923.00,1.33
9922.00,1.33
9921.00,1.33
9920.00,1.33
9919.00,1.33
9918.00,1.34
9917.00,1.34
9916.00,1.34
9915.00,1.34
9914.00,1.34
9913.00,1.35
9912.00,1.35
9911.00,1.35
9910.00,1.35
9909.00,1.35
9908.00,1.35
9907.00,1.35
9906.00,1.35
9905.00,1.35
9904.00,1.34
9903.00,1.34
9902.00,1.34
9901.00,1.34
9900.00,1.34
9899.00,1.33
9898.00,1.33
9897.00,1.33
9896.00,1.33
9895.00,1.33
9894.00,1.33
9893.00,1.32
9892.00,1.32
9891.00,1.32
9890.00,1.32
9889.00,1.32
9888.00,1.32
9887.00,1.32
9886.00,1.32
9885.00,1.32
9884.00,1.32
9883.00,1.32
9882.00,1.32
9881.00,1.32
9880.00,1.32
9879.00,1.32
9878.00,1.32
9877.00,1.32
9876.00,1.32
9875.00,1.32
9874.00,1.32
9873.00,1.32
9872.00,1.33
9871.00,1.33
9870.00,1.33
9869.00,1.33
9868.00,1.33
9867.00,1.33
9866.00,1.34
9865.00,1.34
9864.00,1.34
9863.00,1.34
9862.00,1.34
9861.00,1.35
9860.00,1.35
9859.00,1.35
9858.00,1.35
9857.00,1.35
9856.00,1.35
9855.00,1.35
9854.00,1.35
9853.00,1.34
9852.00,1.34
9851.00,1.34
9850.00,1.34
9849.00,1.34
9848.00,1.34
9847.00,1.34
9846.00,1.33
9845.00,1.33
9844.00,1.33
9843.00,1.33
9842.00,1.33
9841.00,1.33
9840.00,1.33
9839.00,1.33
9838.00,1.32
9837.00,1.32
9836.00,1.32
9835.00,1.32
9834.00,1.32
9833.00,1.32
9832.00,1.32
9831.00,1.32
9830.00,1.32
9829.00,1.32
9828.00,1.32
9827.00,1.32
9826.00,1.31
9825.00,1.31
9824.00,1.31
9823.00,1.31
9822.00,1.31
9821.00,1.31
9820.00,1.31
9819.00,1.31
9818.00,1.31
9817.00,1.31
9816.00,1.31
9815.00,1.31
9814.00,1.31
9813.00,1.31
9812.00,1.31
9811.00,1.31
9810.00,1.31
9809.00,1.31
9808.00,1.31
9807.00,1.31
9806.00,1.31
9805.00,1.31
9804.00,1.31
9803.00,1.31
9802.00,1.32
9801.00,1.32
9800.00,1.32
9799.00,1.32
9798.00,1.32
9797.00,1.32
9796.00,1.32
9795.00,1.32
9794.00,1.32
9793.00,1.32
9792.00,1.32
9791.00,1.32
9790.00,1.32
9789.00,1.32
9788.00,1.32
9787.00,1.32
9786.00,1.33
9785.00,1.33
9784.00,1.33
9783.00,1.33
9782.00,1.33
9781.00,1.33
9780.00,1.34
9779.00,1.34
9778.00,1.34
9777.00,1.34
9776.00,1.34
9775.00,1.34
9774.00,1.34
9773.00,1.34
9772.00,1.34
9771.00,1.34
9770.00,1.33
9769.00,1.33
9768.00,1.33
9767.00,1.33
9766.00,1.32
9765.00,1.32
9764.00,1.32
9763.00,1.32
9762.00,1.31
9761.00,1.31
9760.00,1.31
9759.00,1.31
9758.00,1.31
9757.00,1.31
9756.00,1.31
9755.00,1.31
9754.00,1.31
9753.00,1.31
9752.00,1.31
9751.00,1.31
9750.00,1.31
9749.00,1.31
9748.00,1.31
9747.00,1.31
9746.00,1.31
9745.00,1.31
9744.00,1.31
9743.00,1.31
9742.00,1.31
9741.00,1.31
9740.00,1.31
9739.00,1.31
9738.00,1.31
9737.00,1.31
9736.00,1.31
9735.00,1.31
9734.00,1.31
9733.00,1.31
9732.00,1.31
9731.00,1.31
9730.00,1.32
9729.00,1.32
9728.00,1.32
9727.00,1.32
9726.00,1.32
9725.00,1.33
9724.00,1.33
9723.00,1.33
9722.00,1.33
9721.00,1.34
9720.00,1.34
9719.00,1.34
9718.00,1.34
9717.00,1.34
9716.00,1.34
9715.00,1.34
9714.00,1.34
9713.00,1.34
9712.00,1.34
9711.00,1.34
9710.00,1.34
9709.00,1.34
9708.00,1.34
9707.00,1.33
9706.00,1.33
9705.00,1.33
9704.00,1.33
9703.00,1.33
9702.00,1.33
9701.00,1.33
9700.00,1.33
9699.00,1.33
9698.00,1.33
9697.00,1.33
9696.00,1.33
9695.00,1.33
9694.00,1.33
9693.00,1.33
9692.00,1.33
9691.00,1.32
9690.00,1.32
9689.00,1.32
9688.00,1.32
9687.00,1.32
9686.00,1.32
9685.00,1.32
9684.00,1.32
9683.00,1.32
9682.00,1.32
9681.00,1.32
9680.00,1.32
9679.00,1.32
9678.00,1.32
9677.00,1.32
9676.00,1.32
9675.00,1.32
9674.00,1.32
9673.00,1.33
9672.00,1.33
9671.00,1.33
9670.00,1.33
9669.00,1.33
9668.00,1.33
9667.00,1.33
9666.00,1.33
9665.00,1.34
9664.00,1.34
9663.00,1.34
9662.00,1.33
9661.00,1.33
9660.00,1.33
9659.00,1.33
9658.00,1.33
9657.00,1.33
9656.00,1.33
9655.00,1.33
9654.00,1.32
9653.00,1.32
9652.00,1.32
9651.00,1.32
9650.00,1.32
9649.00,1.32
9648.00,1.32
9647.00,1.32
9646.00,1.32
9645.00,1.32
9644.00,1.31
9643.00,1.31
9642.00,1.31
9641.00,1.31
9640.00,1.31
9639.00,1.31
9638.00,1.31
9637.00,1.31
9636.00,1.31
9635.00,1.31
9634.00,1.31
9633.00,1.31
9632.00,1.31
9631.00,1.31
9630.00,1.31
9629.00,1.31
9628.00,1.31
9627.00,1.31
9626.00,1.31
9625.00,1.31
9624.00,1.31
9623.00,1.32
9622.00,1.32
9621.00,1.32
9620.00,1.32
9619.00,1.32
9618.00,1.32
9617.00,1.32
9616.00,1.32
9615.00,1.33
9614.00,1.33
9613.00,1.33
9612.00,1.33
9611.00,1.33
9610.00,1.32
9609.00,1.32
9608.00,1.32
9607.00,1.32
9606.00,1.32
9605.00,1.32
9604.00,1.32
9603.00,1.32
9602.00,1.32
9601.00,1.32
9600.00,1.32
9599.00,1.32
9598.00,1.32
9597.00,1.32
9596.00,1.32
9595.00,1.32
9594.00,1.32
9593.00,1.32
9592.00,1.33
9591.00,1.33
9590.00,1.33
9589.00,1.33
9588.00,1.33
9587.00,1.33
9586.00,1.33
9585.00,1.33
9584.00,1.33
9583.00,1.33
9582.00,1.33
9581.00,1.33
9580.00,1.33
9579.00,1.33
9578.00,1.33
9577.00,1.33
9576.00,1.33
9575.00,1.33
9574.00,1.33
9573.00,1.33
9572.00,1.34
9571.00,1.34
9570.00,1.34
9569.00,1.34
9568.00,1.34
9567.00,1.34
9566.00,1.34
9565.00,1.34
9564.00,1.34
9563.00,1.34
9562.00,1.34
9561.00,1.34
9560.00,1.34
9559.00,1.34
9558.00,1.34
9557.00,1.34
9556.00,1.34
9555.00,1.34
9554.00,1.34
9553.00,1.34
9552.00,1.34
9551.00,1.34
9550.00,1.34
9549.00,1.33
9548.00,1.33
9547.00,1.33
9546.00,1.33
9545.00,1.33
9544.00,1.33
9543.00,1.33
9542.00,1.33
9541.00,1.32
9540.00,1.32
9539.00,1.32
9538.00,1.32
9537.00,1.32
9536.00,1.32
9535.00,1.32
9534.00,1.31
9533.00,1.31
9532.00,1.31
9531.00,1.31
9530.00,1.31
9529.00,1.30
9528.00,1.30
9527.00,1.30
9526.00,1.30
9525.00,1.29
9524.00,1.29
9523.00,1.29
9522.00,1.29
9521.00,1.29
9520.00,1.29
9519.00,1.29
9518.00,1.29
9517.00,1.29
9516.00,1.29
9515.00,1.29
9514.00,1.30
9513.00,1.30
9512.00,1.30
9511.00,1.30
9510.00,1.31
9509.00,1.31
9508.00,1.31
9507.00,1.32
9506.00,1.32
9505.00,1.32
9504.00,1.32
9503.00,1.32
9502.00,1.33
9501.00,1.33
9500.00,1.33
9499.00,1.33
9498.00,1.33
9497.00,1.33
9496.00,1.33
9495.00,1.33
9494.00,1.33
9493.00,1.33
9492.00,1.33
9491.00,1.33
9490.00,1.33
9489.00,1.33
9488.00,1.33
9487.00,1.33
9486.00,1.33
9485.00,1.33
9484.00,1.33
9483.00,1.33
9482.00,1.33
9481.00,1.33
9480.00,1.33
9479.00,1.33
9478.00,1.34
9477.00,1.34
9476.00,1.34
9475.00,1.34
9474.00,1.34
9473.00,1.34
9472.00,1.34
9471.00,1.34
9470.00,1.34
9469.00,1.34
9468.00,1.34
9467.00,1.34
9466.00,1.34
9465.00,1.34
9464.00,1.34
9463.00,1.34
9462.00,1.34
9461.00,1.33
9460.00,1.33
9459.00,1.33
9458.00,1.33
9457.00,1.33
9456.00,1.33
9455.00,1.34
9454.00,1.34
9453.00,1.34
9452.00,1.34
9451.00,1.34
9450.00,1.34
9449.00,1.34
9448.00,1.34
9447.00,1.34
9446.00,1.34
9445.00,1.34
9444.00,1.34
9443.00,1.34
9442.00,1.34
9441.00,1.34
9440.00,1.34
9439.00,1.34
9438.00,1.34
9437.00,1.34
9436.00,1.34
9435.00,1.34
9434.00,1.34
9433.00,1.34
9432.00,1.34
9431.00,1.34
9430.00,1.34
9429.00,1.33
9428.00,1.33
9427.00,1.33
9426.00,1.33
9425.00,1.33
9424.00,1.33
9423.00,1.33
9422.00,1.33
9421.00,1.33
9420.00,1.32
9419.00,1.32
9418.00,1.32
9417.00,1.32
9416.00,1.32
9415.00,1.32
9414.00,1.32
9413.00,1.32
9412.00,1.31
9411.00,1.31
9410.00,1.31
9409.00,1.31
9408.00,1.31
9407.00,1.31
9406.00,1.31
9405.00,1.32
9404.00,1.32
9403.00,1.32
9402.00,1.32
9401.00,1.32
9400.00,1.32
9399.00,1.32
9398.00,1.32
9397.00,1.32
9396.00,1.32
9395.00,1.32
9394.00,1.32
9393.00,1.32
9392.00,1.32
9391.00,1.32
9390.00,1.32
9389.00,1.32
9388.00,1.32
9387.00,1.32
9386.00,1.32
9385.00,1.32
9384.00,1.32
9383.00,1.32
9382.00,1.32
9381.00,1.32
9380.00,1.32
9379.00,1.32
9378.00,1.31
9377.00,1.31
9376.00,1.31
9375.00,1.31
9374.00,1.32
9373.00,1.32
9372.00,1.32
9371.00,1.32
9370.00,1.32
9369.00,1.32
9368.00,1.32
9367.00,1.32
9366.00,1.32
9365.00,1.32
9364.00,1.32
9363.00,1.32
9362.00,1.32
9361.00,1.32
9360.00,1.32
9359.00,1.32
9358.00,1.32
9357.00,1.32
9356.00,1.32
9355.00,1.32
9354.00,1.32
9353.00,1.32
9352.00,1.32
9351.00,1.32
9350.00,1.31
9349.00,1.31
9348.00,1.31
9347.00,1.31
9346.00,1.31
9345.00,1.31
9344.00,1.31
9343.00,1.31
9342.00,1.31
9341.00,1.31
9340.00,1.31
9339.00,1.31
9338.00,1.31
9337.00,1.31
9336.00,1.31
9335.00,1.32
9334.00,1.32
9333.00,1.32
9332.00,1.32
9331.00,1.32
9330.00,1.32
9329.00,1.32
9328.00,1.33
9327.00,1.33
9326.00,1.33
9325.00,1.33
9324.00,1.33
9323.00,1.33
9322.00,1.33
9321.00,1.32
9320.00,1.32
9319.00,1.32
9318.00,1.32
9317.00,1.32
9316.00,1.32
9315.00,1.32
9314.00,1.32
9313.00,1.32
9312.00,1.32
9311.00,1.32
9310.00,1.32
9309.00,1.32
9308.00,1.32
9307.00,1.33
9306.00,1.33
9305.00,1.33
9304.00,1.33
9303.00,1.34
9302.00,1.34
9301.00,1.34
9300.00,1.34
9299.00,1.35
9298.00,1.35
9297.00,1.35
9296.00,1.35
9295.00,1.35
9294.00,1.35
9293.00,1.35
9292.00,1.35
9291.00,1.35
9290.00,1.34
9289.00,1.34
9288.00,1.34
9287.00,1.34
9286.00,1.34
9285.00,1.34
9284.00,1.33
9283.00,1.33
9282.00,1.33
9281.00,1.33
9280.00,1.33
9279.00,1.33
9278.00,1.33
9277.00,1.33
9276.00,1.33
9275.00,1.33
9274.00,1.33
9273.00,1.32
9272.00,1.32
9271.00,1.32
9270.00,1.32
9269.00,1.32
9268.00,1.32
9267.00,1.32
9266.00,1.32
9265.00,1.32
9264.00,1.32
9263.00,1.31
9262.00,1.31
9261.00,1.31
9260.00,1.31
9259.00,1.31
9258.00,1.31
9257.00,1.30
9256.00,1.30
9255.00,1.30
9254.00,1.30
9253.00,1.30
9252.00,1.30
9251.00,1.30
9250.00,1.30
9249.00,1.30
9248.00,1.30
9247.00,1.30
9246.00,1.30
9245.00,1.30
9244.00,1.30
9243.00,1.30
9242.00,1.30
9241.00,1.30
9240.00,1.30
9239.00,1.30
9238.00,1.30
9237.00,1.30
9236.00,1.30
9235.00,1.30
9234.00,1.30
9233.00,1.30
9232.00,1.30
9231.00,1.31
9230.00,1.31
9229.00,1.31
9228.00,1.31
9227.00,1.31
9226.00,1.31
9225.00,1.31
9224.00,1.31
9223.00,1.31
9222.00,1.31
9221.00,1.31
9220.00,1.31
9219.00,1.32
9218.00,1.32
9217.00,1.32
9216.00,1.32
9215.00,1.32
9214.00,1.32
9213.00,1.32
9212.00,1.33
9211.00,1.33
9210.00,1.33
9209.00,1.33
9208.00,1.33
9207.00,1.33
9206.00,1.33
9205.00,1.33
9204.00,1.34
9203.00,1.34
9202.00,1.34
9201.00,1.34
9200.00,1.34
9199.00,1.34
9198.00,1.34
9197.00,1.34
9196.00,1.34
9195.00,1.34
9194.00,1.34
9193.00,1.34
9192.00,1.34
9191.00,1.34
9190.00,1.34
9189.00,1.34
9188.00,1.34
9187.00,1.34
9186.00,1.34
9185.00,1.34
9184.00,1.33
9183.00,1.33
9182.00,1.33
9181.00,1.33
9180.00,1.33
9179.00,1.33
9178.00,1.32
9177.00,1.32
9176.00,1.32
9175.00,1.32
9174.00,1.32
9173.00,1.32
9172.00,1.32
9171.00,1.32
9170.00,1.32
9169.00,1.32
9168.00,1.32
9167.00,1.32
9166.00,1.32
9165.00,1.32
9164.00,1.32
9163.00,1.32
9162.00,1.32
9161.00,1.32
9160.00,1.32
9159.00,1.32
9158.00,1.32
9157.00,1.32
9156.00,1.32
9155.00,1.32
9154.00,1.32
9153.00,1.32
9152.00,1.32
9151.00,1.32
9150.00,1.32
9149.00,1.32
9148.00,1.32
9147.00,1.32
9146.00,1.33
9145.00,1.33
9144.00,1.33
9143.00,1.33
9142.00,1.33
9141.00,1.33
9140.00,1.33
9139.00,1.33
9138.00,1.33
9137.00,1.33
9136.00,1.33
9135.00,1.33
9134.00,1.33
9133.00,1.33
9132.00,1.34
9131.00,1.34
9130.00,1.34
9129.00,1.34
9128.00,1.34
9127.00,1.34
9126.00,1.34
9125.00,1.34
9124.00,1.34
9123.00,1.34
9122.00,1.34
9121.00,1.34
9120.00,1.34
9119.00,1.33
9118.00,1.33
9117.00,1.33
9116.00,1.33
9115.00,1.33
9114.00,1.33
9113.00,1.33
9112.00,1.33
9111.00,1.33
9110.00,1.33
9109.00,1.33
9108.00,1.33
9107.00,1.33
9106.00,1.33
9105.00,1.33
9104.00,1.33
9103.00,1.33
9102.00,1.33
9101.00,1.33
9100.00,1.33
9099.00,1.33
9098.00,1.33
9097.00,1.34
9096.00,1.34
9095.00,1.34
9094.00,1.34
9093.00,1.34
9092.00,1.34
9091.00,1.34
9090.00,1.35
9089.00,1.35
9088.00,1.35
9087.00,1.35
9086.00,1.35
9085.00,1.35
9084.00,1.35
9083.00,1.35
9082.00,1.35
9081.00,1.35
9080.00,1.35
9079.00,1.35
9078.00,1.35
9077.00,1.35
9076.00,1.35
9075.00,1.34
9074.00,1.34
9073.00,1.34
9072.00,1.34
9071.00,1.34
9070.00,1.34
9069.00,1.33
9068.00,1.33
9067.00,1.33
9066.00,1.33
9065.00,1.33
9064.00,1.33
9063.00,1.33
9062.00,1.33
9061.00,1.33
9060.00,1.33
9059.00,1.33
9058.00,1.33
9057.00,1.33
9056.00,1.33
9055.00,1.33
9054.00,1.33
9053.00,1.33
9052.00,1.33
9051.00,1.33
9050.00,1.33
9049.00,1.33
9048.00,1.33
9047.00,1.33
9046.00,1.33
9045.00,1.33
9044.00,1.32
9043.00,1.32
9042.00,1.32
9041.00,1.32
9040.00,1.32
9039.00,1.32
9038.00,1.32
9037.00,1.32
9036.00,1.32
9035.00,1.33
9034.00,1.33
9033.00,1.33
9032.00,1.33
9031.00,1.33
9030.00,1.33
9029.00,1.33
9028.00,1.33
9027.00,1.33
9026.00,1.33
9025.00,1.33
9024.00,1.33
9023.00,1.33
9022.00,1.33
9021.00,1.33
9020.00,1.33
9019.00,1.33
9018.00,1.33
9017.00,1.33
9016.00,1.33
9015.00,1.33
9014.00,1.33
9013.00,1.33
9012.00,1.33
9011.00,1.33
9010.00,1.33
9009.00,1.33
9008.00,1.33
9007.00,1.33
9006.00,1.32
9005.00,1.32
9004.00,1.32
9003.00,1.32
9002.00,1.32
9001.00,1.32
9000.00,1.32
8999.00,1.32
8998.00,1.32
8997.00,1.32
8996.00,1.32
8995.00,1.32
8994.00,1.32
8993.00,1.32
8992.00,1.33
8991.00,1.33
8990.00,1.33
8989.00,1.33
8988.00,1.33
8987.00,1.33
8986.00,1.34
8985.00,1.34
8984.00,1.34
8983.00,1.34
8982.00,1.34
8981.00,1.34
8980.00,1.34
8979.00,1.34
8978.00,1.34
8977.00,1.34
8976.00,1.34
8975.00,1.34
8974.00,1.33
8973.00,1.33
8972.00,1.33
8971.00,1.33
8970.00,1.33
8969.00,1.33
8968.00,1.33
8967.00,1.33
8966.00,1.32
8965.00,1.32
8964.00,1.32
8963.00,1.32
8962.00,1.32
8961.00,1.32
8960.00,1.32
8959.00,1.32
8958.00,1.32
8957.00,1.32
8956.00,1.32
8955.00,1.32
8954.00,1.32
8953.00,1.32
8952.00,1.32
8951.00,1.32
8950.00,1.32
8949.00,1.32
8948.00,1.32
8947.00,1.32
8946.00,1.33
8945.00,1.33
8944.00,1.33
8943.00,1.33
8942.00,1.33
8941.00,1.33
8940.00,1.33
8939.00,1.33
8938.00,1.33
8937.00,1.33
8936.00,1.33
8935.00,1.33
8934.00,1.33
8933.00,1.33
8932.00,1.33
8931.00,1.33
8930.00,1.33
8929.00,1.33
8928.00,1.33
8927.00,1.33
8926.00,1.33
8925.00,1.33
8924.00,1.33
8923.00,1.33
8922.00,1.34
8921.00,1.34
8920.00,1.34
8919.00,1.34
8918.00,1.34
8917.00,1.33
8916.00,1.33
8915.00,1.33
8914.00,1.33
8913.00,1.33
8912.00,1.33
8911.00,1.33
8910.00,1.32
8909.00,1.32
8908.00,1.32
8907.00,1.32
8906.00,1.32
8905.00,1.32
8904.00,1.32
8903.00,1.32
8902.00,1.32
8901.00,1.32
8900.00,1.32
8899.00,1.32
8898.00,1.32
8897.00,1.32
8896.00,1.32
8895.00,1.32
8894.00,1.32
8893.00,1.32
8892.00,1.32
8891.00,1.32
8890.00,1.32
8889.00,1.32
8888.00,1.33
8887.00,1.33
8886.00,1.33
8885.00,1.33
8884.00,1.33
8883.00,1.33
8882.00,1.33
8881.00,1.33
8880.00,1.33
8879.00,1.33
8878.00,1.33
8877.00,1.32
8876.00,1.32
8875.00,1.32
8874.00,1.32
8873.00,1.32
8872.00,1.32
8871.00,1.32
8870.00,1.32
8869.00,1.32
8868.00,1.32
8867.00,1.32
8866.00,1.32
8865.00,1.32
8864.00,1.32
8863.00,1.32
8862.00,1.32
8861.00,1.32
8860.00,1.32
8859.00,1.32
8858.00,1.32
8857.00,1.32
8856.00,1.32
8855.00,1.32
8854.00,1.32
8853.00,1.32
8852.00,1.32
8851.00,1.32
8850.00,1.33
8849.00,1.33
8848.00,1.33
8847.00,1.33
8846.00,1.33
8845.00,1.33
8844.00,1.33
8843.00,1.33
8842.00,1.33
8841.00,1.33
8840.00,1.33
8839.00,1.33
8838.00,1.33
8837.00,1.32
8836.00,1.32
8835.00,1.32
8834.00,1.32
8833.00,1.32
8832.00,1.32
8831.00,1.32
8830.00,1.32
8829.00,1.32
8828.00,1.32
8827.00,1.32
8826.00,1.32
8825.00,1.32
8824.00,1.32
8823.00,1.32
8822.00,1.32
8821.00,1.31
8820.00,1.31
8819.00,1.31
8818.00,1.31
8817.00,1.31
8816.00,1.31
8815.00,1.31
8814.00,1.31
8813.00,1.31
8812.00,1.31
8811.00,1.31
8810.00,1.31
8809.00,1.31
8808.00,1.31
8807.00,1.31
8806.00,1.31
8805.00,1.31
8804.00,1.31
8803.00,1.31
8802.00,1.31
8801.00,1.31
8800.00,1.31
8799.00,1.31
8798.00,1.31
8797.00,1.31
8796.00,1.31
8795.00,1.31
8794.00,1.31
8793.00,1.31
8792.00,1.31
8791.00,1.31
8790.00,1.31
8789.00,1.31
8788.00,1.31
8787.00,1.30
8786.00,1.30
8785.00,1.30
8784.00,1.30
8783.00,1.30
8782.00,1.30
8781.00,1.30
8780.00,1.30
8779.00,1.30
8778.00,1.30
8777.00,1.30
8776.00,1.30
8775.00,1.30
8774.00,1.30
8773.00,1.30
8772.00,1.30
8771.00,1.30
8770.00,1.30
8769.00,1.30
8768.00,1.30
8767.00,1.30
8766.00,1.30
8765.00,1.30
8764.00,1.30
8763.00,1.29
8762.00,1.29
8761.00,1.29
8760.00,1.29
8759.00,1.29
8758.00,1.29
8757.00,1.29
8756.00,1.29
8755.00,1.29
8754.00,1.29
8753.00,1.29
8752.00,1.29
8751.00,1.29
8750.00,1.29
8749.00,1.28
8748.00,1.28
8747.00,1.28
8746.00,1.28
8745.00,1.28
8744.00,1.28
8743.00,1.27
8742.00,1.27
8741.00,1.27
8740.00,1.27
8739.00,1.27
8738.00,1.27
8737.00,1.27
8736.00,1.27
8735.00,1.27
8734.00,1.27
8733.00,1.27
8732.00,1.27
8731.00,1.27
8730.00,1.27
8729.00,1.27
8728.00,1.27
8727.00,1.27
8726.00,1.27
8725.00,1.27
8724.00,1.27
8723.00,1.27
8722.00,1.27
8721.00,1.27
8720.00,1.27
8719.00,1.27
8718.00,1.27
8717.00,1.27
8716.00,1.27
8715.00,1.27
8714.00,1.27
8713.00,1.27
8712.00,1.27
8711.00,1.27
8710.00,1.27
8709.00,1.27
8708.00,1.27
8707.00,1.27
8706.00,1.27
8705.00,1.27
8704.00,1.27
8703.00,1.27
8702.00,1.27
8701.00,1.27
8700.00,1.27
8699.00,1.27
8698.00,1.27
8697.00,1.27
8696.00,1.27
8695.00,1.27
8694.00,1.27
8693.00,1.27
8692.00,1.27
8691.00,1.27
8690.00,1.27
8689.00,1.27
8688.00,1.27
8687.00,1.28
8686.00,1.28
8685.00,1.28
8684.00,1.28
8683.00,1.28
8682.00,1.28
8681.00,1.28
8680.00,1.28
8679.00,1.28
8678.00,1.28
8677.00,1.27
8676.00,1.27
8675.00,1.27
8674.00,1.27
8673.00,1.27
8672.00,1.27
8671.00,1.27
8670.00,1.27
8669.00,1.27
8668.00,1.27
8667.00,1.27
8666.00,1.27
8665.00,1.27
8664.00,1.27
8663.00,1.27
8662.00,1.27
8661.00,1.27
8660.00,1.27
8659.00,1.27
8658.00,1.27
8657.00,1.27
8656.00,1.27
8655.00,1.27
8654.00,1.27
8653.00,1.27
8652.00,1.27
8651.00,1.27
8650.00,1.27
8649.00,1.27
8648.00,1.27
8647.00,1.27
8646.00,1.27
8645.00,1.26
8644.00,1.26
8643.00,1.26
8642.00,1.26
8641.00,1.26
8640.00,1.26
8639.00,1.26
8638.00,1.26
8637.00,1.25
8636.00,1.25
8635.00,1.25
8634.00,1.25
8633.00,1.25
8632.00,1.25
8631.00,1.25
8630.00,1.25
8629.00,1.25
8628.00,1.25
8627.00,1.24
8626.00,1.24
8625.00,1.24
8624.00,1.24
8623.00,1.24
8622.00,1.24
8621.00,1.24
8620.00,1.24
8619.00,1.24
8618.00,1.24
8617.00,1.24
8616.00,1.24
8615.00,1.24
8614.00,1.24
8613.00,1.24
8612.00,1.24
8611.00,1.24
8610.00,1.24
8609.00,1.24
8608.00,1.24
8607.00,1.24
8606.00,1.24
8605.00,1.24
8604.00,1.24
8603.00,1.24
8602.00,1.24
8601.00,1.23
8600.00,1.23
8599.00,1.23
8598.00,1.23
8597.00,1.23
8596.00,1.23
8595.00,1.23
8594.00,1.23
8593.00,1.23
8592.00,1.23
8591.00,1.23
8590.00,1.23
8589.00,1.23
8588.00,1.23
8587.00,1.23
8586.00,1.23
8585.00,1.23
8584.00,1.23
8583.00,1.23
8582.00,1.23
8581.00,1.23
8580.00,1.23
8579.00,1.23
8578.00,1.23
8577.00,1.23
8576.00,1.24
8575.00,1.24
8574.00,1.24
8573.00,1.24
8572.00,1.24
8571.00,1.24
8570.00,1.24
8569.00,1.24
8568.00,1.24
8567.00,1.24
8566.00,1.24
8565.00,1.23
8564.00,1.23
8563.00,1.23
8562.00,1.23
8561.00,1.23
8560.00,1.23
8559.00,1.22
8558.00,1.22
8557.00,1.22
8556.00,1.22
8555.00,1.22
8554.00,1.22
8553.00,1.22
8552.00,1.22
8551.00,1.22
8550.00,1.22
8549.00,1.22
8548.00,1.22
8547.00,1.22
8546.00,1.22
8545.00,1.22
8544.00,1.22
8543.00,1.22
8542.00,1.22
8541.00,1.22
8540.00,1.22
8539.00,1.22
8538.00,1.22
8537.00,1.22
8536.00,1.22
8535.00,1.22
8534.00,1.22
8533.00,1.22
8532.00,1.22
8531.00,1.22
8530.00,1.22
8529.00,1.22
8528.00,1.22
8527.00,1.22
8526.00,1.22
8525.00,1.21
8524.00,1.21
8523.00,1.21
8522.00,1.21
8521.00,1.21
8520.00,1.21
8519.00,1.21
8518.00,1.21
8517.00,1.21
8516.00,1.21
8515.00,1.21
8514.00,1.21
8513.00,1.21
8512.00,1.21
8511.00,1.21
8510.00,1.21
8509.00,1.21
8508.00,1.21
8507.00,1.21
8506.00,1.20
8505.00,1.20
8504.00,1.20
8503.00,1.20
8502.00,1.20
8501.00,1.20
8500.00,1.20
8499.00,1.20
8498.00,1.20
8497.00,1.20
8496.00,1.20
8495.00,1.20
8494.00,1.19
8493.00,1.19
8492.00,1.19
8491.00,1.19
8490.00,1.19
8489.00,1.19
8488.00,1.19
8487.00,1.19
8486.00,1.19
8485.00,1.19
8484.00,1.19
8483.00,1.18
8482.00,1.18
8481.00,1.18
8480.00,1.18
8479.00,1.18
8478.00,1.18
8477.00,1.17
8476.00,1.17
8475.00,1.17
8474.00,1.17
8473.00,1.17
8472.00,1.17
8471.00,1.16
8470.00,1.16
8469.00,1.16
8468.00,1.16
8467.00,1.16
8466.00,1.16
8465.00,1.16
8464.00,1.16
8463.00,1.16
8462.00,1.16
8461.00,1.16
8460.00,1.16
8459.00,1.16
8458.00,1.16
8457.00,1.16
8456.00,1.16
8455.00,1.16
8454.00,1.16
8453.00,1.16
8452.00,1.16
8451.00,1.16
8450.00,1.16
8449.00,1.16
8448.00,1.16
8447.00,1.16
8446.00,1.16
8445.00,1.16
8444.00,1.16
8443.00,1.16
8442.00,1.16
8441.00,1.16
8440.00,1.16
8439.00,1.16
8438.00,1.16
8437.00,1.16
8436.00,1.16
8435.00,1.16
8434.00,1.16
8433.00,1.16
8432.00,1.16
8431.00,1.16
8430.00,1.16
8429.00,1.16
8428.00,1.16
8427.00,1.16
8426.00,1.16
8425.00,1.16
8424.00,1.16
8423.00,1.16
8422.00,1.16
8421.00,1.16
8420.00,1.17
8419.00,1.17
8418.00,1.17
8417.00,1.17
8416.00,1.17
8415.00,1.17
8414.00,1.17
8413.00,1.17
8412.00,1.17
8411.00,1.17
8410.00,1.17
8409.00,1.17
8408.00,1.17
8407.00,1.17
8406.00,1.17
8405.00,1.17
8404.00,1.17
8403.00,1.17
8402.00,1.17
8401.00,1.17
8400.00,1.17
8399.00,1.17
8398.00,1.17
8397.00,1.17
8396.00,1.17
8395.00,1.17
8394.00,1.17
8393.00,1.17
8392.00,1.18
8391.00,1.18
8390.00,1.18
8389.00,1.18
8388.00,1.18
8387.00,1.18
8386.00,1.18
8385.00,1.18
8384.00,1.18
8383.00,1.18
8382.00,1.18
8381.00,1.18
8380.00,1.18
8379.00,1.18
8378.00,1.18
8377.00,1.18
8376.00,1.18
8375.00,1.18
8374.00,1.18
8373.00,1.18
8372.00,1.19
8371.00,1.19
8370.00,1.19
8369.00,1.19
8368.00,1.19
8367.00,1.20
8366.00,1.20
8365.00,1.20
8364.00,1.20
8363.00,1.20
8362.00,1.20
8361.00,1.20
8360.00,1.20
8359.00,1.21
8358.00,1.21
8357.00,1.20
8356.00,1.20
8355.00,1.20
8354.00,1.20
8353.00,1.20
8352.00,1.20
8351.00,1.20
8350.00,1.20
8349.00,1.20
8348.00,1.20
8347.00,1.20
8346.00,1.20
8345.00,1.20
8344.00,1.20
8343.00,1.20
8342.00,1.20
8341.00,1.20
8340.00,1.20
8339.00,1.20
8338.00,1.20
8337.00,1.20
8336.00,1.20
8335.00,1.20
8334.00,1.20
8333.00,1.20
8332.00,1.20
8331.00,1.20
8330.00,1.20
8329.00,1.20
8328.00,1.21
8327.00,1.21
8326.00,1.21
8325.00,1.21
8324.00,1.21
8323.00,1.21
8322.00,1.21
8321.00,1.21
8320.00,1.22
8319.00,1.22
8318.00,1.22
8317.00,1.22
8316.00,1.22
8315.00,1.22
8314.00,1.22
8313.00,1.21
8312.00,1.21
8311.00,1.21
8310.00,1.21
8309.00,1.21
8308.00,1.21
8307.00,1.21
8306.00,1.21
8305.00,1.21
8304.00,1.21
8303.00,1.21
8302.00,1.21
8301.00,1.21
8300.00,1.21
8299.00,1.21
8298.00,1.21
8297.00,1.21
8296.00,1.21
8295.00,1.21
8294.00,1.21
8293.00,1.21
8292.00,1.21
8291.00,1.21
8290.00,1.21
8289.00,1.21
8288.00,1.21
8287.00,1.21
8286.00,1.21
8285.00,1.21
8284.00,1.21
8283.00,1.21
8282.00,1.21
8281.00,1.22
8280.00,1.22
8279.00,1.22
8278.00,1.22
8277.00,1.22
8276.00,1.22
8275.00,1.22
8274.00,1.22
8273.00,1.22
8272.00,1.22
8271.00,1.22
8270.00,1.22
8269.00,1.22
8268.00,1.22
8267.00,1.22
8266.00,1.22
8265.00,1.22
8264.00,1.22
8263.00,1.22
8262.00,1.22
8261.00,1.22
8260.00,1.22
8259.00,1.22
8258.00,1.22
8257.00,1.22
8256.00,1.22
8255.00,1.22
8254.00,1.22
8253.00,1.22
8252.00,1.22
8251.00,1.22
8250.00,1.22
8249.00,1.22
8248.00,1.22
8247.00,1.22
8246.00,1.22
8245.00,1.22
8244.00,1.22
8243.00,1.22
8242.00,1.22
8241.00,1.22
8240.00,1.22
8239.00,1.23
8238.00,1.23
8237.00,1.23
8236.00,1.23
8235.00,1.23
8234.00,1.23
8233.00,1.23
8232.00,1.23
8231.00,1.23
8230.00,1.23
8229.00,1.23
8228.00,1.23
8227.00,1.24
8226.00,1.24
8225.00,1.24
8224.00,1.24
8223.00,1.24
8222.00,1.23
8221.00,1.23
8220.00,1.23
8219.00,1.23
8218.00,1.23
8217.00,1.23
8216.00,1.23
8215.00,1.23
8214.00,1.23
8213.00,1.23
8212.00,1.23
8211.00,1.23
8210.00,1.24
8209.00,1.24
8208.00,1.24
8207.00,1.24
8206.00,1.24
8205.00,1.24
8204.00,1.24
8203.00,1.24
8202.00,1.24
8201.00,1.24
8200.00,1.24
8199.00,1.24
8198.00,1.25
8197.00,1.25
8196.00,1.25
8195.00,1.25
8194.00,1.25
8193.00,1.25
8192.00,1.25
8191.00,1.25
8190.00,1.25
8189.00,1.25
8188.00,1.25
8187.00,1.25
8186.00,1.25
8185.00,1.25
8184.00,1.25
8183.00,1.25
8182.00,1.25
8181.00,1.25
8180.00,1.25
8179.00,1.25
8178.00,1.26
8177.00,1.26
8176.00,1.26
8175.00,1.25
8174.00,1.25
8173.00,1.25
8172.00,1.25
8171.00,1.25
8170.00,1.25
8169.00,1.25
8168.00,1.25
8167.00,1.25
8166.00,1.25
8165.00,1.25
8164.00,1.25
8163.00,1.25
8162.00,1.25
8161.00,1.25
8160.00,1.25
8159.00,1.25
8158.00,1.25
8157.00,1.25
8156.00,1.25
8155.00,1.25
8154.00,1.25
8153.00,1.25
8152.00,1.25
8151.00,1.25
8150.00,1.25
8149.00,1.25
8148.00,1.25
8147.00,1.25
8146.00,1.26
8145.00,1.26
8144.00,1.26
8143.00,1.26
8142.00,1.26
8141.00,1.26
8140.00,1.26
8139.00,1.26
8138.00,1.26
8137.00,1.27
8136.00,1.27
8135.00,1.27
8134.00,1.27
8133.00,1.27
8132.00,1.27
8131.00,1.27
8130.00,1.27
8129.00,1.27
8128.00,1.27
8127.00,1.27
8126.00,1.27
8125.00,1.27
8124.00,1.28
8123.00,1.28
8122.00,1.28
8121.00,1.28
8120.00,1.28
8119.00,1.28
8118.00,1.28
8117.00,1.28
8116.00,1.28
8115.00,1.28
8114.00,1.27
8113.00,1.27
8112.00,1.27
8111.00,1.27
8110.00,1.27
8109.00,1.27
8108.00,1.27
8107.00,1.27
8106.00,1.27
8105.00,1.27
8104.00,1.27
8103.00,1.27
8102.00,1.27
8101.00,1.27
8100.00,1.27
8099.00,1.27
8098.00,1.27
8097.00,1.27
8096.00,1.27
8095.00,1.27
8094.00,1.27
8093.00,1.27
8092.00,1.27
8091.00,1.27
8090.00,1.28
8089.00,1.28
8088.00,1.28
8087.00,1.28
8086.00,1.28
8085.00,1.28
8084.00,1.28
8083.00,1.28
8082.00,1.28
8081.00,1.28
8080.00,1.28
8079.00,1.28
8078.00,1.28
8077.00,1.28
8076.00,1.29
8075.00,1.29
8074.00,1.29
8073.00,1.29
8072.00,1.29
8071.00,1.29
8070.00,1.29
8069.00,1.29
8068.00,1.29
8067.00,1.29
8066.00,1.29
8065.00,1.29
8064.00,1.29
8063.00,1.29
8062.00,1.28
8061.00,1.28
8060.00,1.28
8059.00,1.28
8058.00,1.28
8057.00,1.28
8056.00,1.28
8055.00,1.28
8054.00,1.28
8053.00,1.28
8052.00,1.29
8051.00,1.29
8050.00,1.29
8049.00,1.29
8048.00,1.29
8047.00,1.29
8046.00,1.29
8045.00,1.29
8044.00,1.29
8043.00,1.29
8042.00,1.29
8041.00,1.29
8040.00,1.29
8039.00,1.29
8038.00,1.29
8037.00,1.29
8036.00,1.29
8035.00,1.29
8034.00,1.30
8033.00,1.30
8032.00,1.30
8031.00,1.30
8030.00,1.30
8029.00,1.30
8028.00,1.30
8027.00,1.30
8026.00,1.30
8025.00,1.30
8024.00,1.30
8023.00,1.30
8022.00,1.30
8021.00,1.30
8020.00,1.30
8019.00,1.30
8018.00,1.30
8017.00,1.30
8016.00,1.30
8015.00,1.30
8014.00,1.30
8013.00,1.30
8012.00,1.30
8011.00,1.30
8010.00,1.30
8009.00,1.30
8008.00,1.30
8007.00,1.30
8006.00,1.30
8005.00,1.30
8004.00,1.30
8003.00,1.30
8002.00,1.30
8001.00,1.30
8000.00,1.30
7999.00,1.31
7998.00,1.31
7997.00,1.31
7996.00,1.31
7995.00,1.31
7994.00,1.31
7993.00,1.31
7992.00,1.31
7991.00,1.31
7990.00,1.31
7989.00,1.31
7988.00,1.31
7987.00,1.31
7986.00,1.31
7985.00,1.31
7984.00,1.31
7983.00,1.31
7982.00,1.31
7981.00,1.31
7980.00,1.31
7979.00,1.31
7978.00,1.31
7977.00,1.32
7976.00,1.32
7975.00,1.32
7974.00,1.32
7973.00,1.32
7972.00,1.32
7971.00,1.31
7970.00,1.31
7969.00,1.31
7968.00,1.31
7967.00,1.31
7966.00,1.31
7965.00,1.31
7964.00,1.31
7963.00,1.32
7962.00,1.32
7961.00,1.32
7960.00,1.32
7959.00,1.32
7958.00,1.32
7957.00,1.32
7956.00,1.32
7955.00,1.32
7954.00,1.32
7953.00,1.32
7952.00,1.32
7951.00,1.31
7950.00,1.31
7949.00,1.31
7948.00,1.31
7947.00,1.31
7946.00,1.31
7945.00,1.31
7944.00,1.31
7943.00,1.31
7942.00,1.31
7941.00,1.31
7940.00,1.31
7939.00,1.31
7938.00,1.31
7937.00,1.31
7936.00,1.31
7935.00,1.31
7934.00,1.31
7933.00,1.31
7932.00,1.31
7931.00,1.31
7930.00,1.31
7929.00,1.31
7928.00,1.31
7927.00,1.31
7926.00,1.31
7925.00,1.31
7924.00,1.31
7923.00,1.32
7922.00,1.32
7921.00,1.32
7920.00,1.32
7919.00,1.32
7918.00,1.32
7917.00,1.32
7916.00,1.32
7915.00,1.32
7914.00,1.33
7913.00,1.33
7912.00,1.33
7911.00,1.33
7910.00,1.33
7909.00,1.33
7908.00,1.33
7907.00,1.33
7906.00,1.33
7905.00,1.33
7904.00,1.33
7903.00,1.32
7902.00,1.32
7901.00,1.32
7900.00,1.32
7899.00,1.32
7898.00,1.32
7897.00,1.32
7896.00,1.32
7895.00,1.32
7894.00,1.32
7893.00,1.32
7892.00,1.32
7891.00,1.32
7890.00,1.32
7889.00,1.32
7888.00,1.32
7887.00,1.32
7886.00,1.32
7885.00,1.32
7884.00,1.33
7883.00,1.33
7882.00,1.33
7881.00,1.33
7880.00,1.33
7879.00,1.33
7878.00,1.33
7877.00,1.33
7876.00,1.33
7875.00,1.33
7874.00,1.33
7873.00,1.33
7872.00,1.33
7871.00,1.33
7870.00,1.33
7869.00,1.33
7868.00,1.33
7867.00,1.33
7866.00,1.33
7865.00,1.33
7864.00,1.33
7863.00,1.33
7862.00,1.33
7861.00,1.33
7860.00,1.33
7859.00,1.33
7858.00,1.33
7857.00,1.33
7856.00,1.33
7855.00,1.33
7854.00,1.33
7853.00,1.33
7852.00,1.33
7851.00,1.33
7850.00,1.33
7849.00,1.33
7848.00,1.33
7847.00,1.33
7846.00,1.33
7845.00,1.33
7844.00,1.33
7843.00,1.33
7842.00,1.33
7841.00,1.33
7840.00,1.33
7839.00,1.33
7838.00,1.33
7837.00,1.33
7836.00,1.33
7835.00,1.33
7834.00,1.33
7833.00,1.33
7832.00,1.33
7831.00,1.33
7830.00,1.33
7829.00,1.33
7828.00,1.33
7827.00,1.33
7826.00,1.34
7825.00,1.34
7824.00,1.34
7823.00,1.34
7822.00,1.34
7821.00,1.34
7820.00,1.34
7819.00,1.34
7818.00,1.34
7817.00,1.34
7816.00,1.34
7815.00,1.34
7814.00,1.34
7813.00,1.34
7812.00,1.34
7811.00,1.34
7810.00,1.34
7809.00,1.34
7808.00,1.34
7807.00,1.34
7806.00,1.34
7805.00,1.34
7804.00,1.34
7803.00,1.34
7802.00,1.34
7801.00,1.34
7800.00,1.34
7799.00,1.34
7798.00,1.34
7797.00,1.34
7796.00,1.34
7795.00,1.34
7794.00,1.34
7793.00,1.34
7792.00,1.34
7791.00,1.34
7790.00,1.34
7789.00,1.34
7788.00,1.34
7787.00,1.34
7786.00,1.34
7785.00,1.34
7784.00,1.34
7783.00,1.34
7782.00,1.34
7781.00,1.34
7780.00,1.34
7779.00,1.34
7778.00,1.34
7777.00,1.34
7776.00,1.34
7775.00,1.34
7774.00,1.34
7773.00,1.34
7772.00,1.34
7771.00,1.34
7770.00,1.34
7769.00,1.34
7768.00,1.34
7767.00,1.34
7766.00,1.34
7765.00,1.34
7764.00,1.34
7763.00,1.34
7762.00,1.34
7761.00,1.34
7760.00,1.34
7759.00,1.34
7758.00,1.34
7757.00,1.34
7756.00,1.34
7755.00,1.34
7754.00,1.34
7753.00,1.34
7752.00,1.34
7751.00,1.34
7750.00,1.34
7749.00,1.34
7748.00,1.34
7747.00,1.34
7746.00,1.34
7745.00,1.34
7744.00,1.34
7743.00,1.34
7742.00,1.34
7741.00,1.34
7740.00,1.34
7739.00,1.34
7738.00,1.34
7737.00,1.34
7736.00,1.34
7735.00,1.34
7734.00,1.34
7733.00,1.34
7732.00,1.34
7731.00,1.34
7730.00,1.34
7729.00,1.34
7728.00,1.34
7727.00,1.34
7726.00,1.34
7725.00,1.34
7724.00,1.34
7723.00,1.34
7722.00,1.34
7721.00,1.34
7720.00,1.34
7719.00,1.34
7718.00,1.34
7717.00,1.34
7716.00,1.34
7715.00,1.35
7714.00,1.35
7713.00,1.35
7712.00,1.35
7711.00,1.35
7710.00,1.35
7709.00,1.35
7708.00,1.35
7707.00,1.35
7706.00,1.35
7705.00,1.35
7704.00,1.35
7703.00,1.35
7702.00,1.35
7701.00,1.35
7700.00,1.35
7699.00,1.35
7698.00,1.35
7697.00,1.35
7696.00,1.35
7695.00,1.35
7694.00,1.35
7693.00,1.35
7692.00,1.35
7691.00,1.35
7690.00,1.35
7689.00,1.35
7688.00,1.35
7687.00,1.35
7686.00,1.35
7685.00,1.35
7684.00,1.35
7683.00,1.35
7682.00,1.35
7681.00,1.35
7680.00,1.35
7679.00,1.35
7678.00,1.35
7677.00,1.35
7676.00,1.35
7675.00,1.35
7674.00,1.35
7673.00,1.35
7672.00,1.35
7671.00,1.35
7670.00,1.35
7669.00,1.35
7668.00,1.35
7667.00,1.35
7666.00,1.35
7665.00,1.35
7664.00,1.35
7663.00,1.35
7662.00,1.35
7661.00,1.35
7660.00,1.35
7659.00,1.35
7658.00,1.35
7657.00,1.35
7656.00,1.35
7655.00,1.35
7654.00,1.35
7653.00,1.35
7652.00,1.35
7651.00,1.35
7650.00,1.35
7649.00,1.35
7648.00,1.35
7647.00,1.35
7646.00,1.35
7645.00,1.35
7644.00,1.35
7643.00,1.35
7642.00,1.35
7641.00,1.35
7640.00,1.35
7639.00,1.35
7638.00,1.35
7637.00,1.35
7636.00,1.35
7635.00,1.35
7634.00,1.35
7633.00,1.35
7632.00,1.35
7631.00,1.35
7630.00,1.35
7629.00,1.35
7628.00,1.35
7627.00,1.35
7626.00,1.35
7625.00,1.35
7624.00,1.35
7623.00,1.35
7622.00,1.35
7621.00,1.35
7620.00,1.35
7619.00,1.34
7618.00,1.34
7617.00,1.34
7616.00,1.34
7615.00,1.34
7614.00,1.34
7613.00,1.34
7612.00,1.34
7611.00,1.34
7610.00,1.34
7609.00,1.34
7608.00,1.34
7607.00,1.34
7606.00,1.34
7605.00,1.34
7604.00,1.34
7603.00,1.34
7602.00,1.34
7601.00,1.34
7600.00,1.34
7599.00,1.34
7598.00,1.35
7597.00,1.35
7596.00,1.35
7595.00,1.35
7594.00,1.35
7593.00,1.35
7592.00,1.35
7591.00,1.35
7590.00,1.35
7589.00,1.35
7588.00,1.35
7587.00,1.35
7586.00,1.35
7585.00,1.35
7584.00,1.35
7583.00,1.35
7582.00,1.35
7581.00,1.35
7580.00,1.35
7579.00,1.35
7578.00,1.35
7577.00,1.35
7576.00,1.35
7575.00,1.35
7574.00,1.35
7573.00,1.35
7572.00,1.35
7571.00,1.35
7570.00,1.35
7569.00,1.35
7568.00,1.35
7567.00,1.35
7566.00,1.35
7565.00,1.35
7564.00,1.35
7563.00,1.35
7562.00,1.35
7561.00,1.35
7560.00,1.35
7559.00,1.35
7558.00,1.35
7557.00,1.35
7556.00,1.35
7555.00,1.35
7554.00,1.35
7553.00,1.35
7552.00,1.35
7551.00,1.35
7550.00,1.35
7549.00,1.35
7548.00,1.35
7547.00,1.35
7546.00,1.34
7545.00,1.34
7544.00,1.34
7543.00,1.34
7542.00,1.34
7541.00,1.34
7540.00,1.34
7539.00,1.33
7538.00,1.33
7537.00,1.33
7536.00,1.33
7535.00,1.33
7534.00,1.33
7533.00,1.33
7532.00,1.33
7531.00,1.33
7530.00,1.33
7529.00,1.33
7528.00,1.34
7527.00,1.34
7526.00,1.34
7525.00,1.34
7524.00,1.34
7523.00,1.34
7522.00,1.34
7521.00,1.34
7520.00,1.34
7519.00,1.34
7518.00,1.34
7517.00,1.34
7516.00,1.34
7515.00,1.34
7514.00,1.34
7513.00,1.34
7512.00,1.34
7511.00,1.34
7510.00,1.34
7509.00,1.34
7508.00,1.34
7507.00,1.34
7506.00,1.34
7505.00,1.34
7504.00,1.33
7503.00,1.33
7502.00,1.33
7501.00,1.33
7500.00,1.33
7499.00,1.33
7498.00,1.33
7497.00,1.33
7496.00,1.33
7495.00,1.33
7494.00,1.33
7493.00,1.33
7492.00,1.33
7491.00,1.33
7490.00,1.32
7489.00,1.32
7488.00,1.32
7487.00,1.32
7486.00,1.32
7485.00,1.32
7484.00,1.32
7483.00,1.32
7482.00,1.32
7481.00,1.32
7480.00,1.32
7479.00,1.32
7478.00,1.32
7477.00,1.32
7476.00,1.32
7475.00,1.32
7474.00,1.32
7473.00,1.32
7472.00,1.32
7471.00,1.31
7470.00,1.31
7469.00,1.31
7468.00,1.31
7467.00,1.31
7466.00,1.31
7465.00,1.31
7464.00,1.31
7463.00,1.31
7462.00,1.30
7461.00,1.30
7460.00,1.30
7459.00,1.30
7458.00,1.30
7457.00,1.30
7456.00,1.30
7455.00,1.30
7454.00,1.30
7453.00,1.30
7452.00,1.30
7451.00,1.30
7450.00,1.30
7449.00,1.30
7448.00,1.30
7447.00,1.30
7446.00,1.30
7445.00,1.30
7444.00,1.30
7443.00,1.30
7442.00,1.30
7441.00,1.30
7440.00,1.30
7439.00,1.30
7438.00,1.30
7437.00,1.30
7436.00,1.30
7435.00,1.30
7434.00,1.30
7433.00,1.30
7432.00,1.30
7431.00,1.30
7430.00,1.30
7429.00,1.30
7428.00,1.30
7427.00,1.30
7426.00,1.30
7425.00,1.30
7424.00,1.29
7423.00,1.29
7422.00,1.29
7421.00,1.29
7420.00,1.29
7419.00,1.29
7418.00,1.29
7417.00,1.28
7416.00,1.28
7415.00,1.28
7414.00,1.28
7413.00,1.28
7412.00,1.28
7411.00,1.27
7410.00,1.27
7409.00,1.27
7408.00,1.27
7407.00,1.27
7406.00,1.27
7405.00,1.26
7404.00,1.26
7403.00,1.26
7402.00,1.26
7401.00,1.26
7400.00,1.26
7399.00,1.26
7398.00,1.26
7397.00,1.25
7396.00,1.25
7395.00,1.25
7394.00,1.25
7393.00,1.25
7392.00,1.25
7391.00,1.25
7390.00,1.25
7389.00,1.25
7388.00,1.25
7387.00,1.25
7386.00,1.25
7385.00,1.25
7384.00,1.24
7383.00,1.24
7382.00,1.24
7381.00,1.24
7380.00,1.24
7379.00,1.24
7378.00,1.24
7377.00,1.24
7376.00,1.24
7375.00,1.24
7374.00,1.24
7373.00,1.24
7372.00,1.24
7371.00,1.24
7370.00,1.24
7369.00,1.24
7368.00,1.24
7367.00,1.24
7366.00,1.23
7365.00,1.23
7364.00,1.23
7363.00,1.23
7362.00,1.23
7361.00,1.23
7360.00,1.23
7359.00,1.23
7358.00,1.23
7357.00,1.23
7356.00,1.23
7355.00,1.23
7354.00,1.22
7353.00,1.22
7352.00,1.22
7351.00,1.22
7350.00,1.22
7349.00,1.22
7348.00,1.22
7347.00,1.22
7346.00,1.22
7345.00,1.22
7344.00,1.22
7343.00,1.22
7342.00,1.22
7341.00,1.22
7340.00,1.22
7339.00,1.22
7338.00,1.22
7337.00,1.22
7336.00,1.22
7335.00,1.22
7334.00,1.22
7333.00,1.22
7332.00,1.22
7331.00,1.22
7330.00,1.22
7329.00,1.22
7328.00,1.22
7327.00,1.22
7326.00,1.22
7325.00,1.22
7324.00,1.22
7323.00,1.22
7322.00,1.22
7321.00,1.22
7320.00,1.22
7319.00,1.22
7318.00,1.22
7317.00,1.22
7316.00,1.22
7315.00,1.21
7314.00,1.21
7313.00,1.21
7312.00,1.21
7311.00,1.21
7310.00,1.21
7309.00,1.21
7308.00,1.21
7307.00,1.21
7306.00,1.21
7305.00,1.21
7304.00,1.21
7303.00,1.21
7302.00,1.21
7301.00,1.20
7300.00,1.20
7299.00,1.20
7298.00,1.20
7297.00,1.20
7296.00,1.20
7295.00,1.20
7294.00,1.20
7293.00,1.20
7292.00,1.19
7291.00,1.19
7290.00,1.19
7289.00,1.19
7288.00,1.19
7287.00,1.19
7286.00,1.19
7285.00,1.19
7284.00,1.19
7283.00,1.19
7282.00,1.19
7281.00,1.19
7280.00,1.19
7279.00,1.19
7278.00,1.19
7277.00,1.18
7276.00,1.18
7275.00,1.18
7274.00,1.18
7273.00,1.18
7272.00,1.18
7271.00,1.18
7270.00,1.18
7269.00,1.18
7268.00,1.17
7267.00,1.17
7266.00,1.17
7265.00,1.17
7264.00,1.17
7263.00,1.17
7262.00,1.17
7261.00,1.17
7260.00,1.17
7259.00,1.17
7258.00,1.16
7257.00,1.16
7256.00,1.16
7255.00,1.16
7254.00,1.16
7253.00,1.15
7252.00,1.15
7251.00,1.15
7250.00,1.15
7249.00,1.14
7248.00,1.14
7247.00,1.14
7246.00,1.14
7245.00,1.13
7244.00,1.13
7243.00,1.13
7242.00,1.13
7241.00,1.12
7240.00,1.12
7239.00,1.12
7238.00,1.11
7237.00,1.11
7236.00,1.10
7235.00,1.10
7234.00,1.10
7233.00,1.09
7232.00,1.09
7231.00,1.09
7230.00,1.08
7229.00,1.08
7228.00,1.07
7227.00,1.07
7226.00,1.07
7225.00,1.07
7224.00,1.06
7223.00,1.06
7222.00,1.06
7221.00,1.05
7220.00,1.05
7219.00,1.05
7218.00,1.05
7217.00,1.04
7216.00,1.04
7215.00,1.04
7214.00,1.03
7213.00,1.03
7212.00,1.02
7211.00,1.02
7210.00,1.02
7209.00,1.01
7208.00,1.01
7207.00,1.00
7206.00,1.00
7205.00,1.00
7204.00,0.99
7203.00,0.99
7202.00,0.99
7201.00,0.98
7200.00,0.98
7199.00,0.98
7198.00,0.98
7197.00,0.97
7196.00,0.97
7195.00,0.97
7194.00,0.97
7193.00,0.96
7192.00,0.96
7191.00,0.96
7190.00,0.95
7189.00,0.95
7188.00,0.95
7187.00,0.95
7186.00,0.94
7185.00,0.94
7184.00,0.94
7183.00,0.93
7182.00,0.93
7181.00,0.93
7180.00,0.93
7179.00,0.92
7178.00,0.92
7177.00,0.92
7176.00,0.91
7175.00,0.91
7174.00,0.91
7173.00,0.91
7172.00,0.90
7171.00,0.90
7170.00,0.90
7169.00,0.89
7168.00,0.89
7167.00,0.89
7166.00,0.89
7165.00,0.88
7164.00,0.88
7163.00,0.88
7162.00,0.88
7161.00,0.87
7160.00,0.87
7159.00,0.87
7158.00,0.87
7157.00,0.86
7156.00,0.86
7155.00,0.86
7154.00,0.86
7153.00,0.85
7152.00,0.85
7151.00,0.85
7150.00,0.85
7149.00,0.84
7148.00,0.84
7147.00,0.84
7146.00,0.84
7145.00,0.83
7144.00,0.83
7143.00,0.83
7142.00,0.83
7141.00,0.82
7140.00,0.82
7139.00,0.82
7138.00,0.81
7137.00,0.81
7136.00,0.81
7135.00,0.81
7134.00,0.80
7133.00,0.80
7132.00,0.80
7131.00,0.80
7130.00,0.79
7129.00,0.79
7128.00,0.79
7127.00,0.79
7126.00,0.78
7125.00,0.78
7124.00,0.78
7123.00,0.78
7122.00,0.77
7121.00,0.77
7120.00,0.77
7119.00,0.77
7118.00,0.76
7117.00,0.76
7116.00,0.76
7115.00,0.76
7114.00,0.75
7113.00,0.75
7112.00,0.75
7111.00,0.75
7110.00,0.75
7109.00,0.74
7108.00,0.74
7107.00,0.74
7106.00,0.74
7105.00,0.74
7104.00,0.73
7103.00,0.73
7102.00,0.73
7101.00,0.73
7100.00,0.72
7099.00,0.72
7098.00,0.72
7097.00,0.72
7096.00,0.72
7095.00,0.71
7094.00,0.71
7093.00,0.71
7092.00,0.71
7091.00,0.70
7090.00,0.70
7089.00,0.70
7088.00,0.70
7087.00,0.70
7086.00,0.69
7085.00,0.69
7084.00,0.69
7083.00,0.69
7082.00,0.69
7081.00,0.69
7080.00,0.68
7079.00,0.68
7078.00,0.68
7077.00,0.68
7076.00,0.68
7075.00,0.68
7074.00,0.67
7073.00,0.67
7072.00,0.67
7071.00,0.67
7070.00,0.67
7069.00,0.67
7068.00,0.67
7067.00,0.66
7066.00,0.66
7065.00,0.66
7064.00,0.66
7063.00,0.66
7062.00,0.66
7061.00,0.66
7060.00,0.66
7059.00,0.65
7058.00,0.65
7057.00,0.65
7056.00,0.65
7055.00,0.65
7054.00,0.65
7053.00,0.65
7052.00,0.64
7051.00,0.64
7050.00,0.64
7049.00,0.64
7048.00,0.64
7047.00,0.64
7046.00,0.63
7045.00,0.63
7044.00,0.63
7043.00,0.63
7042.00,0.63
7041.00,0.63
7040.00,0.63
7039.00,0.62
7038.00,0.62
7037.00,0.62
7036.00,0.62
7035.00,0.62
7034.00,0.62
7033.00,0.61
7032.00,0.61
7031.00,0.61
7030.00,0.61
7029.00,0.61
7028.00,0.61
7027.00,0.61
7026.00,0.61
7025.00,0.61
7024.00,0.61
7023.00,0.61
7022.00,0.60
7021.00,0.60
7020.00,0.60
7019.00,0.60
7018.00,0.60
7017.00,0.60
7016.00,0.60
7015.00,0.60
7014.00,0.60
7013.00,0.60
7012.00,0.60
7011.00,0.60
7010.00,0.59
7009.00,0.59
7008.00,0.59
7007.00,0.59
7006.00,0.59
7005.00,0.59
7004.00,0.59
7003.00,0.59
7002.00,0.58
7001.00,0.58
7000.00,0.58
6999.00,0.58
6998.00,0.58
6997.00,0.58
6996.00,0.58
6995.00,0.58
6994.00,0.58
6993.00,0.58
6992.00,0.58
6991.00,0.58
6990.00,0.58
6989.00,0.58
6988.00,0.58
6987.00,0.58
6986.00,0.58
6985.00,0.58
6984.00,0.58
6983.00,0.58
6982.00,0.57
6981.00,0.57
6980.00,0.57
6979.00,0.57
6978.00,0.57
6977.00,0.57
6976.00,0.57
6975.00,0.57
6974.00,0.57
6973.00,0.57
6972.00,0.57
6971.00,0.57
6970.00,0.57
6969.00,0.57
6968.00,0.57
6967.00,0.57
6966.00,0.57
6965.00,0.57
6964.00,0.57
6963.00,0.56
6962.00,0.56
6961.00,0.56
6960.00,0.56
6959.00,0.56
6958.00,0.56
6957.00,0.56
6956.00,0.56
6955.00,0.56
6954.00,0.56
6953.00,0.56
6952.00,0.56
6951.00,0.56
6950.00,0.56
6949.00,0.56
6948.00,0.56
6947.00,0.56
6946.00,0.56
6945.00,0.56
6944.00,0.56
6943.00,0.56
6942.00,0.56
6941.00,0.56
6940.00,0.55
6939.00,0.55
6938.00,0.55
6937.00,0.55
6936.00,0.55
6935.00,0.55
6934.00,0.55
6933.00,0.55
6932.00,0.55
6931.00,0.55
6930.00,0.55
6929.00,0.55
6928.00,0.55
6927.00,0.55
6926.00,0.55
6925.00,0.54
6924.00,0.54
6923.00,0.54
6922.00,0.54
6921.00,0.54
6920.00,0.54
6919.00,0.54
6918.00,0.54
6917.00,0.54
6916.00,0.54
6915.00,0.54
6914.00,0.54
6913.00,0.54
6912.00,0.54
6911.00,0.54
6910.00,0.54
6909.00,0.54
6908.00,0.54
6907.00,0.54
6906.00,0.54
6905.00,0.54
6904.00,0.54
6903.00,0.54
6902.00,0.54
6901.00,0.54
6900.00,0.54
6899.00,0.54
6898.00,0.54
6897.00,0.54
6896.00,0.54
6895.00,0.54
6894.00,0.54
6893.00,0.54
6892.00,0.54
6891.00,0.54
6890.00,0.54
6889.00,0.54
6888.00,0.54
6887.00,0.54
6886.00,0.54
6885.00,0.54
6884.00,0.54
6883.00,0.54
6882.00,0.54
6881.00,0.54
6880.00,0.53
6879.00,0.53
6878.00,0.53
6877.00,0.53
6876.00,0.53
6875.00,0.53
6874.00,0.53
6873.00,0.53
6872.00,0.53
6871.00,0.53
6870.00,0.53
6869.00,0.52
6868.00,0.52
6867.00,0.52
6866.00,0.52
6865.00,0.52
6864.00,0.52
6863.00,0.52
6862.00,0.52
6861.00,0.53
6860.00,0.53
6859.00,0.53
6858.00,0.53
6857.00,0.53
6856.00,0.53
6855.00,0.53
6854.00,0.53
6853.00,0.54
6852.00,0.54
6851.00,0.54
6850.00,0.54
6849.00,0.54
6848.00,0.54
6847.00,0.54
6846.00,0.54
6845.00,0.54
6844.00,0.54
6843.00,0.55
6842.00,0.55
6841.00,0.55
6840.00,0.55
6839.00,0.55
6838.00,0.55
6837.00,0.55
6836.00,0.55
6835.00,0.54
6834.00,0.54
6833.00,0.54
6832.00,0.54
6831.00,0.54
6830.00,0.54
6829.00,0.54
6828.00,0.54
6827.00,0.54
6826.00,0.54
6825.00,0.54
6824.00,0.54
6823.00,0.54
6822.00,0.54
6821.00,0.54
6820.00,0.54
6819.00,0.54
6818.00,0.54
6817.00,0.55
6816.00,0.55
6815.00,0.55
6814.00,0.55
6813.00,0.55
6812.00,0.55
6811.00,0.55
6810.00,0.55
6809.00,0.55
6808.00,0.55
6807.00,0.55
6806.00,0.55
6805.00,0.55
6804.00,0.55
6803.00,0.55
6802.00,0.55
6801.00,0.55
6800.00,0.55
6799.00,0.56
6798.00,0.56
6797.00,0.56
6796.00,0.56
6795.00,0.56
6794.00,0.56
6793.00,0.56
6792.00,0.56
6791.00,0.56
6790.00,0.56
6789.00,0.56
6788.00,0.56
6787.00,0.56
6786.00,0.56
6785.00,0.56
6784.00,0.56
6783.00,0.56
6782.00,0.56
6781.00,0.56
6780.00,0.57
6779.00,0.57
6778.00,0.57
6777.00,0.57
6776.00,0.57
6775.00,0.57
6774.00,0.57
6773.00,0.57
6772.00,0.57
6771.00,0.57
6770.00,0.57
6769.00,0.57
6768.00,0.57
6767.00,0.57
6766.00,0.57
6765.00,0.57
6764.00,0.57
6763.00,0.57
6762.00,0.57
6761.00,0.57
6760.00,0.57
6759.00,0.57
6758.00,0.57
6757.00,0.57
6756.00,0.57
6755.00,0.57
6754.00,0.57
6753.00,0.58
6752.00,0.58
6751.00,0.58
6750.00,0.58
6749.00,0.58
6748.00,0.58
6747.00,0.58
6746.00,0.58
6745.00,0.58
6744.00,0.58
6743.00,0.58
6742.00,0.58
6741.00,0.58
6740.00,0.58
6739.00,0.58
6738.00,0.58
6737.00,0.58
6736.00,0.58
6735.00,0.58
6734.00,0.58
6733.00,0.58
6732.00,0.58
6731.00,0.59
6730.00,0.59
6729.00,0.59
6728.00,0.59
6727.00,0.59
6726.00,0.59
6725.00,0.59
6724.00,0.59
6723.00,0.59
6722.00,0.59
6721.00,0.59
6720.00,0.59
6719.00,0.59
6718.00,0.59
6717.00,0.60
6716.00,0.60
6715.00,0.60
6714.00,0.60
6713.00,0.60
6712.00,0.60
6711.00,0.60
6710.00,0.60
6709.00,0.60
6708.00,0.60
6707.00,0.61
6706.00,0.61
6705.00,0.61
6704.00,0.61
6703.00,0.61
6702.00,0.61
6701.00,0.61
6700.00,0.61
6699.00,0.61
6698.00,0.61
6697.00,0.61
6696.00,0.61
6695.00,0.61
6694.00,0.62
6693.00,0.62
6692.00,0.62
6691.00,0.62
6690.00,0.62
6689.00,0.62
6688.00,0.62
6687.00,0.62
6686.00,0.62
6685.00,0.62
6684.00,0.63
6683.00,0.63
6682.00,0.63
6681.00,0.63
6680.00,0.63
6679.00,0.63
6678.00,0.63
6677.00,0.63
6676.00,0.63
6675.00,0.63
6674.00,0.63
6673.00,0.64
6672.00,0.64
6671.00,0.64
6670.00,0.64
6669.00,0.64
6668.00,0.64
6667.00,0.64
6666.00,0.64
6665.00,0.64
6664.00,0.64
6663.00,0.65
6662.00,0.65
6661.00,0.65
6660.00,0.65
6659.00,0.65
6658.00,0.65
6657.00,0.65
6656.00,0.65
6655.00,0.65
6654.00,0.65
6653.00,0.66
6652.00,0.66
6651.00,0.66
6650.00,0.66
6649.00,0.66
6648.00,0.66
6647.00,0.66
6646.00,0.66
6645.00,0.66
6644.00,0.66
6643.00,0.67
6642.00,0.67
6641.00,0.67
6640.00,0.67
6639.00,0.67
6638.00,0.67
6637.00,0.67
6636.00,0.67
6635.00,0.67
6634.00,0.67
6633.00,0.68
6632.00,0.68
6631.00,0.68
6630.00,0.68
6629.00,0.68
6628.00,0.68
6627.00,0.68
6626.00,0.68
6625.00,0.68
6624.00,0.68
6623.00,0.69
6622.00,0.69
6621.00,0.69
6620.00,0.69
6619.00,0.69
6618.00,0.69
6617.00,0.69
6616.00,0.69
6615.00,0.69
6614.00,0.69
6613.00,0.69
6612.00,0.69
6611.00,0.69
6610.00,0.69
6609.00,0.70
6608.00,0.70
6607.00,0.70
6606.00,0.70
6605.00,0.70
6604.00,0.70
6603.00,0.70
6602.00,0.70
6601.00,0.70
6600.00,0.70
6599.00,0.71
6598.00,0.71
6597.00,0.71
6596.00,0.71
6595.00,0.71
6594.00,0.71
6593.00,0.71
6592.00,0.71
6591.00,0.71
6590.00,0.72
6589.00,0.72
6588.00,0.72
6587.00,0.72
6586.00,0.72
6585.00,0.72
6584.00,0.72
6583.00,0.72
6582.00,0.72
6581.00,0.72
6580.00,0.73
6579.00,0.73
6578.00,0.73
6577.00,0.73
6576.00,0.73
6575.00,0.73
6574.00,0.73
6573.00,0.73
6572.00,0.73
6571.00,0.74
6570.00,0.74
6569.00,0.74
6568.00,0.74
6567.00,0.74
6566.00,0.74
6565.00,0.74
6564.00,0.74
6563.00,0.74
6562.00,0.75
6561.00,0.75
6560.00,0.75
6559.00,0.75
6558.00,0.75
6557.00,0.75
6556.00,0.75
6555.00,0.75
6554.00,0.75
6553.00,0.75
6552.00,0.75
6551.00,0.75
6550.00,0.75
6549.00,0.75
6548.00,0.75
6547.00,0.76
6546.00,0.76
6545.00,0.76
6544.00,0.76
6543.00,0.76
6542.00,0.76
6541.00,0.76
6540.00,0.76
6539.00,0.76
6538.00,0.76
6537.00,0.76
6536.00,0.76
6535.00,0.76
6534.00,0.77
6533.00,0.77
6532.00,0.77
6531.00,0.77
6530.00,0.77
6529.00,0.77
6528.00,0.77
6527.00,0.77
6526.00,0.77
6525.00,0.77
6524.00,0.77
6523.00,0.77
6522.00,0.78
6521.00,0.78
6520.00,0.78
6519.00,0.78
6518.00,0.78
6517.00,0.78
6516.00,0.78
6515.00,0.78
6514.00,0.78
6513.00,0.78
6512.00,0.78
6511.00,0.78
6510.00,0.78
6509.00,0.78
6508.00,0.78
6507.00,0.79
6506.00,0.79
6505.00,0.79
6504.00,0.79
6503.00,0.79
6502.00,0.79
6501.00,0.79
6500.00,0.79
6499.00,0.79
6498.00,0.79
6497.00,0.79
6496.00,0.79
6495.00,0.79
6494.00,0.79
6493.00,0.79
6492.00,0.80
6491.00,0.80
6490.00,0.80
6489.00,0.80
6488.00,0.80
6487.00,0.80
6486.00,0.80
6485.00,0.80
6484.00,0.80
6483.00,0.80
6482.00,0.80
6481.00,0.80
6480.00,0.80
6479.00,0.80
6478.00,0.80
6477.00,0.80
6476.00,0.80
6475.00,0.80
6474.00,0.81
6473.00,0.81
6472.00,0.81
6471.00,0.81
6470.00,0.81
6469.00,0.81
6468.00,0.81
6467.00,0.81
6466.00,0.81
6465.00,0.81
6464.00,0.81
6463.00,0.81
6462.00,0.81
6461.00,0.82
6460.00,0.82
6459.00,0.82
6458.00,0.82
6457.00,0.82
6456.00,0.82
6455.00,0.82
6454.00,0.82
6453.00,0.82
6452.00,0.82
6451.00,0.82
6450.00,0.82
6449.00,0.82
6448.00,0.82
6447.00,0.82
6446.00,0.82
6445.00,0.82
6444.00,0.82
6443.00,0.82
6442.00,0.83
6441.00,0.83
6440.00,0.83
6439.00,0.83
6438.00,0.83
6437.00,0.83
6436.00,0.83
6435.00,0.83
6434.00,0.83
6433.00,0.83
6432.00,0.83
6431.00,0.83
6430.00,0.83
6429.00,0.83
6428.00,0.83
6427.00,0.83
6426.00,0.83
6425.00,0.83
6424.00,0.83
6423.00,0.84
6422.00,0.84
6421.00,0.84
6420.00,0.84
6419.00,0.84
6418.00,0.84
6417.00,0.84
6416.00,0.84
6415.00,0.84
6414.00,0.84
6413.00,0.84
6412.00,0.84
6411.00,0.85
6410.00,0.85
6409.00,0.85
6408.00,0.85
6407.00,0.85
6406.00,0.85
6405.00,0.85
6404.00,0.85
6403.00,0.85
6402.00,0.85
6401.00,0.85
6400.00,0.85
6399.00,0.85
6398.00,0.85
6397.00,0.85
6396.00,0.85
6395.00,0.85
6394.00,0.85
6393.00,0.85
6392.00,0.85
6391.00,0.86
6390.00,0.86
6389.00,0.86
6388.00,0.86
6387.00,0.86
6386.00,0.86
6385.00,0.86
6384.00,0.86
6383.00,0.86
6382.00,0.86
6381.00,0.86
6380.00,0.86
6379.00,0.86
6378.00,0.86
6377.00,0.86
6376.00,0.86
6375.00,0.87
6374.00,0.87
6373.00,0.87
6372.00,0.87
6371.00,0.87
6370.00,0.87
6369.00,0.87
6368.00,0.87
6367.00,0.87
6366.00,0.87
6365.00,0.87
6364.00,0.87
6363.00,0.87
6362.00,0.87
6361.00,0.87
6360.00,0.88
6359.00,0.88
6358.00,0.88
6357.00,0.88
6356.00,0.88
6355.00,0.88
6354.00,0.88
6353.00,0.88
6352.00,0.88
6351.00,0.88
6350.00,0.88
6349.00,0.88
6348.00,0.88
6347.00,0.88
6346.00,0.89
6345.00,0.89
6344.00,0.89
6343.00,0.89
6342.00,0.89
6341.00,0.89
6340.00,0.89
6339.00,0.89
6338.00,0.89
6337.00,0.89
6336.00,0.89
6335.00,0.89
6334.00,0.89
6333.00,0.89
6332.00,0.90
6331.00,0.90
6330.00,0.90
6329.00,0.90
6328.00,0.90
6327.00,0.90
6326.00,0.90
6325.00,0.90
6324.00,0.91
6323.00,0.91
6322.00,0.91
6321.00,0.91
6320.00,0.91
6319.00,0.91
6318.00,0.91
6317.00,0.91
6316.00,0.91
6315.00,0.92
6314.00,0.92
6313.00,0.92
6312.00,0.92
6311.00,0.92
6310.00,0.92
6309.00,0.92
6308.00,0.92
6307.00,0.93
6306.00,0.93
6305.00,0.93
6304.00,0.93
6303.00,0.93
6302.00,0.93
6301.00,0.93
6300.00,0.93
6299.00,0.94
6298.00,0.94
6297.00,0.94
6296.00,0.94
6295.00,0.94
6294.00,0.94
6293.00,0.94
6292.00,0.94
6291.00,0.94
6290.00,0.95
6289.00,0.95
6288.00,0.95
6287.00,0.95
6286.00,0.95
6285.00,0.95
6284.00,0.95
6283.00,0.95
6282.00,0.95
6281.00,0.95
6280.00,0.95
6279.00,0.95
6278.00,0.95
6277.00,0.95
6276.00,0.95
6275.00,0.96
6274.00,0.96
6273.00,0.96
6272.00,0.96
6271.00,0.96
6270.00,0.96
6269.00,0.96
6268.00,0.96
6267.00,0.96
6266.00,0.96
6265.00,0.97
6264.00,0.97
6263.00,0.97
6262.00,0.97
6261.00,0.97
6260.00,0.97
6259.00,0.97
6258.00,0.98
6257.00,0.98
6256.00,0.98
6255.00,0.98
6254.00,0.98
6253.00,0.98
6252.00,0.98
6251.00,0.99
6250.00,0.99
6249.00,0.99
6248.00,0.99
6247.00,0.99
6246.00,0.99
6245.00,1.00
6244.00,1.00
6243.00,1.00
6242.00,1.00
6241.00,1.00
6240.00,1.00
6239.00,1.00
6238.00,1.01
6237.00,1.01
6236.00,1.01
6235.00,1.01
6234.00,1.01
6233.00,1.01
6232.00,1.01
6231.00,1.02
6230.00,1.02
6229.00,1.02
6228.00,1.02
6227.00,1.02
6226.00,1.02
6225.00,1.02
6224.00,1.02
6223.00,1.02
6222.00,1.02
6221.00,1.02
6220.00,1.03
6219.00,1.03
6218.00,1.03
6217.00,1.03
6216.00,1.03
6215.00,1.03
6214.00,1.03
6213.00,1.03
6212.00,1.03
6211.00,1.03
6210.00,1.04
6209.00,1.04
6208.00,1.04
6207.00,1.04
6206.00,1.04
6205.00,1.04
6204.00,1.04
6203.00,1.05
6202.00,1.05
6201.00,1.05
6200.00,1.05
6199.00,1.05
6198.00,1.05
6197.00,1.05
6196.00,1.06
6195.00,1.06
6194.00,1.06
6193.00,1.06
6192.00,1.06
6191.00,1.06
6190.00,1.07
6189.00,1.07
6188.00,1.07
6187.00,1.07
6186.00,1.07
6185.00,1.07
6184.00,1.07
6183.00,1.08
6182.00,1.08
6181.00,1.08
6180.00,1.08
6179.00,1.08
6178.00,1.08
6177.00,1.08
6176.00,1.08
6175.00,1.09
6174.00,1.09
6173.00,1.09
6172.00,1.09
6171.00,1.09
6170.00,1.09
6169.00,1.09
6168.00,1.10
6167.00,1.10
6166.00,1.10
6165.00,1.10
6164.00,1.10
6163.00,1.10
6162.00,1.11
6161.00,1.11
6160.00,1.11
6159.00,1.11
6158.00,1.11
6157.00,1.11
6156.00,1.11
6155.00,1.11
6154.00,1.11
6153.00,1.12
6152.00,1.12
6151.00,1.12
6150.00,1.12
6149.00,1.12
6148.00,1.12
6147.00,1.12
6146.00,1.12
6145.00,1.12
6144.00,1.13
6143.00,1.13
6142.00,1.13
6141.00,1.13
6140.00,1.13
6139.00,1.13
6138.00,1.14
6137.00,1.14
6136.00,1.14
6135.00,1.14
6134.00,1.14
6133.00,1.14
6132.00,1.15
6131.00,1.15
6130.00,1.15
6129.00,1.15
6128.00,1.15
6127.00,1.15
6126.00,1.15
6125.00,1.16
6124.00,1.16
6123.00,1.16
6122.00,1.16
6121.00,1.16
6120.00,1.16
6119.00,1.17
6118.00,1.17
6117.00,1.17
6116.00,1.17
6115.00,1.17
6114.00,1.17
6113.00,1.17
6112.00,1.18
6111.00,1.18
6110.00,1.18
6109.00,1.18
6108.00,1.18
6107.00,1.18
6106.00,1.18
6105.00,1.19
6104.00,1.19
6103.00,1.19
6102.00,1.19
6101.00,1.19
6100.00,1.19
6099.00,1.19
6098.00,1.19
6097.00,1.19
6096.00,1.20
6095.00,1.20
6094.00,1.20
6093.00,1.20
6092.00,1.20
6091.00,1.20
6090.00,1.20
6089.00,1.20
6088.00,1.20
6087.00,1.21
6086.00,1.21
6085.00,1.21
6084.00,1.21
6083.00,1.21
6082.00,1.21
6081.00,1.21
6080.00,1.22
6079.00,1.22
6078.00,1.22
6077.00,1.22
6076.00,1.22
6075.00,1.22
6074.00,1.22
6073.00,1.23
6072.00,1.23
6071.00,1.23
6070.00,1.23
6069.00,1.23
6068.00,1.23
6067.00,1.23
6066.00,1.23
6065.00,1.24
6064.00,1.24
6063.00,1.24
6062.00,1.24
6061.00,1.24
6060.00,1.24
6059.00,1.24
6058.00,1.25
6057.00,1.25
6056.00,1.25
6055.00,1.25
6054.00,1.25
6053.00,1.25
6052.00,1.25
6051.00,1.25
6050.00,1.25
6049.00,1.25
6048.00,1.25
6047.00,1.25
6046.00,1.26
6045.00,1.26
6044.00,1.26
6043.00,1.26
6042.00,1.26
6041.00,1.26
6040.00,1.26
6039.00,1.26
6038.00,1.26
6037.00,1.26
6036.00,1.26
6035.00,1.26
6034.00,1.26
6033.00,1.26
6032.00,1.26
6031.00,1.26
6030.00,1.26
6029.00,1.26
6028.00,1.26
6027.00,1.26
6026.00,1.26
6025.00,1.26
6024.00,1.26
6023.00,1.26
6022.00,1.26
6021.00,1.27
6020.00,1.27
6019.00,1.27
6018.00,1.27
6017.00,1.27
6016.00,1.27
6015.00,1.27
6014.00,1.27
6013.00,1.27
6012.00,1.27
6011.00,1.27
6010.00,1.27
6009.00,1.27
6008.00,1.27
6007.00,1.27
6006.00,1.27
6005.00,1.27
6004.00,1.27
6003.00,1.27
6002.00,1.27
6001.00,1.27
6000.00,1.27
5999.00,1.27
5998.00,1.27
5997.00,1.26
5996.00,1.26
5995.00,1.26
5994.00,1.26
5993.00,1.26
5992.00,1.26
5991.00,1.26
5990.00,1.26
5989.00,1.25
5988.00,1.25
5987.00,1.25
5986.00,1.25
5985.00,1.24
5984.00,1.24
5983.00,1.24
5982.00,1.23
5981.00,1.23
5980.00,1.22
5979.00,1.22
5978.00,1.22
5977.00,1.21
5976.00,1.21
5975.00,1.20
5974.00,1.20
5973.00,1.19
5972.00,1.19
5971.00,1.18
5970.00,1.18
5969.00,1.17
5968.00,1.16
5967.00,1.16
5966.00,1.15
5965.00,1.14
5964.00,1.14
5963.00,1.13
5962.00,1.12
5961.00,1.12
5960.00,1.11
5959.00,1.10
5958.00,1.10
5957.00,1.09
5956.00,1.08
5955.00,1.08
5954.00,1.07
5953.00,1.07
5952.00,1.06
5951.00,1.05
5950.00,1.05
5949.00,1.05
5948.00,1.04
5947.00,1.04
5946.00,1.03
5945.00,1.03
5944.00,1.03
5943.00,1.02
5942.00,1.02
5941.00,1.02
5940.00,1.02
5939.00,1.01
5938.00,1.01
5937.00,1.01
5936.00,1.01
5935.00,1.01
5934.00,1.01
5933.00,1.01
5932.00,1.01
5931.00,1.00
5930.00,1.00
5929.00,1.00
5928.00,1.00
5927.00,1.00
5926.00,1.00
5925.00,0.99
5924.00,0.99
5923.00,0.99
5922.00,0.99
5921.00,0.99
5920.00,0.98
5919.00,0.98
5918.00,0.98
5917.00,0.98
5916.00,0.97
5915.00,0.97
5914.00,0.97
5913.00,0.96
5912.00,0.96
5911.00,0.96
5910.00,0.96
5909.00,0.96
5908.00,0.95
5907.00,0.95
5906.00,0.95
5905.00,0.95
5904.00,0.95
5903.00,0.95
5902.00,0.95
5901.00,0.95
5900.00,0.95
5899.00,0.95
5898.00,0.95
5897.00,0.95
5896.00,0.95
5895.00,0.95
5894.00,0.95
5893.00,0.95
5892.00,0.96
5891.00,0.96
5890.00,0.96
5889.00,0.96
5888.00,0.97
5887.00,0.97
5886.00,0.97
5885.00,0.98
5884.00,0.98
5883.00,0.98
5882.00,0.98
5881.00,0.99
5880.00,0.99
5879.00,0.99
5878.00,0.99
5877.00,1.00
5876.00,1.00
5875.00,1.00
5874.00,1.00
5873.00,1.01
5872.00,1.01
5871.00,1.01
5870.00,1.01
5869.00,1.01
5868.00,1.02
5867.00,1.02
5866.00,1.02
5865.00,1.02
5864.00,1.02
5863.00,1.02
5862.00,1.03
5861.00,1.03
5860.00,1.03
5859.00,1.03
5858.00,1.03
5857.00,1.03
5856.00,1.03
5855.00,1.03
5854.00,1.03
5853.00,1.04
5852.00,1.04
5851.00,1.04
5850.00,1.04
5849.00,1.04
5848.00,1.04
5847.00,1.04
5846.00,1.04
5845.00,1.04
5844.00,1.04
5843.00,1.04
5842.00,1.04
5841.00,1.04
5840.00,1.04
5839.00,1.04
5838.00,1.04
5837.00,1.04
5836.00,1.04
5835.00,1.04
5834.00,1.04
5833.00,1.04
5832.00,1.04
5831.00,1.04
5830.00,1.04
5829.00,1.04
5828.00,1.04
5827.00,1.04
5826.00,1.04
5825.00,1.04
5824.00,1.04
5823.00,1.04
5822.00,1.04
5821.00,1.04
5820.00,1.04
5819.00,1.04
5818.00,1.04
5817.00,1.04
5816.00,1.04
5815.00,1.04
5814.00,1.04
5813.00,1.04
5812.00,1.04
5811.00,1.04
5810.00,1.04
5809.00,1.04
5808.00,1.04
5807.00,1.04
5806.00,1.04
5805.00,1.04
5804.00,1.04
5803.00,1.04
5802.00,1.04
5801.00,1.03
5800.00,1.03
5799.00,1.03
5798.00,1.03
5797.00,1.03
5796.00,1.03
5795.00,1.03
5794.00,1.02
5793.00,1.02
5792.00,1.02
5791.00,1.02
5790.00,1.02
5789.00,1.01
5788.00,1.01
5787.00,1.01
5786.00,1.01
5785.00,1.01
5784.00,1.00
5783.00,1.00
5782.00,1.00
5781.00,1.00
5780.00,1.00
5779.00,1.00
5778.00,0.99
5777.00,0.99
5776.00,0.99
5775.00,0.99
5774.00,0.99
5773.00,0.99
5772.00,0.99
5771.00,0.99
5770.00,0.99
5769.00,0.99
5768.00,0.99
5767.00,0.99
5766.00,1.00
5765.00,1.00
5764.00,1.00
5763.00,1.00
5762.00,1.00
5761.00,1.01
5760.00,1.01
5759.00,1.01
5758.00,1.01
5757.00,1.02
5756.00,1.02
5755.00,1.02
5754.00,1.03
5753.00,1.03
5752.00,1.03
5751.00,1.04
5750.00,1.04
5749.00,1.04
5748.00,1.05
5747.00,1.05
5746.00,1.06
5745.00,1.06
5744.00,1.06
5743.00,1.07
5742.00,1.07
5741.00,1.07
5740.00,1.08
5739.00,1.08
5738.00,1.08
5737.00,1.08
5736.00,1.09
5735.00,1.09
5734.00,1.09
5733.00,1.09
5732.00,1.09
5731.00,1.10
5730.00,1.10
5729.00,1.10
5728.00,1.10
5727.00,1.10
5726.00,1.10
5725.00,1.10
5724.00,1.10
5723.00,1.10
5722.00,1.10
5721.00,1.10
5720.00,1.10
5719.00,1.10
5718.00,1.10
5717.00,1.10
5716.00,1.10
5715.00,1.10
5714.00,1.10
5713.00,1.10
5712.00,1.10
5711.00,1.10
5710.00,1.10
5709.00,1.10
5708.00,1.10
5707.00,1.10
5706.00,1.10
5705.00,1.10
5704.00,1.10
5703.00,1.09
5702.00,1.09
5701.00,1.09
5700.00,1.09
5699.00,1.09
5698.00,1.09
5697.00,1.09
5696.00,1.09
5695.00,1.09
5694.00,1.09
5693.00,1.08
5692.00,1.08
5691.00,1.08
5690.00,1.08
5689.00,1.08
5688.00,1.08
5687.00,1.08
5686.00,1.07
5685.00,1.07
5684.00,1.07
5683.00,1.07
5682.00,1.07
5681.00,1.07
5680.00,1.07
5679.00,1.07
5678.00,1.07
5677.00,1.06
5676.00,1.06
5675.00,1.06
5674.00,1.06
5673.00,1.06
5672.00,1.06
5671.00,1.07
5670.00,1.07
5669.00,1.07
5668.00,1.07
5667.00,1.07
5666.00,1.07
5665.00,1.07
5664.00,1.07
5663.00,1.07
5662.00,1.07
5661.00,1.08
5660.00,1.08
5659.00,1.08
5658.00,1.08
5657.00,1.08
5656.00,1.08
5655.00,1.09
5654.00,1.09
5653.00,1.09
5652.00,1.09
5651.00,1.09
5650.00,1.09
5649.00,1.10
5648.00,1.10
5647.00,1.10
5646.00,1.10
5645.00,1.10
5644.00,1.11
5643.00,1.11
5642.00,1.11
5641.00,1.11
5640.00,1.12
5639.00,1.12
5638.00,1.12
5637.00,1.12
5636.00,1.12
5635.00,1.12
5634.00,1.13
5633.00,1.13
5632.00,1.13
5631.00,1.13
5630.00,1.13
5629.00,1.14
5628.00,1.14
5627.00,1.14
5626.00,1.14
5625.00,1.14
5624.00,1.14
5623.00,1.15
5622.00,1.15
5621.00,1.15
5620.00,1.15
5619.00,1.15
5618.00,1.15
5617.00,1.15
5616.00,1.16
5615.00,1.16
5614.00,1.16
5613.00,1.16
5612.00,1.16
5611.00,1.16
5610.00,1.17
5609.00,1.17
5608.00,1.17
5607.00,1.17
5606.00,1.17
5605.00,1.17
5604.00,1.18
5603.00,1.18
5602.00,1.18
5601.00,1.18
5600.00,1.18
5599.00,1.18
5598.00,1.19
5597.00,1.19
5596.00,1.19
5595.00,1.19
5594.00,1.19
5593.00,1.20
5592.00,1.20
5591.00,1.20
5590.00,1.20
5589.00,1.20
5588.00,1.20
5587.00,1.20
5586.00,1.21
5585.00,1.21
5584.00,1.21
5583.00,1.21
5582.00,1.21
5581.00,1.21
5580.00,1.21
5579.00,1.21
5578.00,1.22
5577.00,1.22
5576.00,1.22
5575.00,1.22
5574.00,1.22
5573.00,1.22
5572.00,1.22
5571.00,1.22
5570.00,1.22
5569.00,1.23
5568.00,1.23
5567.00,1.23
5566.00,1.23
5565.00,1.23
5564.00,1.23
5563.00,1.23
5562.00,1.24
5561.00,1.24
5560.00,1.24
5559.00,1.24
5558.00,1.24
5557.00,1.24
5556.00,1.25
5555.00,1.25
5554.00,1.25
5553.00,1.25
5552.00,1.25
5551.00,1.25
5550.00,1.26
5549.00,1.26
5548.00,1.26
5547.00,1.26
5546.00,1.26
5545.00,1.26
5544.00,1.26
5543.00,1.27
5542.00,1.27
5541.00,1.27
5540.00,1.27
5539.00,1.27
5538.00,1.27
5537.00,1.27
5536.00,1.27
5535.00,1.27
5534.00,1.28
5533.00,1.28
5532.00,1.28
5531.00,1.28
5530.00,1.28
5529.00,1.28
5528.00,1.28
5527.00,1.28
5526.00,1.28
5525.00,1.28
5524.00,1.28
5523.00,1.28
5522.00,1.28
5521.00,1.28
5520.00,1.28
5519.00,1.28
5518.00,1.28
5517.00,1.29
5516.00,1.29
5515.00,1.29
5514.00,1.29
5513.00,1.29
5512.00,1.29
5511.00,1.29
5510.00,1.29
5509.00,1.29
5508.00,1.29
5507.00,1.29
5506.00,1.29
5505.00,1.29
5504.00,1.29
5503.00,1.29
5502.00,1.30
5501.00,1.30
5500.00,1.30
5499.00,1.30
5498.00,1.30
5497.00,1.30
5496.00,1.30
5495.00,1.30
5494.00,1.30
5493.00,1.30
5492.00,1.30
5491.00,1.31
5490.00,1.31
5489.00,1.31
5488.00,1.31
5487.00,1.31
5486.00,1.31
5485.00,1.31
5484.00,1.31
5483.00,1.32
5482.00,1.32
5481.00,1.32
5480.00,1.32
5479.00,1.32
5478.00,1.32
5477.00,1.32
5476.00,1.32
5475.00,1.33
5474.00,1.33
5473.00,1.33
5472.00,1.33
5471.00,1.33
5470.00,1.33
5469.00,1.33
5468.00,1.33
5467.00,1.33
5466.00,1.33
5465.00,1.34
5464.00,1.34
5463.00,1.34
5462.00,1.34
5461.00,1.34
5460.00,1.34
5459.00,1.34
5458.00,1.34
5457.00,1.34
5456.00,1.34
5455.00,1.34
5454.00,1.35
5453.00,1.35
5452.00,1.35
5451.00,1.35
5450.00,1.35
5449.00,1.35
5448.00,1.35
5447.00,1.35
5446.00,1.35
5445.00,1.35
5444.00,1.35
5443.00,1.35
5442.00,1.34
5441.00,1.34
5440.00,1.34
5439.00,1.34
5438.00,1.34
5437.00,1.34
5436.00,1.34
5435.00,1.35
5434.00,1.35
5433.00,1.35
5432.00,1.35
5431.00,1.35
5430.00,1.35
5429.00,1.35
5428.00,1.35
5427.00,1.35
5426.00,1.35
5425.00,1.35
5424.00,1.35
5423.00,1.35
5422.00,1.35
5421.00,1.35
5420.00,1.35
5419.00,1.35
5418.00,1.35
5417.00,1.35
5416.00,1.35
5415.00,1.35
5414.00,1.35
5413.00,1.35
5412.00,1.35
5411.00,1.35
5410.00,1.35
5409.00,1.35
5408.00,1.35
5407.00,1.35
5406.00,1.35
5405.00,1.35
5404.00,1.35
5403.00,1.35
5402.00,1.35
5401.00,1.35
5400.00,1.35
5399.00,1.35
5398.00,1.35
5397.00,1.35
5396.00,1.35
5395.00,1.35
5394.00,1.35
5393.00,1.35
5392.00,1.35
5391.00,1.34
5390.00,1.34
5389.00,1.34
5388.00,1.34
5387.00,1.34
5386.00,1.34
5385.00,1.34
5384.00,1.33
5383.00,1.33
5382.00,1.33
5381.00,1.33
5380.00,1.32
5379.00,1.32
5378.00,1.32
5377.00,1.32
5376.00,1.31
5375.00,1.31
5374.00,1.30
5373.00,1.30
5372.00,1.30
5371.00,1.29
5370.00,1.29
5369.00,1.29
5368.00,1.28
5367.00,1.28
5366.00,1.27
5365.00,1.27
5364.00,1.26
5363.00,1.26
5362.00,1.25
5361.00,1.24
5360.00,1.24
5359.00,1.23
5358.00,1.22
5357.00,1.22
5356.00,1.21
5355.00,1.20
5354.00,1.20
5353.00,1.19
5352.00,1.18
5351.00,1.17
5350.00,1.16
5349.00,1.15
5348.00,1.14
5347.00,1.13
5346.00,1.12
5345.00,1.11
5344.00,1.10
5343.00,1.09
5342.00,1.08
5341.00,1.07
5340.00,1.06
5339.00,1.05
5338.00,1.04
5337.00,1.03
5336.00,1.02
5335.00,1.01
5334.00,1.00
5333.00,0.99
5332.00,0.98
5331.00,0.97
5330.00,0.96
5329.00,0.95
5328.00,0.94
5327.00,0.93
5326.00,0.92
5325.00,0.91
5324.00,0.90
5323.00,0.89
5322.00,0.88
5321.00,0.87
5320.00,0.86
5319.00,0.85
5318.00,0.84
5317.00,0.83
5316.00,0.82
5315.00,0.81
5314.00,0.80
5313.00,0.79
5312.00,0.78
5311.00,0.77
5310.00,0.76
5309.00,0.75
5308.00,0.74
5307.00,0.74
5306.00,0.73
5305.00,0.72
5304.00,0.71
5303.00,0.71
5302.00,0.70
5301.00,0.69
5300.00,0.69
5299.00,0.68
5298.00,0.68
5297.00,0.67
5296.00,0.67
5295.00,0.66
5294.00,0.66
5293.00,0.65
5292.00,0.65
5291.00,0.64
5290.00,0.64
5289.00,0.64
5288.00,0.63
5287.00,0.63
5286.00,0.63
5285.00,0.62
5284.00,0.62
5283.00,0.62
5282.00,0.62
5281.00,0.61
5280.00,0.61
5279.00,0.61
5278.00,0.61
5277.00,0.61
5276.00,0.60
5275.00,0.60
5274.00,0.60
5273.00,0.60
5272.00,0.60
5271.00,0.60
5270.00,0.60
5269.00,0.59
5268.00,0.59
5267.00,0.59
5266.00,0.59
5265.00,0.59
5264.00,0.59
5263.00,0.59
5262.00,0.59
5261.00,0.59
5260.00,0.58
5259.00,0.58
5258.00,0.58
5257.00,0.58
5256.00,0.58
5255.00,0.58
5254.00,0.58
5253.00,0.58
5252.00,0.58
5251.00,0.58
5250.00,0.58
5249.00,0.58
5248.00,0.58
5247.00,0.58
5246.00,0.58
5245.00,0.58
5244.00,0.58
5243.00,0.58
5242.00,0.58
5241.00,0.58
5240.00,0.58
5239.00,0.58
5238.00,0.58
5237.00,0.58
5236.00,0.58
5235.00,0.58
5234.00,0.58
5233.00,0.58
5232.00,0.58
5231.00,0.58
5230.00,0.59
5229.00,0.59
5228.00,0.59
5227.00,0.59
5226.00,0.59
5225.00,0.59
5224.00,0.59
5223.00,0.59
5222.00,0.59
5221.00,0.59
5220.00,0.59
5219.00,0.59
5218.00,0.59
5217.00,0.59
5216.00,0.59
5215.00,0.59
5214.00,0.59
5213.00,0.59
5212.00,0.59
5211.00,0.59
5210.00,0.59
5209.00,0.59
5208.00,0.59
5207.00,0.59
5206.00,0.59
5205.00,0.59
5204.00,0.59
5203.00,0.59
5202.00,0.59
5201.00,0.59
5200.00,0.59
5199.00,0.59
5198.00,0.59
5197.00,0.59
5196.00,0.59
5195.00,0.59
5194.00,0.59
5193.00,0.59
5192.00,0.59
5191.00,0.59
5190.00,0.59
5189.00,0.59
5188.00,0.60
5187.00,0.60
5186.00,0.60
5185.00,0.60
5184.00,0.60
5183.00,0.60
5182.00,0.60
5181.00,0.60
5180.00,0.60
5179.00,0.60
5178.00,0.60
5177.00,0.60
5176.00,0.60
5175.00,0.60
5174.00,0.60
5173.00,0.60
5172.00,0.60
5171.00,0.60
5170.00,0.60
5169.00,0.60
5168.00,0.60
5167.00,0.60
5166.00,0.60
5165.00,0.60
5164.00,0.60
5163.00,0.60
5162.00,0.61
5161.00,0.61
5160.00,0.61
5159.00,0.61
5158.00,0.61
5157.00,0.61
5156.00,0.61
5155.00,0.61
5154.00,0.61
5153.00,0.61
5152.00,0.61
5151.00,0.61
5150.00,0.61
5149.00,0.61
5148.00,0.61
5147.00,0.61
5146.00,0.61
5145.00,0.62
5144.00,0.62
5143.00,0.62
5142.00,0.62
5141.00,0.62
5140.00,0.62
5139.00,0.62
5138.00,0.62
5137.00,0.62
5136.00,0.62
5135.00,0.62
5134.00,0.62
5133.00,0.62
5132.00,0.62
5131.00,0.62
5130.00,0.62
5129.00,0.62
5128.00,0.62
5127.00,0.62
5126.00,0.62
5125.00,0.62
5124.00,0.63
5123.00,0.63
5122.00,0.63
5121.00,0.63
5120.00,0.63
5119.00,0.63
5118.00,0.63
5117.00,0.63
5116.00,0.63
5115.00,0.63
5114.00,0.63
5113.00,0.63
5112.00,0.63
5111.00,0.63
5110.00,0.63
5109.00,0.64
5108.00,0.64
5107.00,0.64
5106.00,0.64
5105.00,0.64
5104.00,0.64
5103.00,0.64
5102.00,0.64
5101.00,0.64
5100.00,0.64
5099.00,0.64
5098.00,0.64
5097.00,0.64
5096.00,0.64
5095.00,0.64
5094.00,0.64
5093.00,0.64
5092.00,0.64
5091.00,0.65
5090.00,0.65
5089.00,0.65
5088.00,0.65
5087.00,0.65
5086.00,0.65
5085.00,0.65
5084.00,0.65
5083.00,0.65
5082.00,0.65
5081.00,0.65
5080.00,0.65
5079.00,0.65
5078.00,0.65
5077.00,0.66
5076.00,0.66
5075.00,0.66
5074.00,0.66
5073.00,0.66
5072.00,0.66
5071.00,0.66
5070.00,0.66
5069.00,0.66
5068.00,0.66
5067.00,0.66
5066.00,0.66
5065.00,0.66
5064.00,0.66
5063.00,0.66
5062.00,0.66
5061.00,0.66
5060.00,0.67
5059.00,0.67
5058.00,0.67
5057.00,0.67
5056.00,0.67
5055.00,0.67
5054.00,0.67
5053.00,0.67
5052.00,0.67
5051.00,0.67
5050.00,0.67
5049.00,0.67
5048.00,0.68
5047.00,0.68
5046.00,0.68
5045.00,0.68
5044.00,0.68
5043.00,0.68
5042.00,0.68
5041.00,0.68
5040.00,0.68
5039.00,0.69
5038.00,0.69
5037.00,0.69
5036.00,0.69
5035.00,0.69
5034.00,0.69
5033.00,0.69
5032.00,0.69
5031.00,0.69
5030.00,0.69
5029.00,0.70
5028.00,0.70
5027.00,0.70
5026.00,0.70
5025.00,0.70
5024.00,0.70
5023.00,0.70
5022.00,0.70
5021.00,0.70
5020.00,0.71
5019.00,0.71
5018.00,0.71
5017.00,0.71
5016.00,0.71
5015.00,0.71
5014.00,0.71
5013.00,0.71
5012.00,0.71
5011.00,0.71
5010.00,0.72
5009.00,0.72
5008.00,0.72
5007.00,0.72
5006.00,0.72
5005.00,0.72
5004.00,0.72
5003.00,0.72
5002.00,0.72
5001.00,0.72
5000.00,0.72
4999.00,0.73
4998.00,0.73
4997.00,0.73
4996.00,0.73
4995.00,0.73
4994.00,0.73
4993.00,0.73
4992.00,0.73
4991.00,0.73
4990.00,0.73
4989.00,0.73
4988.00,0.73
4987.00,0.74
4986.00,0.74
4985.00,0.74
4984.00,0.74
4983.00,0.74
4982.00,0.74
4981.00,0.74
4980.00,0.74
4979.00,0.74
4978.00,0.74
4977.00,0.74
4976.00,0.74
4975.00,0.75
4974.00,0.75
4973.00,0.75
4972.00,0.75
4971.00,0.75
4970.00,0.75
4969.00,0.75
4968.00,0.75
4967.00,0.75
4966.00,0.75
4965.00,0.75
4964.00,0.75
4963.00,0.76
4962.00,0.76
4961.00,0.76
4960.00,0.76
4959.00,0.76
4958.00,0.76
4957.00,0.76
4956.00,0.77
4955.00,0.77
4954.00,0.77
4953.00,0.77
4952.00,0.77
4951.00,0.77
4950.00,0.77
4949.00,0.77
4948.00,0.78
4947.00,0.78
4946.00,0.78
4945.00,0.78
4944.00,0.78
4943.00,0.78
4942.00,0.78
4941.00,0.78
4940.00,0.78
4939.00,0.78
4938.00,0.78
4937.00,0.78
4936.00,0.78
4935.00,0.78
4934.00,0.79
4933.00,0.79
4932.00,0.79
4931.00,0.79
4930.00,0.79
4929.00,0.79
4928.00,0.79
4927.00,0.79
4926.00,0.79
4925.00,0.79
4924.00,0.79
4923.00,0.79
4922.00,0.79
4921.00,0.79
4920.00,0.79
4919.00,0.79
4918.00,0.80
4917.00,0.80
4916.00,0.80
4915.00,0.80
4914.00,0.80
4913.00,0.80
4912.00,0.80
4911.00,0.80
4910.00,0.80
4909.00,0.80
4908.00,0.80
4907.00,0.81
4906.00,0.81
4905.00,0.81
4904.00,0.81
4903.00,0.81
4902.00,0.81
4901.00,0.81
4900.00,0.81
4899.00,0.81
4898.00,0.81
4897.00,0.82
4896.00,0.82
4895.00,0.82
4894.00,0.82
4893.00,0.82
4892.00,0.82
4891.00,0.82
4890.00,0.82
4889.00,0.82
4888.00,0.82
4887.00,0.82
4886.00,0.82
4885.00,0.82
4884.00,0.82
4883.00,0.82
4882.00,0.82
4881.00,0.82
4880.00,0.83
4879.00,0.83
4878.00,0.83
4877.00,0.83
4876.00,0.83
4875.00,0.83
4874.00,0.83
4873.00,0.83
4872.00,0.83
4871.00,0.83
4870.00,0.84
4869.00,0.84
4868.00,0.84
4867.00,0.84
4866.00,0.84
4865.00,0.84
4864.00,0.84
4863.00,0.84
4862.00,0.84
4861.00,0.84
4860.00,0.84
4859.00,0.84
4858.00,0.84
4857.00,0.84
4856.00,0.84
4855.00,0.84
4854.00,0.84
4853.00,0.84
4852.00,0.84
4851.00,0.84
4850.00,0.84
4849.00,0.84
4848.00,0.84
4847.00,0.84
4846.00,0.84
4845.00,0.84
4844.00,0.85
4843.00,0.85
4842.00,0.85
4841.00,0.85
4840.00,0.85
4839.00,0.85
4838.00,0.85
4837.00,0.85
4836.00,0.85
4835.00,0.85
4834.00,0.85
4833.00,0.85
4832.00,0.85
4831.00,0.85
4830.00,0.85
4829.00,0.85
4828.00,0.86
4827.00,0.86
4826.00,0.86
4825.00,0.86
4824.00,0.86
4823.00,0.86
4822.00,0.86
4821.00,0.87
4820.00,0.87
4819.00,0.87
4818.00,0.87
4817.00,0.87
4816.00,0.88
4815.00,0.88
4814.00,0.88
4813.00,0.88
4812.00,0.88
4811.00,0.88
4810.00,0.88
4809.00,0.89
4808.00,0.89
4807.00,0.89
4806.00,0.89
4805.00,0.89
4804.00,0.89
4803.00,0.89
4802.00,0.89
4801.00,0.89
4800.00,0.89
4799.00,0.89
4798.00,0.89
4797.00,0.89
4796.00,0.89
4795.00,0.90
4794.00,0.90
4793.00,0.90
4792.00,0.90
4791.00,0.90
4790.00,0.90
4789.00,0.90
4788.00,0.91
4787.00,0.91
4786.00,0.91
4785.00,0.91
4784.00,0.91
4783.00,0.91
4782.00,0.92
4781.00,0.92
4780.00,0.92
4779.00,0.92
4778.00,0.92
4777.00,0.92
4776.00,0.92
4775.00,0.92
4774.00,0.92
4773.00,0.93
4772.00,0.93
4771.00,0.93
4770.00,0.93
4769.00,0.93
4768.00,0.93
4767.00,0.94
4766.00,0.94
4765.00,0.94
4764.00,0.94
4763.00,0.94
4762.00,0.95
4761.00,0.95
4760.00,0.95
4759.00,0.95
4758.00,0.95
4757.00,0.96
4756.00,0.96
4755.00,0.96
4754.00,0.96
4753.00,0.96
4752.00,0.96
4751.00,0.96
4750.00,0.97
4749.00,0.97
4748.00,0.97
4747.00,0.97
4746.00,0.97
4745.00,0.97
4744.00,0.97
4743.00,0.97
4742.00,0.97
4741.00,0.98
4740.00,0.98
4739.00,0.98
4738.00,0.98
4737.00,0.98
4736.00,0.98
4735.00,0.99
4734.00,0.99
4733.00,0.99
4732.00,0.99
4731.00,0.99
4730.00,1.00
4729.00,1.00
4728.00,1.00
4727.00,1.00
4726.00,1.00
4725.00,1.01
4724.00,1.01
4723.00,1.01
4722.00,1.01
4721.00,1.01
4720.00,1.01
4719.00,1.02
4718.00,1.02
4717.00,1.02
4716.00,1.02
4715.00,1.02
4714.00,1.02
4713.00,1.03
4712.00,1.03
4711.00,1.03
4710.00,1.03
4709.00,1.03
4708.00,1.03
4707.00,1.04
4706.00,1.04
4705.00,1.04
4704.00,1.04
4703.00,1.04
4702.00,1.04
4701.00,1.04
4700.00,1.05
4699.00,1.05
4698.00,1.05
4697.00,1.05
4696.00,1.05
4695.00,1.05
4694.00,1.05
4693.00,1.06
4692.00,1.06
4691.00,1.06
4690.00,1.06
4689.00,1.06
4688.00,1.06
4687.00,1.07
4686.00,1.07
4685.00,1.07
4684.00,1.07
4683.00,1.07
4682.00,1.08
4681.00,1.08
4680.00,1.08
4679.00,1.08
4678.00,1.09
4677.00,1.09
4676.00,1.09
4675.00,1.09
4674.00,1.10
4673.00,1.10
4672.00,1.10
4671.00,1.10
4670.00,1.10
4669.00,1.11
4668.00,1.11
4667.00,1.11
4666.00,1.11
4665.00,1.11
4664.00,1.11
4663.00,1.12
4662.00,1.12
4661.00,1.12
4660.00,1.12
4659.00,1.12
4658.00,1.12
4657.00,1.12
4656.00,1.13
4655.00,1.13
4654.00,1.13
4653.00,1.13
4652.00,1.13
4651.00,1.13
4650.00,1.13
4649.00,1.14
4648.00,1.14
4647.00,1.14
4646.00,1.14
4645.00,1.14
4644.00,1.14
4643.00,1.14
4642.00,1.14
4641.00,1.14
4640.00,1.15
4639.00,1.15
4638.00,1.15
4637.00,1.15
4636.00,1.15
4635.00,1.15
4634.00,1.15
4633.00,1.16
4632.00,1.16
4631.00,1.16
4630.00,1.16
4629.00,1.16
4628.00,1.16
4627.00,1.17
4626.00,1.17
4625.00,1.17
4624.00,1.17
4623.00,1.17
4622.00,1.17
4621.00,1.17
4620.00,1.18
4619.00,1.18
4618.00,1.18
4617.00,1.18
4616.00,1.18
4615.00,1.18
4614.00,1.18
4613.00,1.18
4612.00,1.18
4611.00,1.19
4610.00,1.19
4609.00,1.19
4608.00,1.19
4607.00,1.19
4606.00,1.19
4605.00,1.19
4604.00,1.19
4603.00,1.19
4602.00,1.20
4601.00,1.20
4600.00,1.20
4599.00,1.20
4598.00,1.20
4597.00,1.20
4596.00,1.20
4595.00,1.20
4594.00,1.21
4593.00,1.21
4592.00,1.21
4591.00,1.21
4590.00,1.21
4589.00,1.21
4588.00,1.21
4587.00,1.22
4586.00,1.22
4585.00,1.22
4584.00,1.22
4583.00,1.22
4582.00,1.22
4581.00,1.22
4580.00,1.23
4579.00,1.23
4578.00,1.23
4577.00,1.23
4576.00,1.23
4575.00,1.23
4574.00,1.24
4573.00,1.24
4572.00,1.24
4571.00,1.24
4570.00,1.24
4569.00,1.24
4568.00,1.24
4567.00,1.25
4566.00,1.25
4565.00,1.25
4564.00,1.25
4563.00,1.25
4562.00,1.25
4561.00,1.25
4560.00,1.25
4559.00,1.25
4558.00,1.25
4557.00,1.26
4556.00,1.26
4555.00,1.26
4554.00,1.26
4553.00,1.26
4552.00,1.26
4551.00,1.26
4550.00,1.26
4549.00,1.26
4548.00,1.26
4547.00,1.26
4546.00,1.26
4545.00,1.27
4544.00,1.27
4543.00,1.27
4542.00,1.27
4541.00,1.27
4540.00,1.27
4539.00,1.27
4538.00,1.27
4537.00,1.27
4536.00,1.27
4535.00,1.27
4534.00,1.27
4533.00,1.27
4532.00,1.27
4531.00,1.27
4530.00,1.27
4529.00,1.27
4528.00,1.28
4527.00,1.28
4526.00,1.28
4525.00,1.28
4524.00,1.28
4523.00,1.28
4522.00,1.28
4521.00,1.28
4520.00,1.28
4519.00,1.28
4518.00,1.28
4517.00,1.28
4516.00,1.28
4515.00,1.28
4514.00,1.28
4513.00,1.28
4512.00,1.28
4511.00,1.28
4510.00,1.28
4509.00,1.28
4508.00,1.28
4507.00,1.28
4506.00,1.28
4505.00,1.28
4504.00,1.28
4503.00,1.28
4502.00,1.28
4501.00,1.28
4500.00,1.28
4499.00,1.28
4498.00,1.28
4497.00,1.28
4496.00,1.28
4495.00,1.28
4494.00,1.28
4493.00,1.28
4492.00,1.28
4491.00,1.28
4490.00,1.28
4489.00,1.28
4488.00,1.28
4487.00,1.27
4486.00,1.27
4485.00,1.27
4484.00,1.27
4483.00,1.27
4482.00,1.27
4481.00,1.26
4480.00,1.26
4479.00,1.26
4478.00,1.26
4477.00,1.26
4476.00,1.25
4475.00,1.25
4474.00,1.25
4473.00,1.25
4472.00,1.25
4471.00,1.24
4470.00,1.24
4469.00,1.24
4468.00,1.24
4467.00,1.23
4466.00,1.23
4465.00,1.23
4464.00,1.22
4463.00,1.22
4462.00,1.22
4461.00,1.21
4460.00,1.21
4459.00,1.21
4458.00,1.20
4457.00,1.20
4456.00,1.19
4455.00,1.19
4454.00,1.18
4453.00,1.18
4452.00,1.17
4451.00,1.17
4450.00,1.16
4449.00,1.16
4448.00,1.15
4447.00,1.15
4446.00,1.14
4445.00,1.14
4444.00,1.13
4443.00,1.13
4442.00,1.12
4441.00,1.12
4440.00,1.11
4439.00,1.11
4438.00,1.10
4437.00,1.09
4436.00,1.09
4435.00,1.09
4434.00,1.08
4433.00,1.08
4432.00,1.07
4431.00,1.07
4430.00,1.06
4429.00,1.06
4428.00,1.06
4427.00,1.06
4426.00,1.05
4425.00,1.05
4424.00,1.05
4423.00,1.05
4422.00,1.05
4421.00,1.05
4420.00,1.05
4419.00,1.04
4418.00,1.04
4417.00,1.04
4416.00,1.04
4415.00,1.04
4414.00,1.04
4413.00,1.05
4412.00,1.05
4411.00,1.05
4410.00,1.05
4409.00,1.05
4408.00,1.05
4407.00,1.05
4406.00,1.05
4405.00,1.05
4404.00,1.05
4403.00,1.05
4402.00,1.05
4401.00,1.05
4400.00,1.05
4399.00,1.05
4398.00,1.06
4397.00,1.06
4396.00,1.06
4395.00,1.06
4394.00,1.06
4393.00,1.06
4392.00,1.07
4391.00,1.07
4390.00,1.07
4389.00,1.07
4388.00,1.07
4387.00,1.07
4386.00,1.08
4385.00,1.08
4384.00,1.08
4383.00,1.08
4382.00,1.08
4381.00,1.08
4380.00,1.08
4379.00,1.08
4378.00,1.08
4377.00,1.09
4376.00,1.09
4375.00,1.09
4374.00,1.09
4373.00,1.09
4372.00,1.09
4371.00,1.09
4370.00,1.09
4369.00,1.09
4368.00,1.09
4367.00,1.08
4366.00,1.08
4365.00,1.08
4364.00,1.08
4363.00,1.08
4362.00,1.08
4361.00,1.08
4360.00,1.08
4359.00,1.08
4358.00,1.08
4357.00,1.08
4356.00,1.08
4355.00,1.08
4354.00,1.08
4353.00,1.08
4352.00,1.08
4351.00,1.08
4350.00,1.08
4349.00,1.08
4348.00,1.08
4347.00,1.08
4346.00,1.08
4345.00,1.08
4344.00,1.08
4343.00,1.08
4342.00,1.08
4341.00,1.08
4340.00,1.09
4339.00,1.09
4338.00,1.09
4337.00,1.09
4336.00,1.09
4335.00,1.09
4334.00,1.09
4333.00,1.09
4332.00,1.09
4331.00,1.09
4330.00,1.10
4329.00,1.10
4328.00,1.10
4327.00,1.10
4326.00,1.10
4325.00,1.10
4324.00,1.11
4323.00,1.11
4322.00,1.11
4321.00,1.11
4320.00,1.11
4319.00,1.12
4318.00,1.12
4317.00,1.12
4316.00,1.12
4315.00,1.13
4314.00,1.13
4313.00,1.13
4312.00,1.13
4311.00,1.14
4310.00,1.14
4309.00,1.14
4308.00,1.14
4307.00,1.14
4306.00,1.14
4305.00,1.15
4304.00,1.15
4303.00,1.15
4302.00,1.15
4301.00,1.15
4300.00,1.16
4299.00,1.16
4298.00,1.16
4297.00,1.16
4296.00,1.16
4295.00,1.16
4294.00,1.17
4293.00,1.17
4292.00,1.17
4291.00,1.17
4290.00,1.17
4289.00,1.18
4288.00,1.18
4287.00,1.18
4286.00,1.18
4285.00,1.18
4284.00,1.18
4283.00,1.19
4282.00,1.19
4281.00,1.19
4280.00,1.19
4279.00,1.19
4278.00,1.19
4277.00,1.19
4276.00,1.19
4275.00,1.19
4274.00,1.19
4273.00,1.19
4272.00,1.19
4271.00,1.19
4270.00,1.19
4269.00,1.19
4268.00,1.19
4267.00,1.19
4266.00,1.19
4265.00,1.18
4264.00,1.18
4263.00,1.18
4262.00,1.18
4261.00,1.18
4260.00,1.18
4259.00,1.18
4258.00,1.18
4257.00,1.18
4256.00,1.18
4255.00,1.18
4254.00,1.18
4253.00,1.18
4252.00,1.18
4251.00,1.18
4250.00,1.18
4249.00,1.18
4248.00,1.19
4247.00,1.19
4246.00,1.19
4245.00,1.19
4244.00,1.19
4243.00,1.19
4242.00,1.19
4241.00,1.20
4240.00,1.20
4239.00,1.20
4238.00,1.20
4237.00,1.20
4236.00,1.20
4235.00,1.21
4234.00,1.21
4233.00,1.21
4232.00,1.21
4231.00,1.21
4230.00,1.21
4229.00,1.22
4228.00,1.22
4227.00,1.22
4226.00,1.22
4225.00,1.22
4224.00,1.22
4223.00,1.23
4222.00,1.23
4221.00,1.23
4220.00,1.23
4219.00,1.23
4218.00,1.23
4217.00,1.23
4216.00,1.23
4215.00,1.23
4214.00,1.23
4213.00,1.24
4212.00,1.24
4211.00,1.24
4210.00,1.24
4209.00,1.24
4208.00,1.24
4207.00,1.24
4206.00,1.24
4205.00,1.24
4204.00,1.24
4203.00,1.24
4202.00,1.24
4201.00,1.24
4200.00,1.24
4199.00,1.24
4198.00,1.24
4197.00,1.24
4196.00,1.24
4195.00,1.24
4194.00,1.24
4193.00,1.24
4192.00,1.24
4191.00,1.24
4190.00,1.24
4189.00,1.24
4188.00,1.24
4187.00,1.24
4186.00,1.25
4185.00,1.25
4184.00,1.25
4183.00,1.25
4182.00,1.25
4181.00,1.25
4180.00,1.25
4179.00,1.25
4178.00,1.25
4177.00,1.25
4176.00,1.26
4175.00,1.26
4174.00,1.26
4173.00,1.26
4172.00,1.26
4171.00,1.26
4170.00,1.26
4169.00,1.26
4168.00,1.26
4167.00,1.26
4166.00,1.26
4165.00,1.26
4164.00,1.26
4163.00,1.26
4162.00,1.26
4161.00,1.26
4160.00,1.26
4159.00,1.26
4158.00,1.26
4157.00,1.26
4156.00,1.26
4155.00,1.26
4154.00,1.26
4153.00,1.26
4152.00,1.26
4151.00,1.26
4150.00,1.27
4149.00,1.27
4148.00,1.27
4147.00,1.27
4146.00,1.27
4145.00,1.27
4144.00,1.27
4143.00,1.27
4142.00,1.27
4141.00,1.27
4140.00,1.27
4139.00,1.27
4138.00,1.27
4137.00,1.27
4136.00,1.27
4135.00,1.27
4134.00,1.28
4133.00,1.28
4132.00,1.28
4131.00,1.28
4130.00,1.28
4129.00,1.28
4128.00,1.28
4127.00,1.28
4126.00,1.28
4125.00,1.28
4124.00,1.28
4123.00,1.28
4122.00,1.28
4121.00,1.28
4120.00,1.28
4119.00,1.28
4118.00,1.28
4117.00,1.28
4116.00,1.28
4115.00,1.28
4114.00,1.28
4113.00,1.28
4112.00,1.28
4111.00,1.28
4110.00,1.28
4109.00,1.28
4108.00,1.29
4107.00,1.29
4106.00,1.29
4105.00,1.29
4104.00,1.29
4103.00,1.29
4102.00,1.29
4101.00,1.29
4100.00,1.29
4099.00,1.29
4098.00,1.29
4097.00,1.29
4096.00,1.29
4095.00,1.29
4094.00,1.29
4093.00,1.29
4092.00,1.29
4091.00,1.29
4090.00,1.29
4089.00,1.29
4088.00,1.29
4087.00,1.29
4086.00,1.29
4085.00,1.29
4084.00,1.29
4083.00,1.29
4082.00,1.29
4081.00,1.29
4080.00,1.29
4079.00,1.29
4078.00,1.29
4077.00,1.29
4076.00,1.29
4075.00,1.30
4074.00,1.30
4073.00,1.30
4072.00,1.30
4071.00,1.30
4070.00,1.30
4069.00,1.31
4068.00,1.31
4067.00,1.31
4066.00,1.31
4065.00,1.31
4064.00,1.31
4063.00,1.31
4062.00,1.31
4061.00,1.31
4060.00,1.31
4059.00,1.31
4058.00,1.31
4057.00,1.31
4056.00,1.31
4055.00,1.31
4054.00,1.31
4053.00,1.31
4052.00,1.30
4051.00,1.30
4050.00,1.30
4049.00,1.30
4048.00,1.30
4047.00,1.30
4046.00,1.30
4045.00,1.31
4044.00,1.31
4043.00,1.31
4042.00,1.31
4041.00,1.31
4040.00,1.31
4039.00,1.31
4038.00,1.32
4037.00,1.32
4036.00,1.32
4035.00,1.32
4034.00,1.32
4033.00,1.32
4032.00,1.32
4031.00,1.33
4030.00,1.33
4029.00,1.33
4028.00,1.33
4027.00,1.33
4026.00,1.33
4025.00,1.33
4024.00,1.33
4023.00,1.33
4022.00,1.33
4021.00,1.33
4020.00,1.33
4019.00,1.33
4018.00,1.33
4017.00,1.33
4016.00,1.33
4015.00,1.33
4014.00,1.33
4013.00,1.33
4012.00,1.33
4011.00,1.33
4010.00,1.33
4009.00,1.33
4008.00,1.33
4007.00,1.34
4006.00,1.34
4005.00,1.34
4004.00,1.34
4003.00,1.35
4002.00,1.35
4001.00,1.35
4000.00,1.35
