创建为新数据集,样品 433 用户 Administrator 日期 星期四, 三月 08 2018
cm-1,%T
10000.00,1.43
9999.00,1.42
9998.00,1.42
9997.00,1.42
9996.00,1.41
9995.00,1.41
9994.00,1.41
9993.00,1.41
9992.00,1.41
9991.00,1.41
9990.00,1.41
9989.00,1.41
9988.00,1.41
9987.00,1.41
9986.00,1.41
9985.00,1.42
9984.00,1.42
9983.00,1.42
9982.00,1.42
9981.00,1.43
9980.00,1.43
9979.00,1.43
9978.00,1.43
9977.00,1.43
9976.00,1.43
9975.00,1.43
9974.00,1.43
9973.00,1.43
9972.00,1.42
9971.00,1.42
9970.00,1.42
9969.00,1.42
9968.00,1.41
9967.00,1.41
9966.00,1.41
9965.00,1.40
9964.00,1.40
9963.00,1.40
9962.00,1.40
9961.00,1.40
9960.00,1.40
9959.00,1.39
9958.00,1.39
9957.00,1.39
9956.00,1.39
9955.00,1.39
9954.00,1.39
9953.00,1.39
9952.00,1.39
9951.00,1.39
9950.00,1.38
9949.00,1.38
9948.00,1.38
9947.00,1.38
9946.00,1.38
9945.00,1.38
9944.00,1.37
9943.00,1.37
9942.00,1.37
9941.00,1.37
9940.00,1.37
9939.00,1.37
9938.00,1.36
9937.00,1.36
9936.00,1.36
9935.00,1.36
9934.00,1.36
9933.00,1.36
9932.00,1.35
9931.00,1.35
9930.00,1.35
9929.00,1.35
9928.00,1.35
9927.00,1.35
9926.00,1.35
9925.00,1.35
9924.00,1.35
9923.00,1.35
9922.00,1.35
9921.00,1.35
9920.00,1.35
9919.00,1.35
9918.00,1.35
9917.00,1.35
9916.00,1.35
9915.00,1.35
9914.00,1.35
9913.00,1.35
9912.00,1.35
9911.00,1.35
9910.00,1.36
9909.00,1.36
9908.00,1.36
9907.00,1.36
9906.00,1.36
9905.00,1.36
9904.00,1.36
9903.00,1.36
9902.00,1.36
9901.00,1.37
9900.00,1.37
9899.00,1.37
9898.00,1.37
9897.00,1.38
9896.00,1.38
9895.00,1.38
9894.00,1.38
9893.00,1.38
9892.00,1.39
9891.00,1.39
9890.00,1.39
9889.00,1.39
9888.00,1.39
9887.00,1.38
9886.00,1.38
9885.00,1.38
9884.00,1.38
9883.00,1.38
9882.00,1.37
9881.00,1.37
9880.00,1.37
9879.00,1.37
9878.00,1.37
9877.00,1.37
9876.00,1.37
9875.00,1.37
9874.00,1.37
9873.00,1.37
9872.00,1.37
9871.00,1.37
9870.00,1.37
9869.00,1.37
9868.00,1.37
9867.00,1.37
9866.00,1.38
9865.00,1.38
9864.00,1.38
9863.00,1.38
9862.00,1.38
9861.00,1.38
9860.00,1.38
9859.00,1.38
9858.00,1.38
9857.00,1.38
9856.00,1.38
9855.00,1.38
9854.00,1.38
9853.00,1.38
9852.00,1.38
9851.00,1.38
9850.00,1.38
9849.00,1.38
9848.00,1.38
9847.00,1.38
9846.00,1.39
9845.00,1.39
9844.00,1.39
9843.00,1.39
9842.00,1.39
9841.00,1.39
9840.00,1.40
9839.00,1.40
9838.00,1.40
9837.00,1.40
9836.00,1.41
9835.00,1.41
9834.00,1.41
9833.00,1.41
9832.00,1.41
9831.00,1.41
9830.00,1.41
9829.00,1.41
9828.00,1.41
9827.00,1.41
9826.00,1.41
9825.00,1.41
9824.00,1.41
9823.00,1.41
9822.00,1.41
9821.00,1.41
9820.00,1.41
9819.00,1.41
9818.00,1.41
9817.00,1.41
9816.00,1.41
9815.00,1.41
9814.00,1.40
9813.00,1.40
9812.00,1.40
9811.00,1.40
9810.00,1.40
9809.00,1.40
9808.00,1.40
9807.00,1.39
9806.00,1.39
9805.00,1.39
9804.00,1.39
9803.00,1.39
9802.00,1.39
9801.00,1.39
9800.00,1.39
9799.00,1.39
9798.00,1.39
9797.00,1.39
9796.00,1.39
9795.00,1.39
9794.00,1.39
9793.00,1.39
9792.00,1.39
9791.00,1.39
9790.00,1.39
9789.00,1.39
9788.00,1.39
9787.00,1.39
9786.00,1.39
9785.00,1.39
9784.00,1.39
9783.00,1.39
9782.00,1.39
9781.00,1.39
9780.00,1.39
9779.00,1.39
9778.00,1.39
9777.00,1.38
9776.00,1.38
9775.00,1.38
9774.00,1.38
9773.00,1.38
9772.00,1.38
9771.00,1.38
9770.00,1.38
9769.00,1.38
9768.00,1.38
9767.00,1.38
9766.00,1.38
9765.00,1.38
9764.00,1.38
9763.00,1.38
9762.00,1.38
9761.00,1.38
9760.00,1.39
9759.00,1.39
9758.00,1.39
9757.00,1.39
9756.00,1.39
9755.00,1.39
9754.00,1.39
9753.00,1.39
9752.00,1.39
9751.00,1.39
9750.00,1.40
9749.00,1.40
9748.00,1.40
9747.00,1.40
9746.00,1.40
9745.00,1.40
9744.00,1.40
9743.00,1.40
9742.00,1.41
9741.00,1.41
9740.00,1.41
9739.00,1.41
9738.00,1.41
9737.00,1.41
9736.00,1.41
9735.00,1.41
9734.00,1.41
9733.00,1.41
9732.00,1.41
9731.00,1.40
9730.00,1.40
9729.00,1.40
9728.00,1.40
9727.00,1.40
9726.00,1.39
9725.00,1.39
9724.00,1.39
9723.00,1.39
9722.00,1.39
9721.00,1.38
9720.00,1.38
9719.00,1.38
9718.00,1.38
9717.00,1.38
9716.00,1.38
9715.00,1.38
9714.00,1.38
9713.00,1.38
9712.00,1.38
9711.00,1.38
9710.00,1.38
9709.00,1.38
9708.00,1.38
9707.00,1.38
9706.00,1.39
9705.00,1.39
9704.00,1.39
9703.00,1.39
9702.00,1.39
9701.00,1.39
9700.00,1.39
9699.00,1.39
9698.00,1.39
9697.00,1.39
9696.00,1.39
9695.00,1.39
9694.00,1.39
9693.00,1.39
9692.00,1.39
9691.00,1.39
9690.00,1.39
9689.00,1.38
9688.00,1.38
9687.00,1.38
9686.00,1.38
9685.00,1.38
9684.00,1.38
9683.00,1.38
9682.00,1.38
9681.00,1.38
9680.00,1.38
9679.00,1.38
9678.00,1.38
9677.00,1.38
9676.00,1.38
9675.00,1.38
9674.00,1.38
9673.00,1.38
9672.00,1.38
9671.00,1.38
9670.00,1.38
9669.00,1.38
9668.00,1.38
9667.00,1.38
9666.00,1.38
9665.00,1.38
9664.00,1.38
9663.00,1.38
9662.00,1.38
9661.00,1.38
9660.00,1.38
9659.00,1.38
9658.00,1.38
9657.00,1.38
9656.00,1.38
9655.00,1.38
9654.00,1.38
9653.00,1.38
9652.00,1.38
9651.00,1.39
9650.00,1.39
9649.00,1.39
9648.00,1.39
9647.00,1.39
9646.00,1.40
9645.00,1.40
9644.00,1.40
9643.00,1.40
9642.00,1.40
9641.00,1.40
9640.00,1.40
9639.00,1.40
9638.00,1.40
9637.00,1.40
9636.00,1.40
9635.00,1.40
9634.00,1.40
9633.00,1.40
9632.00,1.40
9631.00,1.40
9630.00,1.39
9629.00,1.39
9628.00,1.39
9627.00,1.39
9626.00,1.39
9625.00,1.39
9624.00,1.38
9623.00,1.38
9622.00,1.38
9621.00,1.38
9620.00,1.38
9619.00,1.38
9618.00,1.38
9617.00,1.39
9616.00,1.39
9615.00,1.39
9614.00,1.39
9613.00,1.39
9612.00,1.39
9611.00,1.40
9610.00,1.40
9609.00,1.40
9608.00,1.40
9607.00,1.40
9606.00,1.40
9605.00,1.40
9604.00,1.40
9603.00,1.40
9602.00,1.41
9601.00,1.41
9600.00,1.41
9599.00,1.41
9598.00,1.41
9597.00,1.41
9596.00,1.41
9595.00,1.41
9594.00,1.41
9593.00,1.41
9592.00,1.41
9591.00,1.41
9590.00,1.41
9589.00,1.41
9588.00,1.41
9587.00,1.41
9586.00,1.41
9585.00,1.41
9584.00,1.41
9583.00,1.41
9582.00,1.41
9581.00,1.41
9580.00,1.41
9579.00,1.41
9578.00,1.41
9577.00,1.41
9576.00,1.41
9575.00,1.41
9574.00,1.41
9573.00,1.41
9572.00,1.41
9571.00,1.42
9570.00,1.42
9569.00,1.42
9568.00,1.42
9567.00,1.42
9566.00,1.42
9565.00,1.42
9564.00,1.42
9563.00,1.42
9562.00,1.42
9561.00,1.42
9560.00,1.42
9559.00,1.43
9558.00,1.42
9557.00,1.42
9556.00,1.42
9555.00,1.42
9554.00,1.42
9553.00,1.42
9552.00,1.42
9551.00,1.42
9550.00,1.42
9549.00,1.42
9548.00,1.41
9547.00,1.41
9546.00,1.41
9545.00,1.41
9544.00,1.41
9543.00,1.41
9542.00,1.40
9541.00,1.40
9540.00,1.40
9539.00,1.40
9538.00,1.40
9537.00,1.40
9536.00,1.40
9535.00,1.40
9534.00,1.40
9533.00,1.40
9532.00,1.40
9531.00,1.40
9530.00,1.40
9529.00,1.40
9528.00,1.40
9527.00,1.41
9526.00,1.41
9525.00,1.41
9524.00,1.41
9523.00,1.41
9522.00,1.41
9521.00,1.41
9520.00,1.41
9519.00,1.41
9518.00,1.41
9517.00,1.41
9516.00,1.41
9515.00,1.41
9514.00,1.41
9513.00,1.41
9512.00,1.41
9511.00,1.40
9510.00,1.40
9509.00,1.40
9508.00,1.40
9507.00,1.39
9506.00,1.39
9505.00,1.39
9504.00,1.39
9503.00,1.38
9502.00,1.38
9501.00,1.38
9500.00,1.38
9499.00,1.38
9498.00,1.37
9497.00,1.37
9496.00,1.37
9495.00,1.37
9494.00,1.37
9493.00,1.37
9492.00,1.37
9491.00,1.38
9490.00,1.38
9489.00,1.38
9488.00,1.38
9487.00,1.38
9486.00,1.38
9485.00,1.38
9484.00,1.39
9483.00,1.39
9482.00,1.39
9481.00,1.39
9480.00,1.39
9479.00,1.39
9478.00,1.40
9477.00,1.40
9476.00,1.40
9475.00,1.40
9474.00,1.40
9473.00,1.40
9472.00,1.40
9471.00,1.41
9470.00,1.41
9469.00,1.41
9468.00,1.41
9467.00,1.40
9466.00,1.40
9465.00,1.40
9464.00,1.40
9463.00,1.40
9462.00,1.40
9461.00,1.40
9460.00,1.40
9459.00,1.39
9458.00,1.39
9457.00,1.39
9456.00,1.39
9455.00,1.39
9454.00,1.39
9453.00,1.39
9452.00,1.39
9451.00,1.39
9450.00,1.39
9449.00,1.39
9448.00,1.39
9447.00,1.39
9446.00,1.39
9445.00,1.39
9444.00,1.39
9443.00,1.39
9442.00,1.39
9441.00,1.39
9440.00,1.39
9439.00,1.39
9438.00,1.39
9437.00,1.40
9436.00,1.40
9435.00,1.40
9434.00,1.40
9433.00,1.40
9432.00,1.40
9431.00,1.40
9430.00,1.40
9429.00,1.40
9428.00,1.40
9427.00,1.40
9426.00,1.40
9425.00,1.40
9424.00,1.41
9423.00,1.41
9422.00,1.41
9421.00,1.41
9420.00,1.41
9419.00,1.41
9418.00,1.41
9417.00,1.41
9416.00,1.42
9415.00,1.42
9414.00,1.42
9413.00,1.42
9412.00,1.42
9411.00,1.42
9410.00,1.42
9409.00,1.42
9408.00,1.42
9407.00,1.42
9406.00,1.42
9405.00,1.41
9404.00,1.41
9403.00,1.41
9402.00,1.41
9401.00,1.41
9400.00,1.41
9399.00,1.40
9398.00,1.40
9397.00,1.40
9396.00,1.40
9395.00,1.40
9394.00,1.40
9393.00,1.40
9392.00,1.40
9391.00,1.40
9390.00,1.40
9389.00,1.40
9388.00,1.40
9387.00,1.40
9386.00,1.41
9385.00,1.41
9384.00,1.41
9383.00,1.41
9382.00,1.41
9381.00,1.41
9380.00,1.41
9379.00,1.41
9378.00,1.41
9377.00,1.41
9376.00,1.41
9375.00,1.41
9374.00,1.41
9373.00,1.41
9372.00,1.41
9371.00,1.40
9370.00,1.40
9369.00,1.40
9368.00,1.40
9367.00,1.40
9366.00,1.40
9365.00,1.40
9364.00,1.41
9363.00,1.41
9362.00,1.41
9361.00,1.41
9360.00,1.41
9359.00,1.41
9358.00,1.41
9357.00,1.41
9356.00,1.41
9355.00,1.42
9354.00,1.42
9353.00,1.42
9352.00,1.42
9351.00,1.42
9350.00,1.42
9349.00,1.42
9348.00,1.42
9347.00,1.42
9346.00,1.42
9345.00,1.42
9344.00,1.42
9343.00,1.42
9342.00,1.42
9341.00,1.42
9340.00,1.42
9339.00,1.42
9338.00,1.42
9337.00,1.42
9336.00,1.42
9335.00,1.42
9334.00,1.42
9333.00,1.42
9332.00,1.42
9331.00,1.42
9330.00,1.42
9329.00,1.42
9328.00,1.42
9327.00,1.42
9326.00,1.42
9325.00,1.42
9324.00,1.42
9323.00,1.42
9322.00,1.42
9321.00,1.41
9320.00,1.41
9319.00,1.41
9318.00,1.41
9317.00,1.41
9316.00,1.41
9315.00,1.41
9314.00,1.41
9313.00,1.41
9312.00,1.41
9311.00,1.41
9310.00,1.41
9309.00,1.41
9308.00,1.41
9307.00,1.41
9306.00,1.41
9305.00,1.41
9304.00,1.41
9303.00,1.41
9302.00,1.41
9301.00,1.41
9300.00,1.41
9299.00,1.41
9298.00,1.41
9297.00,1.41
9296.00,1.41
9295.00,1.41
9294.00,1.41
9293.00,1.41
9292.00,1.41
9291.00,1.41
9290.00,1.41
9289.00,1.41
9288.00,1.41
9287.00,1.41
9286.00,1.41
9285.00,1.41
9284.00,1.41
9283.00,1.41
9282.00,1.41
9281.00,1.42
9280.00,1.42
9279.00,1.42
9278.00,1.42
9277.00,1.42
9276.00,1.42
9275.00,1.42
9274.00,1.42
9273.00,1.42
9272.00,1.42
9271.00,1.42
9270.00,1.42
9269.00,1.42
9268.00,1.42
9267.00,1.42
9266.00,1.42
9265.00,1.42
9264.00,1.42
9263.00,1.41
9262.00,1.41
9261.00,1.41
9260.00,1.41
9259.00,1.41
9258.00,1.41
9257.00,1.41
9256.00,1.41
9255.00,1.41
9254.00,1.41
9253.00,1.41
9252.00,1.41
9251.00,1.41
9250.00,1.41
9249.00,1.41
9248.00,1.41
9247.00,1.41
9246.00,1.41
9245.00,1.40
9244.00,1.40
9243.00,1.40
9242.00,1.40
9241.00,1.40
9240.00,1.40
9239.00,1.40
9238.00,1.40
9237.00,1.40
9236.00,1.40
9235.00,1.40
9234.00,1.40
9233.00,1.40
9232.00,1.40
9231.00,1.40
9230.00,1.40
9229.00,1.40
9228.00,1.40
9227.00,1.40
9226.00,1.40
9225.00,1.40
9224.00,1.40
9223.00,1.40
9222.00,1.40
9221.00,1.40
9220.00,1.40
9219.00,1.41
9218.00,1.41
9217.00,1.41
9216.00,1.41
9215.00,1.41
9214.00,1.41
9213.00,1.41
9212.00,1.41
9211.00,1.41
9210.00,1.41
9209.00,1.41
9208.00,1.41
9207.00,1.40
9206.00,1.40
9205.00,1.40
9204.00,1.40
9203.00,1.40
9202.00,1.40
9201.00,1.40
9200.00,1.40
9199.00,1.40
9198.00,1.39
9197.00,1.39
9196.00,1.39
9195.00,1.39
9194.00,1.39
9193.00,1.39
9192.00,1.39
9191.00,1.39
9190.00,1.39
9189.00,1.39
9188.00,1.39
9187.00,1.40
9186.00,1.40
9185.00,1.40
9184.00,1.40
9183.00,1.40
9182.00,1.40
9181.00,1.41
9180.00,1.41
9179.00,1.41
9178.00,1.41
9177.00,1.41
9176.00,1.41
9175.00,1.41
9174.00,1.42
9173.00,1.42
9172.00,1.42
9171.00,1.42
9170.00,1.42
9169.00,1.42
9168.00,1.42
9167.00,1.42
9166.00,1.42
9165.00,1.42
9164.00,1.42
9163.00,1.42
9162.00,1.43
9161.00,1.43
9160.00,1.43
9159.00,1.42
9158.00,1.42
9157.00,1.42
9156.00,1.42
9155.00,1.42
9154.00,1.42
9153.00,1.42
9152.00,1.42
9151.00,1.42
9150.00,1.42
9149.00,1.41
9148.00,1.41
9147.00,1.41
9146.00,1.41
9145.00,1.41
9144.00,1.41
9143.00,1.41
9142.00,1.41
9141.00,1.41
9140.00,1.41
9139.00,1.41
9138.00,1.41
9137.00,1.41
9136.00,1.41
9135.00,1.42
9134.00,1.42
9133.00,1.42
9132.00,1.42
9131.00,1.42
9130.00,1.42
9129.00,1.42
9128.00,1.42
9127.00,1.41
9126.00,1.41
9125.00,1.41
9124.00,1.41
9123.00,1.41
9122.00,1.40
9121.00,1.40
9120.00,1.40
9119.00,1.40
9118.00,1.39
9117.00,1.39
9116.00,1.39
9115.00,1.39
9114.00,1.39
9113.00,1.39
9112.00,1.39
9111.00,1.39
9110.00,1.39
9109.00,1.38
9108.00,1.38
9107.00,1.38
9106.00,1.38
9105.00,1.38
9104.00,1.38
9103.00,1.38
9102.00,1.38
9101.00,1.39
9100.00,1.39
9099.00,1.39
9098.00,1.39
9097.00,1.39
9096.00,1.39
9095.00,1.39
9094.00,1.39
9093.00,1.39
9092.00,1.39
9091.00,1.40
9090.00,1.40
9089.00,1.40
9088.00,1.40
9087.00,1.40
9086.00,1.40
9085.00,1.40
9084.00,1.41
9083.00,1.41
9082.00,1.41
9081.00,1.41
9080.00,1.41
9079.00,1.41
9078.00,1.41
9077.00,1.40
9076.00,1.40
9075.00,1.40
9074.00,1.40
9073.00,1.40
9072.00,1.40
9071.00,1.40
9070.00,1.40
9069.00,1.39
9068.00,1.39
9067.00,1.39
9066.00,1.39
9065.00,1.39
9064.00,1.39
9063.00,1.39
9062.00,1.39
9061.00,1.39
9060.00,1.39
9059.00,1.39
9058.00,1.39
9057.00,1.39
9056.00,1.39
9055.00,1.39
9054.00,1.39
9053.00,1.39
9052.00,1.40
9051.00,1.40
9050.00,1.40
9049.00,1.40
9048.00,1.40
9047.00,1.41
9046.00,1.41
9045.00,1.41
9044.00,1.41
9043.00,1.41
9042.00,1.41
9041.00,1.41
9040.00,1.41
9039.00,1.41
9038.00,1.41
9037.00,1.41
9036.00,1.41
9035.00,1.41
9034.00,1.41
9033.00,1.41
9032.00,1.41
9031.00,1.41
9030.00,1.41
9029.00,1.41
9028.00,1.41
9027.00,1.41
9026.00,1.41
9025.00,1.41
9024.00,1.41
9023.00,1.41
9022.00,1.41
9021.00,1.42
9020.00,1.42
9019.00,1.42
9018.00,1.42
9017.00,1.42
9016.00,1.42
9015.00,1.42
9014.00,1.42
9013.00,1.42
9012.00,1.42
9011.00,1.42
9010.00,1.42
9009.00,1.42
9008.00,1.42
9007.00,1.42
9006.00,1.42
9005.00,1.42
9004.00,1.42
9003.00,1.42
9002.00,1.42
9001.00,1.42
9000.00,1.42
8999.00,1.42
8998.00,1.42
8997.00,1.42
8996.00,1.42
8995.00,1.42
8994.00,1.42
8993.00,1.42
8992.00,1.42
8991.00,1.42
8990.00,1.42
8989.00,1.42
8988.00,1.42
8987.00,1.42
8986.00,1.42
8985.00,1.42
8984.00,1.42
8983.00,1.42
8982.00,1.42
8981.00,1.41
8980.00,1.41
8979.00,1.41
8978.00,1.41
8977.00,1.41
8976.00,1.41
8975.00,1.41
8974.00,1.41
8973.00,1.41
8972.00,1.41
8971.00,1.41
8970.00,1.41
8969.00,1.41
8968.00,1.41
8967.00,1.41
8966.00,1.41
8965.00,1.41
8964.00,1.41
8963.00,1.41
8962.00,1.41
8961.00,1.41
8960.00,1.41
8959.00,1.41
8958.00,1.41
8957.00,1.41
8956.00,1.41
8955.00,1.41
8954.00,1.41
8953.00,1.42
8952.00,1.42
8951.00,1.42
8950.00,1.42
8949.00,1.42
8948.00,1.42
8947.00,1.42
8946.00,1.42
8945.00,1.41
8944.00,1.41
8943.00,1.41
8942.00,1.41
8941.00,1.41
8940.00,1.41
8939.00,1.41
8938.00,1.41
8937.00,1.41
8936.00,1.41
8935.00,1.41
8934.00,1.41
8933.00,1.41
8932.00,1.41
8931.00,1.41
8930.00,1.41
8929.00,1.41
8928.00,1.41
8927.00,1.41
8926.00,1.41
8925.00,1.41
8924.00,1.41
8923.00,1.41
8922.00,1.41
8921.00,1.42
8920.00,1.42
8919.00,1.42
8918.00,1.42
8917.00,1.42
8916.00,1.42
8915.00,1.42
8914.00,1.42
8913.00,1.42
8912.00,1.42
8911.00,1.42
8910.00,1.42
8909.00,1.41
8908.00,1.41
8907.00,1.41
8906.00,1.41
8905.00,1.41
8904.00,1.41
8903.00,1.41
8902.00,1.41
8901.00,1.41
8900.00,1.41
8899.00,1.41
8898.00,1.41
8897.00,1.41
8896.00,1.41
8895.00,1.41
8894.00,1.41
8893.00,1.41
8892.00,1.41
8891.00,1.41
8890.00,1.41
8889.00,1.41
8888.00,1.41
8887.00,1.41
8886.00,1.41
8885.00,1.41
8884.00,1.41
8883.00,1.41
8882.00,1.41
8881.00,1.41
8880.00,1.41
8879.00,1.41
8878.00,1.41
8877.00,1.41
8876.00,1.41
8875.00,1.41
8874.00,1.41
8873.00,1.41
8872.00,1.41
8871.00,1.41
8870.00,1.41
8869.00,1.41
8868.00,1.41
8867.00,1.41
8866.00,1.41
8865.00,1.41
8864.00,1.41
8863.00,1.41
8862.00,1.41
8861.00,1.41
8860.00,1.41
8859.00,1.41
8858.00,1.41
8857.00,1.41
8856.00,1.41
8855.00,1.41
8854.00,1.41
8853.00,1.41
8852.00,1.41
8851.00,1.41
8850.00,1.41
8849.00,1.41
8848.00,1.41
8847.00,1.41
8846.00,1.41
8845.00,1.41
8844.00,1.41
8843.00,1.41
8842.00,1.41
8841.00,1.41
8840.00,1.41
8839.00,1.41
8838.00,1.41
8837.00,1.41
8836.00,1.41
8835.00,1.41
8834.00,1.41
8833.00,1.41
8832.00,1.41
8831.00,1.41
8830.00,1.41
8829.00,1.41
8828.00,1.41
8827.00,1.41
8826.00,1.41
8825.00,1.40
8824.00,1.40
8823.00,1.40
8822.00,1.40
8821.00,1.40
8820.00,1.40
8819.00,1.40
8818.00,1.40
8817.00,1.40
8816.00,1.39
8815.00,1.39
8814.00,1.39
8813.00,1.39
8812.00,1.39
8811.00,1.39
8810.00,1.39
8809.00,1.39
8808.00,1.39
8807.00,1.39
8806.00,1.39
8805.00,1.39
8804.00,1.39
8803.00,1.39
8802.00,1.39
8801.00,1.39
8800.00,1.39
8799.00,1.39
8798.00,1.38
8797.00,1.38
8796.00,1.38
8795.00,1.38
8794.00,1.38
8793.00,1.38
8792.00,1.38
8791.00,1.37
8790.00,1.37
8789.00,1.37
8788.00,1.37
8787.00,1.37
8786.00,1.37
8785.00,1.37
8784.00,1.37
8783.00,1.37
8782.00,1.37
8781.00,1.37
8780.00,1.37
8779.00,1.36
8778.00,1.36
8777.00,1.36
8776.00,1.36
8775.00,1.36
8774.00,1.36
8773.00,1.36
8772.00,1.36
8771.00,1.36
8770.00,1.36
8769.00,1.36
8768.00,1.36
8767.00,1.36
8766.00,1.35
8765.00,1.35
8764.00,1.35
8763.00,1.35
8762.00,1.35
8761.00,1.35
8760.00,1.35
8759.00,1.35
8758.00,1.35
8757.00,1.34
8756.00,1.34
8755.00,1.34
8754.00,1.34
8753.00,1.34
8752.00,1.34
8751.00,1.34
8750.00,1.34
8749.00,1.34
8748.00,1.34
8747.00,1.34
8746.00,1.34
8745.00,1.34
8744.00,1.34
8743.00,1.34
8742.00,1.34
8741.00,1.34
8740.00,1.34
8739.00,1.34
8738.00,1.34
8737.00,1.34
8736.00,1.34
8735.00,1.34
8734.00,1.34
8733.00,1.34
8732.00,1.34
8731.00,1.34
8730.00,1.33
8729.00,1.33
8728.00,1.33
8727.00,1.33
8726.00,1.33
8725.00,1.33
8724.00,1.33
8723.00,1.33
8722.00,1.33
8721.00,1.33
8720.00,1.33
8719.00,1.33
8718.00,1.34
8717.00,1.34
8716.00,1.34
8715.00,1.34
8714.00,1.34
8713.00,1.34
8712.00,1.34
8711.00,1.34
8710.00,1.34
8709.00,1.34
8708.00,1.34
8707.00,1.34
8706.00,1.34
8705.00,1.34
8704.00,1.34
8703.00,1.34
8702.00,1.34
8701.00,1.34
8700.00,1.34
8699.00,1.34
8698.00,1.34
8697.00,1.34
8696.00,1.34
8695.00,1.34
8694.00,1.34
8693.00,1.34
8692.00,1.34
8691.00,1.34
8690.00,1.34
8689.00,1.34
8688.00,1.33
8687.00,1.33
8686.00,1.33
8685.00,1.33
8684.00,1.33
8683.00,1.32
8682.00,1.32
8681.00,1.32
8680.00,1.32
8679.00,1.32
8678.00,1.32
8677.00,1.32
8676.00,1.31
8675.00,1.31
8674.00,1.31
8673.00,1.31
8672.00,1.31
8671.00,1.31
8670.00,1.32
8669.00,1.32
8668.00,1.32
8667.00,1.32
8666.00,1.32
8665.00,1.32
8664.00,1.32
8663.00,1.33
8662.00,1.33
8661.00,1.33
8660.00,1.33
8659.00,1.33
8658.00,1.33
8657.00,1.33
8656.00,1.33
8655.00,1.33
8654.00,1.33
8653.00,1.33
8652.00,1.33
8651.00,1.33
8650.00,1.33
8649.00,1.33
8648.00,1.33
8647.00,1.33
8646.00,1.33
8645.00,1.33
8644.00,1.33
8643.00,1.33
8642.00,1.33
8641.00,1.33
8640.00,1.33
8639.00,1.32
8638.00,1.32
8637.00,1.32
8636.00,1.32
8635.00,1.32
8634.00,1.32
8633.00,1.32
8632.00,1.32
8631.00,1.32
8630.00,1.32
8629.00,1.32
8628.00,1.32
8627.00,1.32
8626.00,1.32
8625.00,1.32
8624.00,1.32
8623.00,1.32
8622.00,1.32
8621.00,1.32
8620.00,1.32
8619.00,1.32
8618.00,1.32
8617.00,1.31
8616.00,1.31
8615.00,1.31
8614.00,1.31
8613.00,1.31
8612.00,1.31
8611.00,1.31
8610.00,1.31
8609.00,1.31
8608.00,1.31
8607.00,1.30
8606.00,1.30
8605.00,1.30
8604.00,1.30
8603.00,1.30
8602.00,1.30
8601.00,1.30
8600.00,1.30
8599.00,1.29
8598.00,1.29
8597.00,1.29
8596.00,1.29
8595.00,1.29
8594.00,1.29
8593.00,1.29
8592.00,1.29
8591.00,1.29
8590.00,1.29
8589.00,1.29
8588.00,1.29
8587.00,1.29
8586.00,1.29
8585.00,1.29
8584.00,1.29
8583.00,1.29
8582.00,1.29
8581.00,1.29
8580.00,1.29
8579.00,1.29
8578.00,1.29
8577.00,1.29
8576.00,1.29
8575.00,1.29
8574.00,1.29
8573.00,1.29
8572.00,1.28
8571.00,1.28
8570.00,1.28
8569.00,1.28
8568.00,1.28
8567.00,1.27
8566.00,1.27
8565.00,1.27
8564.00,1.27
8563.00,1.27
8562.00,1.26
8561.00,1.26
8560.00,1.26
8559.00,1.26
8558.00,1.26
8557.00,1.26
8556.00,1.26
8555.00,1.26
8554.00,1.26
8553.00,1.26
8552.00,1.26
8551.00,1.26
8550.00,1.26
8549.00,1.26
8548.00,1.26
8547.00,1.26
8546.00,1.26
8545.00,1.26
8544.00,1.26
8543.00,1.26
8542.00,1.26
8541.00,1.26
8540.00,1.26
8539.00,1.26
8538.00,1.26
8537.00,1.26
8536.00,1.26
8535.00,1.26
8534.00,1.26
8533.00,1.26
8532.00,1.26
8531.00,1.26
8530.00,1.26
8529.00,1.27
8528.00,1.27
8527.00,1.27
8526.00,1.27
8525.00,1.27
8524.00,1.27
8523.00,1.27
8522.00,1.27
8521.00,1.27
8520.00,1.27
8519.00,1.27
8518.00,1.26
8517.00,1.26
8516.00,1.26
8515.00,1.26
8514.00,1.26
8513.00,1.26
8512.00,1.26
8511.00,1.26
8510.00,1.26
8509.00,1.26
8508.00,1.26
8507.00,1.25
8506.00,1.25
8505.00,1.25
8504.00,1.25
8503.00,1.25
8502.00,1.25
8501.00,1.25
8500.00,1.25
8499.00,1.25
8498.00,1.25
8497.00,1.25
8496.00,1.25
8495.00,1.25
8494.00,1.25
8493.00,1.25
8492.00,1.25
8491.00,1.24
8490.00,1.24
8489.00,1.24
8488.00,1.24
8487.00,1.24
8486.00,1.24
8485.00,1.24
8484.00,1.24
8483.00,1.24
8482.00,1.23
8481.00,1.23
8480.00,1.23
8479.00,1.23
8478.00,1.23
8477.00,1.23
8476.00,1.22
8475.00,1.22
8474.00,1.22
8473.00,1.22
8472.00,1.22
8471.00,1.22
8470.00,1.21
8469.00,1.21
8468.00,1.21
8467.00,1.21
8466.00,1.21
8465.00,1.21
8464.00,1.21
8463.00,1.21
8462.00,1.21
8461.00,1.21
8460.00,1.21
8459.00,1.21
8458.00,1.21
8457.00,1.21
8456.00,1.21
8455.00,1.21
8454.00,1.21
8453.00,1.21
8452.00,1.21
8451.00,1.21
8450.00,1.21
8449.00,1.21
8448.00,1.21
8447.00,1.21
8446.00,1.21
8445.00,1.21
8444.00,1.21
8443.00,1.21
8442.00,1.21
8441.00,1.21
8440.00,1.21
8439.00,1.21
8438.00,1.21
8437.00,1.21
8436.00,1.21
8435.00,1.21
8434.00,1.21
8433.00,1.21
8432.00,1.21
8431.00,1.21
8430.00,1.20
8429.00,1.20
8428.00,1.20
8427.00,1.20
8426.00,1.20
8425.00,1.20
8424.00,1.20
8423.00,1.20
8422.00,1.20
8421.00,1.20
8420.00,1.20
8419.00,1.20
8418.00,1.20
8417.00,1.20
8416.00,1.20
8415.00,1.20
8414.00,1.20
8413.00,1.20
8412.00,1.20
8411.00,1.20
8410.00,1.20
8409.00,1.21
8408.00,1.21
8407.00,1.21
8406.00,1.21
8405.00,1.21
8404.00,1.21
8403.00,1.21
8402.00,1.21
8401.00,1.21
8400.00,1.21
8399.00,1.22
8398.00,1.22
8397.00,1.22
8396.00,1.22
8395.00,1.22
8394.00,1.22
8393.00,1.22
8392.00,1.22
8391.00,1.22
8390.00,1.22
8389.00,1.22
8388.00,1.22
8387.00,1.22
8386.00,1.22
8385.00,1.23
8384.00,1.23
8383.00,1.23
8382.00,1.23
8381.00,1.23
8380.00,1.23
8379.00,1.23
8378.00,1.23
8377.00,1.23
8376.00,1.23
8375.00,1.23
8374.00,1.23
8373.00,1.24
8372.00,1.24
8371.00,1.24
8370.00,1.24
8369.00,1.24
8368.00,1.24
8367.00,1.24
8366.00,1.24
8365.00,1.24
8364.00,1.24
8363.00,1.25
8362.00,1.25
8361.00,1.25
8360.00,1.25
8359.00,1.25
8358.00,1.25
8357.00,1.25
8356.00,1.25
8355.00,1.25
8354.00,1.25
8353.00,1.25
8352.00,1.25
8351.00,1.25
8350.00,1.25
8349.00,1.25
8348.00,1.25
8347.00,1.25
8346.00,1.25
8345.00,1.25
8344.00,1.25
8343.00,1.25
8342.00,1.25
8341.00,1.25
8340.00,1.26
8339.00,1.26
8338.00,1.26
8337.00,1.26
8336.00,1.26
8335.00,1.26
8334.00,1.26
8333.00,1.26
8332.00,1.26
8331.00,1.26
8330.00,1.26
8329.00,1.26
8328.00,1.26
8327.00,1.26
8326.00,1.26
8325.00,1.25
8324.00,1.25
8323.00,1.25
8322.00,1.25
8321.00,1.25
8320.00,1.25
8319.00,1.25
8318.00,1.25
8317.00,1.25
8316.00,1.25
8315.00,1.25
8314.00,1.25
8313.00,1.25
8312.00,1.25
8311.00,1.26
8310.00,1.26
8309.00,1.26
8308.00,1.26
8307.00,1.26
8306.00,1.26
8305.00,1.26
8304.00,1.26
8303.00,1.26
8302.00,1.26
8301.00,1.26
8300.00,1.26
8299.00,1.26
8298.00,1.26
8297.00,1.26
8296.00,1.26
8295.00,1.26
8294.00,1.26
8293.00,1.26
8292.00,1.26
8291.00,1.26
8290.00,1.26
8289.00,1.26
8288.00,1.26
8287.00,1.26
8286.00,1.26
8285.00,1.26
8284.00,1.26
8283.00,1.26
8282.00,1.26
8281.00,1.26
8280.00,1.26
8279.00,1.26
8278.00,1.26
8277.00,1.26
8276.00,1.25
8275.00,1.25
8274.00,1.25
8273.00,1.25
8272.00,1.25
8271.00,1.25
8270.00,1.25
8269.00,1.25
8268.00,1.25
8267.00,1.25
8266.00,1.25
8265.00,1.25
8264.00,1.25
8263.00,1.25
8262.00,1.25
8261.00,1.25
8260.00,1.25
8259.00,1.25
8258.00,1.25
8257.00,1.25
8256.00,1.25
8255.00,1.25
8254.00,1.25
8253.00,1.25
8252.00,1.26
8251.00,1.26
8250.00,1.26
8249.00,1.26
8248.00,1.26
8247.00,1.27
8246.00,1.27
8245.00,1.27
8244.00,1.27
8243.00,1.27
8242.00,1.28
8241.00,1.28
8240.00,1.28
8239.00,1.28
8238.00,1.28
8237.00,1.29
8236.00,1.29
8235.00,1.29
8234.00,1.29
8233.00,1.29
8232.00,1.29
8231.00,1.29
8230.00,1.29
8229.00,1.29
8228.00,1.29
8227.00,1.29
8226.00,1.29
8225.00,1.29
8224.00,1.29
8223.00,1.29
8222.00,1.29
8221.00,1.29
8220.00,1.29
8219.00,1.29
8218.00,1.29
8217.00,1.29
8216.00,1.29
8215.00,1.29
8214.00,1.29
8213.00,1.29
8212.00,1.29
8211.00,1.29
8210.00,1.29
8209.00,1.29
8208.00,1.29
8207.00,1.30
8206.00,1.30
8205.00,1.30
8204.00,1.30
8203.00,1.30
8202.00,1.30
8201.00,1.30
8200.00,1.30
8199.00,1.30
8198.00,1.31
8197.00,1.31
8196.00,1.31
8195.00,1.31
8194.00,1.31
8193.00,1.31
8192.00,1.31
8191.00,1.31
8190.00,1.31
8189.00,1.31
8188.00,1.31
8187.00,1.31
8186.00,1.31
8185.00,1.31
8184.00,1.31
8183.00,1.31
8182.00,1.31
8181.00,1.31
8180.00,1.31
8179.00,1.31
8178.00,1.31
8177.00,1.32
8176.00,1.32
8175.00,1.32
8174.00,1.32
8173.00,1.32
8172.00,1.32
8171.00,1.32
8170.00,1.32
8169.00,1.32
8168.00,1.32
8167.00,1.32
8166.00,1.32
8165.00,1.32
8164.00,1.32
8163.00,1.32
8162.00,1.32
8161.00,1.32
8160.00,1.32
8159.00,1.32
8158.00,1.32
8157.00,1.32
8156.00,1.33
8155.00,1.33
8154.00,1.33
8153.00,1.33
8152.00,1.33
8151.00,1.33
8150.00,1.33
8149.00,1.33
8148.00,1.33
8147.00,1.33
8146.00,1.33
8145.00,1.33
8144.00,1.33
8143.00,1.33
8142.00,1.33
8141.00,1.33
8140.00,1.34
8139.00,1.34
8138.00,1.34
8137.00,1.34
8136.00,1.34
8135.00,1.34
8134.00,1.34
8133.00,1.34
8132.00,1.34
8131.00,1.34
8130.00,1.34
8129.00,1.34
8128.00,1.34
8127.00,1.34
8126.00,1.34
8125.00,1.34
8124.00,1.34
8123.00,1.34
8122.00,1.34
8121.00,1.34
8120.00,1.34
8119.00,1.34
8118.00,1.34
8117.00,1.34
8116.00,1.34
8115.00,1.34
8114.00,1.34
8113.00,1.34
8112.00,1.34
8111.00,1.34
8110.00,1.34
8109.00,1.34
8108.00,1.34
8107.00,1.34
8106.00,1.34
8105.00,1.34
8104.00,1.34
8103.00,1.34
8102.00,1.34
8101.00,1.34
8100.00,1.34
8099.00,1.34
8098.00,1.34
8097.00,1.34
8096.00,1.35
8095.00,1.35
8094.00,1.35
8093.00,1.35
8092.00,1.35
8091.00,1.35
8090.00,1.35
8089.00,1.35
8088.00,1.35
8087.00,1.35
8086.00,1.35
8085.00,1.35
8084.00,1.35
8083.00,1.35
8082.00,1.35
8081.00,1.35
8080.00,1.35
8079.00,1.35
8078.00,1.35
8077.00,1.35
8076.00,1.35
8075.00,1.35
8074.00,1.35
8073.00,1.35
8072.00,1.35
8071.00,1.35
8070.00,1.35
8069.00,1.35
8068.00,1.35
8067.00,1.35
8066.00,1.36
8065.00,1.36
8064.00,1.36
8063.00,1.36
8062.00,1.36
8061.00,1.36
8060.00,1.36
8059.00,1.36
8058.00,1.36
8057.00,1.36
8056.00,1.36
8055.00,1.36
8054.00,1.37
8053.00,1.37
8052.00,1.37
8051.00,1.37
8050.00,1.37
8049.00,1.37
8048.00,1.37
8047.00,1.37
8046.00,1.37
8045.00,1.37
8044.00,1.37
8043.00,1.37
8042.00,1.37
8041.00,1.37
8040.00,1.37
8039.00,1.37
8038.00,1.37
8037.00,1.37
8036.00,1.37
8035.00,1.37
8034.00,1.37
8033.00,1.37
8032.00,1.37
8031.00,1.37
8030.00,1.37
8029.00,1.37
8028.00,1.37
8027.00,1.37
8026.00,1.37
8025.00,1.37
8024.00,1.37
8023.00,1.37
8022.00,1.37
8021.00,1.37
8020.00,1.37
8019.00,1.37
8018.00,1.37
8017.00,1.37
8016.00,1.37
8015.00,1.37
8014.00,1.37
8013.00,1.37
8012.00,1.37
8011.00,1.37
8010.00,1.37
8009.00,1.37
8008.00,1.37
8007.00,1.38
8006.00,1.38
8005.00,1.38
8004.00,1.38
8003.00,1.38
8002.00,1.38
8001.00,1.38
8000.00,1.38
7999.00,1.39
7998.00,1.39
7997.00,1.39
7996.00,1.39
7995.00,1.39
7994.00,1.39
7993.00,1.39
7992.00,1.39
7991.00,1.39
7990.00,1.39
7989.00,1.39
7988.00,1.39
7987.00,1.39
7986.00,1.39
7985.00,1.39
7984.00,1.39
7983.00,1.39
7982.00,1.39
7981.00,1.39
7980.00,1.39
7979.00,1.39
7978.00,1.39
7977.00,1.38
7976.00,1.38
7975.00,1.38
7974.00,1.38
7973.00,1.38
7972.00,1.38
7971.00,1.38
7970.00,1.38
7969.00,1.38
7968.00,1.38
7967.00,1.38
7966.00,1.38
7965.00,1.38
7964.00,1.38
7963.00,1.38
7962.00,1.38
7961.00,1.38
7960.00,1.38
7959.00,1.38
7958.00,1.38
7957.00,1.38
7956.00,1.38
7955.00,1.38
7954.00,1.38
7953.00,1.38
7952.00,1.39
7951.00,1.39
7950.00,1.39
7949.00,1.39
7948.00,1.39
7947.00,1.39
7946.00,1.39
7945.00,1.39
7944.00,1.39
7943.00,1.39
7942.00,1.39
7941.00,1.39
7940.00,1.39
7939.00,1.39
7938.00,1.39
7937.00,1.39
7936.00,1.39
7935.00,1.39
7934.00,1.39
7933.00,1.39
7932.00,1.39
7931.00,1.39
7930.00,1.39
7929.00,1.39
7928.00,1.40
7927.00,1.40
7926.00,1.40
7925.00,1.40
7924.00,1.40
7923.00,1.40
7922.00,1.40
7921.00,1.40
7920.00,1.40
7919.00,1.40
7918.00,1.40
7917.00,1.40
7916.00,1.40
7915.00,1.40
7914.00,1.40
7913.00,1.40
7912.00,1.40
7911.00,1.40
7910.00,1.40
7909.00,1.40
7908.00,1.40
7907.00,1.40
7906.00,1.40
7905.00,1.40
7904.00,1.40
7903.00,1.40
7902.00,1.40
7901.00,1.40
7900.00,1.40
7899.00,1.40
7898.00,1.40
7897.00,1.41
7896.00,1.41
7895.00,1.41
7894.00,1.41
7893.00,1.41
7892.00,1.41
7891.00,1.41
7890.00,1.41
7889.00,1.41
7888.00,1.41
7887.00,1.41
7886.00,1.41
7885.00,1.40
7884.00,1.40
7883.00,1.40
7882.00,1.40
7881.00,1.40
7880.00,1.40
7879.00,1.41
7878.00,1.41
7877.00,1.41
7876.00,1.41
7875.00,1.41
7874.00,1.41
7873.00,1.41
7872.00,1.41
7871.00,1.41
7870.00,1.41
7869.00,1.41
7868.00,1.41
7867.00,1.41
7866.00,1.41
7865.00,1.41
7864.00,1.41
7863.00,1.41
7862.00,1.41
7861.00,1.41
7860.00,1.41
7859.00,1.41
7858.00,1.41
7857.00,1.41
7856.00,1.41
7855.00,1.41
7854.00,1.41
7853.00,1.41
7852.00,1.41
7851.00,1.41
7850.00,1.41
7849.00,1.41
7848.00,1.41
7847.00,1.41
7846.00,1.41
7845.00,1.41
7844.00,1.41
7843.00,1.41
7842.00,1.41
7841.00,1.41
7840.00,1.41
7839.00,1.40
7838.00,1.40
7837.00,1.40
7836.00,1.40
7835.00,1.40
7834.00,1.40
7833.00,1.40
7832.00,1.40
7831.00,1.40
7830.00,1.41
7829.00,1.41
7828.00,1.41
7827.00,1.41
7826.00,1.41
7825.00,1.41
7824.00,1.41
7823.00,1.41
7822.00,1.41
7821.00,1.41
7820.00,1.41
7819.00,1.41
7818.00,1.41
7817.00,1.41
7816.00,1.41
7815.00,1.41
7814.00,1.41
7813.00,1.42
7812.00,1.42
7811.00,1.42
7810.00,1.42
7809.00,1.42
7808.00,1.42
7807.00,1.42
7806.00,1.42
7805.00,1.42
7804.00,1.42
7803.00,1.42
7802.00,1.42
7801.00,1.42
7800.00,1.42
7799.00,1.42
7798.00,1.42
7797.00,1.42
7796.00,1.42
7795.00,1.42
7794.00,1.42
7793.00,1.42
7792.00,1.42
7791.00,1.42
7790.00,1.42
7789.00,1.42
7788.00,1.42
7787.00,1.42
7786.00,1.42
7785.00,1.42
7784.00,1.42
7783.00,1.42
7782.00,1.42
7781.00,1.42
7780.00,1.42
7779.00,1.42
7778.00,1.42
7777.00,1.42
7776.00,1.42
7775.00,1.43
7774.00,1.43
7773.00,1.43
7772.00,1.43
7771.00,1.43
7770.00,1.43
7769.00,1.43
7768.00,1.43
7767.00,1.43
7766.00,1.43
7765.00,1.43
7764.00,1.43
7763.00,1.43
7762.00,1.43
7761.00,1.43
7760.00,1.43
7759.00,1.43
7758.00,1.43
7757.00,1.42
7756.00,1.42
7755.00,1.42
7754.00,1.42
7753.00,1.42
7752.00,1.42
7751.00,1.42
7750.00,1.42
7749.00,1.42
7748.00,1.42
7747.00,1.42
7746.00,1.42
7745.00,1.42
7744.00,1.42
7743.00,1.42
7742.00,1.42
7741.00,1.42
7740.00,1.42
7739.00,1.42
7738.00,1.42
7737.00,1.42
7736.00,1.42
7735.00,1.42
7734.00,1.42
7733.00,1.42
7732.00,1.42
7731.00,1.42
7730.00,1.42
7729.00,1.42
7728.00,1.42
7727.00,1.42
7726.00,1.42
7725.00,1.42
7724.00,1.42
7723.00,1.42
7722.00,1.42
7721.00,1.42
7720.00,1.42
7719.00,1.42
7718.00,1.42
7717.00,1.42
7716.00,1.42
7715.00,1.42
7714.00,1.42
7713.00,1.42
7712.00,1.42
7711.00,1.42
7710.00,1.42
7709.00,1.42
7708.00,1.42
7707.00,1.42
7706.00,1.42
7705.00,1.42
7704.00,1.43
7703.00,1.43
7702.00,1.43
7701.00,1.43
7700.00,1.43
7699.00,1.43
7698.00,1.43
7697.00,1.43
7696.00,1.43
7695.00,1.43
7694.00,1.43
7693.00,1.43
7692.00,1.43
7691.00,1.42
7690.00,1.42
7689.00,1.42
7688.00,1.42
7687.00,1.42
7686.00,1.42
7685.00,1.42
7684.00,1.42
7683.00,1.42
7682.00,1.42
7681.00,1.42
7680.00,1.42
7679.00,1.42
7678.00,1.42
7677.00,1.42
7676.00,1.42
7675.00,1.42
7674.00,1.42
7673.00,1.42
7672.00,1.42
7671.00,1.42
7670.00,1.42
7669.00,1.42
7668.00,1.42
7667.00,1.42
7666.00,1.42
7665.00,1.42
7664.00,1.42
7663.00,1.42
7662.00,1.42
7661.00,1.42
7660.00,1.42
7659.00,1.42
7658.00,1.42
7657.00,1.42
7656.00,1.42
7655.00,1.42
7654.00,1.42
7653.00,1.42
7652.00,1.43
7651.00,1.43
7650.00,1.43
7649.00,1.43
7648.00,1.43
7647.00,1.43
7646.00,1.43
7645.00,1.43
7644.00,1.43
7643.00,1.43
7642.00,1.43
7641.00,1.43
7640.00,1.43
7639.00,1.43
7638.00,1.43
7637.00,1.43
7636.00,1.43
7635.00,1.43
7634.00,1.43
7633.00,1.43
7632.00,1.43
7631.00,1.43
7630.00,1.43
7629.00,1.43
7628.00,1.43
7627.00,1.43
7626.00,1.43
7625.00,1.43
7624.00,1.43
7623.00,1.43
7622.00,1.43
7621.00,1.43
7620.00,1.43
7619.00,1.42
7618.00,1.42
7617.00,1.42
7616.00,1.42
7615.00,1.42
7614.00,1.42
7613.00,1.42
7612.00,1.42
7611.00,1.42
7610.00,1.42
7609.00,1.42
7608.00,1.42
7607.00,1.42
7606.00,1.42
7605.00,1.42
7604.00,1.42
7603.00,1.42
7602.00,1.42
7601.00,1.42
7600.00,1.43
7599.00,1.43
7598.00,1.43
7597.00,1.43
7596.00,1.43
7595.00,1.43
7594.00,1.43
7593.00,1.43
7592.00,1.42
7591.00,1.42
7590.00,1.42
7589.00,1.42
7588.00,1.42
7587.00,1.42
7586.00,1.42
7585.00,1.42
7584.00,1.42
7583.00,1.42
7582.00,1.42
7581.00,1.42
7580.00,1.42
7579.00,1.42
7578.00,1.42
7577.00,1.41
7576.00,1.41
7575.00,1.41
7574.00,1.41
7573.00,1.41
7572.00,1.41
7571.00,1.41
7570.00,1.41
7569.00,1.41
7568.00,1.41
7567.00,1.41
7566.00,1.41
7565.00,1.41
7564.00,1.41
7563.00,1.41
7562.00,1.41
7561.00,1.41
7560.00,1.41
7559.00,1.41
7558.00,1.41
7557.00,1.41
7556.00,1.41
7555.00,1.41
7554.00,1.42
7553.00,1.42
7552.00,1.42
7551.00,1.42
7550.00,1.42
7549.00,1.42
7548.00,1.42
7547.00,1.42
7546.00,1.42
7545.00,1.42
7544.00,1.42
7543.00,1.42
7542.00,1.42
7541.00,1.42
7540.00,1.42
7539.00,1.41
7538.00,1.41
7537.00,1.41
7536.00,1.41
7535.00,1.41
7534.00,1.41
7533.00,1.41
7532.00,1.41
7531.00,1.41
7530.00,1.41
7529.00,1.41
7528.00,1.41
7527.00,1.41
7526.00,1.41
7525.00,1.41
7524.00,1.41
7523.00,1.41
7522.00,1.41
7521.00,1.41
7520.00,1.41
7519.00,1.41
7518.00,1.41
7517.00,1.41
7516.00,1.41
7515.00,1.41
7514.00,1.41
7513.00,1.40
7512.00,1.40
7511.00,1.40
7510.00,1.40
7509.00,1.40
7508.00,1.40
7507.00,1.40
7506.00,1.40
7505.00,1.40
7504.00,1.40
7503.00,1.40
7502.00,1.40
7501.00,1.40
7500.00,1.40
7499.00,1.40
7498.00,1.40
7497.00,1.40
7496.00,1.39
7495.00,1.39
7494.00,1.39
7493.00,1.39
7492.00,1.39
7491.00,1.39
7490.00,1.39
7489.00,1.39
7488.00,1.39
7487.00,1.39
7486.00,1.39
7485.00,1.39
7484.00,1.39
7483.00,1.39
7482.00,1.39
7481.00,1.39
7480.00,1.39
7479.00,1.39
7478.00,1.39
7477.00,1.39
7476.00,1.39
7475.00,1.39
7474.00,1.39
7473.00,1.39
7472.00,1.38
7471.00,1.38
7470.00,1.38
7469.00,1.38
7468.00,1.38
7467.00,1.38
7466.00,1.37
7465.00,1.37
7464.00,1.37
7463.00,1.37
7462.00,1.37
7461.00,1.37
7460.00,1.37
7459.00,1.37
7458.00,1.37
7457.00,1.37
7456.00,1.37
7455.00,1.37
7454.00,1.36
7453.00,1.36
7452.00,1.36
7451.00,1.36
7450.00,1.36
7449.00,1.36
7448.00,1.36
7447.00,1.36
7446.00,1.36
7445.00,1.36
7444.00,1.36
7443.00,1.36
7442.00,1.36
7441.00,1.36
7440.00,1.36
7439.00,1.36
7438.00,1.35
7437.00,1.35
7436.00,1.35
7435.00,1.35
7434.00,1.35
7433.00,1.35
7432.00,1.35
7431.00,1.35
7430.00,1.35
7429.00,1.35
7428.00,1.34
7427.00,1.34
7426.00,1.34
7425.00,1.34
7424.00,1.34
7423.00,1.34
7422.00,1.34
7421.00,1.34
7420.00,1.33
7419.00,1.33
7418.00,1.33
7417.00,1.33
7416.00,1.33
7415.00,1.33
7414.00,1.33
7413.00,1.33
7412.00,1.33
7411.00,1.33
7410.00,1.33
7409.00,1.33
7408.00,1.33
7407.00,1.32
7406.00,1.32
7405.00,1.32
7404.00,1.32
7403.00,1.32
7402.00,1.32
7401.00,1.31
7400.00,1.31
7399.00,1.31
7398.00,1.31
7397.00,1.31
7396.00,1.30
7395.00,1.30
7394.00,1.30
7393.00,1.30
7392.00,1.30
7391.00,1.29
7390.00,1.29
7389.00,1.29
7388.00,1.29
7387.00,1.29
7386.00,1.29
7385.00,1.29
7384.00,1.29
7383.00,1.28
7382.00,1.28
7381.00,1.28
7380.00,1.28
7379.00,1.28
7378.00,1.28
7377.00,1.28
7376.00,1.28
7375.00,1.28
7374.00,1.28
7373.00,1.28
7372.00,1.28
7371.00,1.28
7370.00,1.28
7369.00,1.28
7368.00,1.28
7367.00,1.28
7366.00,1.28
7365.00,1.28
7364.00,1.28
7363.00,1.28
7362.00,1.28
7361.00,1.28
7360.00,1.28
7359.00,1.28
7358.00,1.28
7357.00,1.28
7356.00,1.28
7355.00,1.28
7354.00,1.27
7353.00,1.27
7352.00,1.27
7351.00,1.27
7350.00,1.27
7349.00,1.27
7348.00,1.27
7347.00,1.27
7346.00,1.27
7345.00,1.27
7344.00,1.27
7343.00,1.27
7342.00,1.27
7341.00,1.26
7340.00,1.26
7339.00,1.26
7338.00,1.26
7337.00,1.26
7336.00,1.26
7335.00,1.26
7334.00,1.26
7333.00,1.26
7332.00,1.26
7331.00,1.26
7330.00,1.26
7329.00,1.26
7328.00,1.26
7327.00,1.26
7326.00,1.25
7325.00,1.25
7324.00,1.25
7323.00,1.25
7322.00,1.25
7321.00,1.25
7320.00,1.25
7319.00,1.25
7318.00,1.25
7317.00,1.25
7316.00,1.25
7315.00,1.25
7314.00,1.25
7313.00,1.25
7312.00,1.25
7311.00,1.25
7310.00,1.25
7309.00,1.25
7308.00,1.24
7307.00,1.24
7306.00,1.24
7305.00,1.24
7304.00,1.24
7303.00,1.24
7302.00,1.24
7301.00,1.23
7300.00,1.23
7299.00,1.23
7298.00,1.23
7297.00,1.23
7296.00,1.23
7295.00,1.23
7294.00,1.22
7293.00,1.22
7292.00,1.22
7291.00,1.22
7290.00,1.22
7289.00,1.22
7288.00,1.22
7287.00,1.22
7286.00,1.22
7285.00,1.22
7284.00,1.21
7283.00,1.21
7282.00,1.21
7281.00,1.21
7280.00,1.21
7279.00,1.21
7278.00,1.21
7277.00,1.21
7276.00,1.21
7275.00,1.20
7274.00,1.20
7273.00,1.20
7272.00,1.20
7271.00,1.20
7270.00,1.20
7269.00,1.20
7268.00,1.19
7267.00,1.19
7266.00,1.19
7265.00,1.19
7264.00,1.19
7263.00,1.18
7262.00,1.18
7261.00,1.18
7260.00,1.18
7259.00,1.17
7258.00,1.17
7257.00,1.17
7256.00,1.17
7255.00,1.17
7254.00,1.16
7253.00,1.16
7252.00,1.16
7251.00,1.16
7250.00,1.15
7249.00,1.15
7248.00,1.15
7247.00,1.15
7246.00,1.14
7245.00,1.14
7244.00,1.14
7243.00,1.13
7242.00,1.13
7241.00,1.13
7240.00,1.12
7239.00,1.12
7238.00,1.12
7237.00,1.11
7236.00,1.11
7235.00,1.11
7234.00,1.10
7233.00,1.10
7232.00,1.10
7231.00,1.09
7230.00,1.09
7229.00,1.09
7228.00,1.09
7227.00,1.08
7226.00,1.08
7225.00,1.08
7224.00,1.07
7223.00,1.07
7222.00,1.07
7221.00,1.06
7220.00,1.06
7219.00,1.06
7218.00,1.05
7217.00,1.05
7216.00,1.05
7215.00,1.04
7214.00,1.04
7213.00,1.04
7212.00,1.03
7211.00,1.03
7210.00,1.02
7209.00,1.02
7208.00,1.02
7207.00,1.01
7206.00,1.01
7205.00,1.00
7204.00,1.00
7203.00,1.00
7202.00,0.99
7201.00,0.99
7200.00,0.99
7199.00,0.98
7198.00,0.98
7197.00,0.97
7196.00,0.97
7195.00,0.97
7194.00,0.96
7193.00,0.96
7192.00,0.96
7191.00,0.95
7190.00,0.95
7189.00,0.94
7188.00,0.94
7187.00,0.94
7186.00,0.93
7185.00,0.93
7184.00,0.92
7183.00,0.92
7182.00,0.92
7181.00,0.91
7180.00,0.91
7179.00,0.91
7178.00,0.90
7177.00,0.90
7176.00,0.90
7175.00,0.89
7174.00,0.89
7173.00,0.89
7172.00,0.88
7171.00,0.88
7170.00,0.88
7169.00,0.87
7168.00,0.87
7167.00,0.87
7166.00,0.86
7165.00,0.86
7164.00,0.85
7163.00,0.85
7162.00,0.85
7161.00,0.84
7160.00,0.84
7159.00,0.84
7158.00,0.83
7157.00,0.83
7156.00,0.83
7155.00,0.82
7154.00,0.82
7153.00,0.82
7152.00,0.82
7151.00,0.81
7150.00,0.81
7149.00,0.81
7148.00,0.80
7147.00,0.80
7146.00,0.80
7145.00,0.79
7144.00,0.79
7143.00,0.79
7142.00,0.79
7141.00,0.78
7140.00,0.78
7139.00,0.78
7138.00,0.77
7137.00,0.77
7136.00,0.77
7135.00,0.76
7134.00,0.76
7133.00,0.76
7132.00,0.75
7131.00,0.75
7130.00,0.75
7129.00,0.75
7128.00,0.74
7127.00,0.74
7126.00,0.74
7125.00,0.74
7124.00,0.73
7123.00,0.73
7122.00,0.73
7121.00,0.73
7120.00,0.72
7119.00,0.72
7118.00,0.72
7117.00,0.72
7116.00,0.71
7115.00,0.71
7114.00,0.71
7113.00,0.70
7112.00,0.70
7111.00,0.70
7110.00,0.69
7109.00,0.69
7108.00,0.69
7107.00,0.69
7106.00,0.68
7105.00,0.68
7104.00,0.68
7103.00,0.67
7102.00,0.67
7101.00,0.67
7100.00,0.67
7099.00,0.66
7098.00,0.66
7097.00,0.66
7096.00,0.66
7095.00,0.65
7094.00,0.65
7093.00,0.65
7092.00,0.65
7091.00,0.65
7090.00,0.65
7089.00,0.64
7088.00,0.64
7087.00,0.64
7086.00,0.64
7085.00,0.64
7084.00,0.63
7083.00,0.63
7082.00,0.63
7081.00,0.63
7080.00,0.63
7079.00,0.62
7078.00,0.62
7077.00,0.62
7076.00,0.62
7075.00,0.61
7074.00,0.61
7073.00,0.61
7072.00,0.61
7071.00,0.61
7070.00,0.60
7069.00,0.60
7068.00,0.60
7067.00,0.60
7066.00,0.60
7065.00,0.60
7064.00,0.60
7063.00,0.59
7062.00,0.59
7061.00,0.59
7060.00,0.59
7059.00,0.59
7058.00,0.59
7057.00,0.59
7056.00,0.59
7055.00,0.58
7054.00,0.58
7053.00,0.58
7052.00,0.58
7051.00,0.58
7050.00,0.58
7049.00,0.57
7048.00,0.57
7047.00,0.57
7046.00,0.57
7045.00,0.57
7044.00,0.57
7043.00,0.57
7042.00,0.57
7041.00,0.56
7040.00,0.56
7039.00,0.56
7038.00,0.56
7037.00,0.56
7036.00,0.56
7035.00,0.56
7034.00,0.56
7033.00,0.56
7032.00,0.55
7031.00,0.55
7030.00,0.55
7029.00,0.55
7028.00,0.55
7027.00,0.55
7026.00,0.55
7025.00,0.55
7024.00,0.55
7023.00,0.55
7022.00,0.54
7021.00,0.54
7020.00,0.54
7019.00,0.54
7018.00,0.54
7017.00,0.54
7016.00,0.54
7015.00,0.54
7014.00,0.54
7013.00,0.54
7012.00,0.54
7011.00,0.53
7010.00,0.53
7009.00,0.53
7008.00,0.53
7007.00,0.53
7006.00,0.53
7005.00,0.53
7004.00,0.53
7003.00,0.53
7002.00,0.53
7001.00,0.53
7000.00,0.53
6999.00,0.53
6998.00,0.53
6997.00,0.53
6996.00,0.53
6995.00,0.53
6994.00,0.53
6993.00,0.53
6992.00,0.52
6991.00,0.52
6990.00,0.52
6989.00,0.52
6988.00,0.52
6987.00,0.52
6986.00,0.52
6985.00,0.52
6984.00,0.52
6983.00,0.52
6982.00,0.51
6981.00,0.51
6980.00,0.51
6979.00,0.51
6978.00,0.51
6977.00,0.51
6976.00,0.51
6975.00,0.51
6974.00,0.51
6973.00,0.51
6972.00,0.51
6971.00,0.51
6970.00,0.51
6969.00,0.51
6968.00,0.51
6967.00,0.51
6966.00,0.51
6965.00,0.51
6964.00,0.51
6963.00,0.51
6962.00,0.51
6961.00,0.51
6960.00,0.51
6959.00,0.51
6958.00,0.51
6957.00,0.51
6956.00,0.51
6955.00,0.51
6954.00,0.51
6953.00,0.51
6952.00,0.51
6951.00,0.51
6950.00,0.51
6949.00,0.51
6948.00,0.51
6947.00,0.51
6946.00,0.51
6945.00,0.51
6944.00,0.51
6943.00,0.51
6942.00,0.51
6941.00,0.51
6940.00,0.51
6939.00,0.51
6938.00,0.51
6937.00,0.51
6936.00,0.51
6935.00,0.51
6934.00,0.51
6933.00,0.51
6932.00,0.50
6931.00,0.50
6930.00,0.50
6929.00,0.50
6928.00,0.50
6927.00,0.50
6926.00,0.50
6925.00,0.50
6924.00,0.50
6923.00,0.50
6922.00,0.49
6921.00,0.49
6920.00,0.49
6919.00,0.49
6918.00,0.49
6917.00,0.49
6916.00,0.49
6915.00,0.49
6914.00,0.49
6913.00,0.49
6912.00,0.49
6911.00,0.49
6910.00,0.49
6909.00,0.49
6908.00,0.49
6907.00,0.49
6906.00,0.49
6905.00,0.49
6904.00,0.49
6903.00,0.49
6902.00,0.49
6901.00,0.49
6900.00,0.49
6899.00,0.49
6898.00,0.49
6897.00,0.49
6896.00,0.49
6895.00,0.49
6894.00,0.49
6893.00,0.49
6892.00,0.49
6891.00,0.49
6890.00,0.49
6889.00,0.49
6888.00,0.49
6887.00,0.49
6886.00,0.49
6885.00,0.49
6884.00,0.49
6883.00,0.49
6882.00,0.48
6881.00,0.48
6880.00,0.48
6879.00,0.48
6878.00,0.48
6877.00,0.48
6876.00,0.48
6875.00,0.48
6874.00,0.48
6873.00,0.48
6872.00,0.48
6871.00,0.48
6870.00,0.48
6869.00,0.48
6868.00,0.48
6867.00,0.48
6866.00,0.48
6865.00,0.48
6864.00,0.48
6863.00,0.48
6862.00,0.48
6861.00,0.48
6860.00,0.48
6859.00,0.48
6858.00,0.48
6857.00,0.48
6856.00,0.48
6855.00,0.48
6854.00,0.48
6853.00,0.48
6852.00,0.48
6851.00,0.48
6850.00,0.48
6849.00,0.48
6848.00,0.48
6847.00,0.49
6846.00,0.49
6845.00,0.49
6844.00,0.49
6843.00,0.49
6842.00,0.49
6841.00,0.49
6840.00,0.49
6839.00,0.49
6838.00,0.49
6837.00,0.49
6836.00,0.49
6835.00,0.49
6834.00,0.49
6833.00,0.49
6832.00,0.49
6831.00,0.49
6830.00,0.49
6829.00,0.49
6828.00,0.49
6827.00,0.49
6826.00,0.49
6825.00,0.49
6824.00,0.49
6823.00,0.49
6822.00,0.49
6821.00,0.50
6820.00,0.50
6819.00,0.50
6818.00,0.50
6817.00,0.50
6816.00,0.50
6815.00,0.50
6814.00,0.50
6813.00,0.50
6812.00,0.50
6811.00,0.50
6810.00,0.50
6809.00,0.50
6808.00,0.50
6807.00,0.50
6806.00,0.50
6805.00,0.50
6804.00,0.50
6803.00,0.50
6802.00,0.50
6801.00,0.50
6800.00,0.50
6799.00,0.50
6798.00,0.50
6797.00,0.50
6796.00,0.50
6795.00,0.50
6794.00,0.50
6793.00,0.50
6792.00,0.50
6791.00,0.50
6790.00,0.50
6789.00,0.50
6788.00,0.50
6787.00,0.50
6786.00,0.50
6785.00,0.50
6784.00,0.50
6783.00,0.50
6782.00,0.51
6781.00,0.51
6780.00,0.51
6779.00,0.51
6778.00,0.51
6777.00,0.51
6776.00,0.51
6775.00,0.51
6774.00,0.52
6773.00,0.52
6772.00,0.52
6771.00,0.52
6770.00,0.52
6769.00,0.52
6768.00,0.52
6767.00,0.52
6766.00,0.52
6765.00,0.52
6764.00,0.52
6763.00,0.52
6762.00,0.52
6761.00,0.52
6760.00,0.52
6759.00,0.52
6758.00,0.52
6757.00,0.52
6756.00,0.52
6755.00,0.52
6754.00,0.53
6753.00,0.53
6752.00,0.53
6751.00,0.53
6750.00,0.53
6749.00,0.53
6748.00,0.53
6747.00,0.53
6746.00,0.53
6745.00,0.53
6744.00,0.53
6743.00,0.53
6742.00,0.54
6741.00,0.54
6740.00,0.54
6739.00,0.54
6738.00,0.54
6737.00,0.54
6736.00,0.54
6735.00,0.54
6734.00,0.55
6733.00,0.55
6732.00,0.55
6731.00,0.55
6730.00,0.55
6729.00,0.55
6728.00,0.55
6727.00,0.55
6726.00,0.55
6725.00,0.56
6724.00,0.56
6723.00,0.56
6722.00,0.56
6721.00,0.56
6720.00,0.56
6719.00,0.56
6718.00,0.56
6717.00,0.56
6716.00,0.56
6715.00,0.56
6714.00,0.56
6713.00,0.56
6712.00,0.56
6711.00,0.56
6710.00,0.56
6709.00,0.56
6708.00,0.56
6707.00,0.56
6706.00,0.56
6705.00,0.57
6704.00,0.57
6703.00,0.57
6702.00,0.57
6701.00,0.57
6700.00,0.57
6699.00,0.57
6698.00,0.57
6697.00,0.57
6696.00,0.57
6695.00,0.57
6694.00,0.57
6693.00,0.58
6692.00,0.58
6691.00,0.58
6690.00,0.58
6689.00,0.58
6688.00,0.58
6687.00,0.58
6686.00,0.58
6685.00,0.58
6684.00,0.58
6683.00,0.58
6682.00,0.58
6681.00,0.58
6680.00,0.58
6679.00,0.58
6678.00,0.59
6677.00,0.59
6676.00,0.59
6675.00,0.59
6674.00,0.59
6673.00,0.59
6672.00,0.59
6671.00,0.59
6670.00,0.59
6669.00,0.59
6668.00,0.59
6667.00,0.59
6666.00,0.59
6665.00,0.59
6664.00,0.59
6663.00,0.59
6662.00,0.59
6661.00,0.60
6660.00,0.60
6659.00,0.60
6658.00,0.60
6657.00,0.60
6656.00,0.60
6655.00,0.60
6654.00,0.60
6653.00,0.60
6652.00,0.61
6651.00,0.61
6650.00,0.61
6649.00,0.61
6648.00,0.61
6647.00,0.61
6646.00,0.61
6645.00,0.61
6644.00,0.62
6643.00,0.62
6642.00,0.62
6641.00,0.62
6640.00,0.62
6639.00,0.62
6638.00,0.62
6637.00,0.62
6636.00,0.62
6635.00,0.62
6634.00,0.62
6633.00,0.62
6632.00,0.62
6631.00,0.63
6630.00,0.63
6629.00,0.63
6628.00,0.63
6627.00,0.63
6626.00,0.63
6625.00,0.63
6624.00,0.63
6623.00,0.63
6622.00,0.63
6621.00,0.63
6620.00,0.64
6619.00,0.64
6618.00,0.64
6617.00,0.64
6616.00,0.64
6615.00,0.64
6614.00,0.64
6613.00,0.64
6612.00,0.64
6611.00,0.64
6610.00,0.65
6609.00,0.65
6608.00,0.65
6607.00,0.65
6606.00,0.65
6605.00,0.65
6604.00,0.65
6603.00,0.65
6602.00,0.66
6601.00,0.66
6600.00,0.66
6599.00,0.66
6598.00,0.66
6597.00,0.66
6596.00,0.66
6595.00,0.67
6594.00,0.67
6593.00,0.67
6592.00,0.67
6591.00,0.67
6590.00,0.67
6589.00,0.67
6588.00,0.67
6587.00,0.67
6586.00,0.67
6585.00,0.68
6584.00,0.68
6583.00,0.68
6582.00,0.68
6581.00,0.68
6580.00,0.68
6579.00,0.68
6578.00,0.68
6577.00,0.68
6576.00,0.68
6575.00,0.68
6574.00,0.69
6573.00,0.69
6572.00,0.69
6571.00,0.69
6570.00,0.69
6569.00,0.69
6568.00,0.69
6567.00,0.70
6566.00,0.70
6565.00,0.70
6564.00,0.70
6563.00,0.70
6562.00,0.70
6561.00,0.70
6560.00,0.70
6559.00,0.70
6558.00,0.71
6557.00,0.71
6556.00,0.71
6555.00,0.71
6554.00,0.71
6553.00,0.71
6552.00,0.71
6551.00,0.71
6550.00,0.71
6549.00,0.71
6548.00,0.71
6547.00,0.71
6546.00,0.72
6545.00,0.72
6544.00,0.72
6543.00,0.72
6542.00,0.72
6541.00,0.72
6540.00,0.72
6539.00,0.72
6538.00,0.72
6537.00,0.72
6536.00,0.73
6535.00,0.73
6534.00,0.73
6533.00,0.73
6532.00,0.73
6531.00,0.73
6530.00,0.73
6529.00,0.73
6528.00,0.73
6527.00,0.73
6526.00,0.73
6525.00,0.73
6524.00,0.73
6523.00,0.74
6522.00,0.74
6521.00,0.74
6520.00,0.74
6519.00,0.74
6518.00,0.74
6517.00,0.74
6516.00,0.74
6515.00,0.74
6514.00,0.74
6513.00,0.74
6512.00,0.74
6511.00,0.74
6510.00,0.74
6509.00,0.74
6508.00,0.75
6507.00,0.75
6506.00,0.75
6505.00,0.75
6504.00,0.75
6503.00,0.75
6502.00,0.75
6501.00,0.75
6500.00,0.75
6499.00,0.76
6498.00,0.76
6497.00,0.76
6496.00,0.76
6495.00,0.76
6494.00,0.76
6493.00,0.76
6492.00,0.76
6491.00,0.76
6490.00,0.76
6489.00,0.77
6488.00,0.77
6487.00,0.77
6486.00,0.77
6485.00,0.77
6484.00,0.77
6483.00,0.77
6482.00,0.77
6481.00,0.77
6480.00,0.77
6479.00,0.77
6478.00,0.77
6477.00,0.77
6476.00,0.77
6475.00,0.77
6474.00,0.77
6473.00,0.77
6472.00,0.77
6471.00,0.78
6470.00,0.78
6469.00,0.78
6468.00,0.78
6467.00,0.78
6466.00,0.78
6465.00,0.78
6464.00,0.78
6463.00,0.78
6462.00,0.78
6461.00,0.78
6460.00,0.78
6459.00,0.79
6458.00,0.79
6457.00,0.79
6456.00,0.79
6455.00,0.79
6454.00,0.79
6453.00,0.79
6452.00,0.79
6451.00,0.79
6450.00,0.79
6449.00,0.79
6448.00,0.79
6447.00,0.79
6446.00,0.79
6445.00,0.79
6444.00,0.79
6443.00,0.79
6442.00,0.79
6441.00,0.79
6440.00,0.79
6439.00,0.79
6438.00,0.80
6437.00,0.80
6436.00,0.80
6435.00,0.80
6434.00,0.80
6433.00,0.80
6432.00,0.80
6431.00,0.80
6430.00,0.80
6429.00,0.80
6428.00,0.81
6427.00,0.81
6426.00,0.81
6425.00,0.81
6424.00,0.81
6423.00,0.81
6422.00,0.81
6421.00,0.81
6420.00,0.81
6419.00,0.81
6418.00,0.81
6417.00,0.81
6416.00,0.82
6415.00,0.82
6414.00,0.82
6413.00,0.82
6412.00,0.82
6411.00,0.82
6410.00,0.82
6409.00,0.82
6408.00,0.82
6407.00,0.82
6406.00,0.82
6405.00,0.82
6404.00,0.82
6403.00,0.82
6402.00,0.82
6401.00,0.82
6400.00,0.82
6399.00,0.82
6398.00,0.83
6397.00,0.83
6396.00,0.83
6395.00,0.83
6394.00,0.83
6393.00,0.83
6392.00,0.83
6391.00,0.83
6390.00,0.83
6389.00,0.83
6388.00,0.83
6387.00,0.83
6386.00,0.83
6385.00,0.83
6384.00,0.83
6383.00,0.83
6382.00,0.84
6381.00,0.84
6380.00,0.84
6379.00,0.84
6378.00,0.84
6377.00,0.84
6376.00,0.84
6375.00,0.84
6374.00,0.84
6373.00,0.84
6372.00,0.84
6371.00,0.84
6370.00,0.85
6369.00,0.85
6368.00,0.85
6367.00,0.85
6366.00,0.85
6365.00,0.85
6364.00,0.85
6363.00,0.85
6362.00,0.85
6361.00,0.86
6360.00,0.86
6359.00,0.86
6358.00,0.86
6357.00,0.86
6356.00,0.86
6355.00,0.86
6354.00,0.86
6353.00,0.86
6352.00,0.87
6351.00,0.87
6350.00,0.87
6349.00,0.87
6348.00,0.87
6347.00,0.87
6346.00,0.87
6345.00,0.87
6344.00,0.87
6343.00,0.87
6342.00,0.87
6341.00,0.87
6340.00,0.88
6339.00,0.88
6338.00,0.88
6337.00,0.88
6336.00,0.88
6335.00,0.88
6334.00,0.88
6333.00,0.88
6332.00,0.88
6331.00,0.88
6330.00,0.88
6329.00,0.89
6328.00,0.89
6327.00,0.89
6326.00,0.89
6325.00,0.89
6324.00,0.89
6323.00,0.89
6322.00,0.89
6321.00,0.89
6320.00,0.90
6319.00,0.90
6318.00,0.90
6317.00,0.90
6316.00,0.90
6315.00,0.90
6314.00,0.90
6313.00,0.90
6312.00,0.91
6311.00,0.91
6310.00,0.91
6309.00,0.91
6308.00,0.91
6307.00,0.91
6306.00,0.91
6305.00,0.92
6304.00,0.92
6303.00,0.92
6302.00,0.92
6301.00,0.92
6300.00,0.92
6299.00,0.92
6298.00,0.92
6297.00,0.92
6296.00,0.92
6295.00,0.93
6294.00,0.93
6293.00,0.93
6292.00,0.93
6291.00,0.93
6290.00,0.93
6289.00,0.93
6288.00,0.93
6287.00,0.93
6286.00,0.93
6285.00,0.94
6284.00,0.94
6283.00,0.94
6282.00,0.94
6281.00,0.94
6280.00,0.94
6279.00,0.94
6278.00,0.94
6277.00,0.95
6276.00,0.95
6275.00,0.95
6274.00,0.95
6273.00,0.95
6272.00,0.95
6271.00,0.96
6270.00,0.96
6269.00,0.96
6268.00,0.96
6267.00,0.96
6266.00,0.97
6265.00,0.97
6264.00,0.97
6263.00,0.97
6262.00,0.97
6261.00,0.97
6260.00,0.98
6259.00,0.98
6258.00,0.98
6257.00,0.98
6256.00,0.98
6255.00,0.98
6254.00,0.98
6253.00,0.98
6252.00,0.99
6251.00,0.99
6250.00,0.99
6249.00,0.99
6248.00,0.99
6247.00,0.99
6246.00,0.99
6245.00,0.99
6244.00,0.99
6243.00,0.99
6242.00,1.00
6241.00,1.00
6240.00,1.00
6239.00,1.00
6238.00,1.00
6237.00,1.00
6236.00,1.01
6235.00,1.01
6234.00,1.01
6233.00,1.01
6232.00,1.01
6231.00,1.02
6230.00,1.02
6229.00,1.02
6228.00,1.02
6227.00,1.02
6226.00,1.02
6225.00,1.03
6224.00,1.03
6223.00,1.03
6222.00,1.03
6221.00,1.03
6220.00,1.03
6219.00,1.03
6218.00,1.04
6217.00,1.04
6216.00,1.04
6215.00,1.04
6214.00,1.04
6213.00,1.04
6212.00,1.04
6211.00,1.05
6210.00,1.05
6209.00,1.05
6208.00,1.05
6207.00,1.05
6206.00,1.05
6205.00,1.05
6204.00,1.06
6203.00,1.06
6202.00,1.06
6201.00,1.06
6200.00,1.06
6199.00,1.06
6198.00,1.07
6197.00,1.07
6196.00,1.07
6195.00,1.07
6194.00,1.07
6193.00,1.07
6192.00,1.07
6191.00,1.07
6190.00,1.08
6189.00,1.08
6188.00,1.08
6187.00,1.08
6186.00,1.08
6185.00,1.08
6184.00,1.09
6183.00,1.09
6182.00,1.09
6181.00,1.09
6180.00,1.09
6179.00,1.10
6178.00,1.10
6177.00,1.10
6176.00,1.10
6175.00,1.11
6174.00,1.11
6173.00,1.11
6172.00,1.11
6171.00,1.11
6170.00,1.12
6169.00,1.12
6168.00,1.12
6167.00,1.12
6166.00,1.12
6165.00,1.12
6164.00,1.12
6163.00,1.12
6162.00,1.13
6161.00,1.13
6160.00,1.13
6159.00,1.13
6158.00,1.13
6157.00,1.13
6156.00,1.13
6155.00,1.14
6154.00,1.14
6153.00,1.14
6152.00,1.14
6151.00,1.14
6150.00,1.14
6149.00,1.15
6148.00,1.15
6147.00,1.15
6146.00,1.15
6145.00,1.15
6144.00,1.15
6143.00,1.15
6142.00,1.16
6141.00,1.16
6140.00,1.16
6139.00,1.16
6138.00,1.16
6137.00,1.16
6136.00,1.17
6135.00,1.17
6134.00,1.17
6133.00,1.17
6132.00,1.17
6131.00,1.18
6130.00,1.18
6129.00,1.18
6128.00,1.18
6127.00,1.18
6126.00,1.18
6125.00,1.19
6124.00,1.19
6123.00,1.19
6122.00,1.19
6121.00,1.19
6120.00,1.19
6119.00,1.20
6118.00,1.20
6117.00,1.20
6116.00,1.20
6115.00,1.20
6114.00,1.20
6113.00,1.20
6112.00,1.20
6111.00,1.21
6110.00,1.21
6109.00,1.21
6108.00,1.21
6107.00,1.21
6106.00,1.21
6105.00,1.21
6104.00,1.22
6103.00,1.22
6102.00,1.22
6101.00,1.22
6100.00,1.22
6099.00,1.22
6098.00,1.23
6097.00,1.23
6096.00,1.23
6095.00,1.23
6094.00,1.23
6093.00,1.23
6092.00,1.23
6091.00,1.24
6090.00,1.24
6089.00,1.24
6088.00,1.24
6087.00,1.24
6086.00,1.24
6085.00,1.24
6084.00,1.25
6083.00,1.25
6082.00,1.25
6081.00,1.25
6080.00,1.25
6079.00,1.25
6078.00,1.26
6077.00,1.26
6076.00,1.26
6075.00,1.26
6074.00,1.26
6073.00,1.26
6072.00,1.27
6071.00,1.27
6070.00,1.27
6069.00,1.27
6068.00,1.27
6067.00,1.27
6066.00,1.28
6065.00,1.28
6064.00,1.28
6063.00,1.28
6062.00,1.28
6061.00,1.28
6060.00,1.29
6059.00,1.29
6058.00,1.29
6057.00,1.29
6056.00,1.29
6055.00,1.29
6054.00,1.29
6053.00,1.29
6052.00,1.29
6051.00,1.30
6050.00,1.30
6049.00,1.30
6048.00,1.30
6047.00,1.30
6046.00,1.30
6045.00,1.30
6044.00,1.30
6043.00,1.30
6042.00,1.30
6041.00,1.30
6040.00,1.31
6039.00,1.31
6038.00,1.31
6037.00,1.31
6036.00,1.31
6035.00,1.31
6034.00,1.31
6033.00,1.31
6032.00,1.31
6031.00,1.31
6030.00,1.31
6029.00,1.31
6028.00,1.31
6027.00,1.31
6026.00,1.31
6025.00,1.31
6024.00,1.31
6023.00,1.32
6022.00,1.32
6021.00,1.32
6020.00,1.32
6019.00,1.32
6018.00,1.32
6017.00,1.32
6016.00,1.32
6015.00,1.32
6014.00,1.32
6013.00,1.32
6012.00,1.32
6011.00,1.32
6010.00,1.32
6009.00,1.32
6008.00,1.32
6007.00,1.32
6006.00,1.32
6005.00,1.32
6004.00,1.32
6003.00,1.32
6002.00,1.31
6001.00,1.31
6000.00,1.31
5999.00,1.31
5998.00,1.31
5997.00,1.31
5996.00,1.31
5995.00,1.31
5994.00,1.30
5993.00,1.30
5992.00,1.30
5991.00,1.30
5990.00,1.30
5989.00,1.29
5988.00,1.29
5987.00,1.29
5986.00,1.29
5985.00,1.28
5984.00,1.28
5983.00,1.28
5982.00,1.27
5981.00,1.27
5980.00,1.27
5979.00,1.26
5978.00,1.26
5977.00,1.25
5976.00,1.25
5975.00,1.24
5974.00,1.24
5973.00,1.23
5972.00,1.23
5971.00,1.22
5970.00,1.21
5969.00,1.21
5968.00,1.20
5967.00,1.19
5966.00,1.18
5965.00,1.18
5964.00,1.17
5963.00,1.16
5962.00,1.15
5961.00,1.14
5960.00,1.14
5959.00,1.13
5958.00,1.12
5957.00,1.11
5956.00,1.10
5955.00,1.10
5954.00,1.09
5953.00,1.08
5952.00,1.07
5951.00,1.07
5950.00,1.06
5949.00,1.06
5948.00,1.05
5947.00,1.04
5946.00,1.04
5945.00,1.04
5944.00,1.03
5943.00,1.03
5942.00,1.02
5941.00,1.02
5940.00,1.02
5939.00,1.02
5938.00,1.02
5937.00,1.01
5936.00,1.01
5935.00,1.01
5934.00,1.01
5933.00,1.01
5932.00,1.01
5931.00,1.01
5930.00,1.01
5929.00,1.01
5928.00,1.01
5927.00,1.01
5926.00,1.00
5925.00,1.00
5924.00,1.00
5923.00,1.00
5922.00,1.00
5921.00,0.99
5920.00,0.99
5919.00,0.99
5918.00,0.98
5917.00,0.98
5916.00,0.98
5915.00,0.97
5914.00,0.97
5913.00,0.97
5912.00,0.96
5911.00,0.96
5910.00,0.96
5909.00,0.96
5908.00,0.95
5907.00,0.95
5906.00,0.95
5905.00,0.95
5904.00,0.95
5903.00,0.95
5902.00,0.95
5901.00,0.95
5900.00,0.95
5899.00,0.95
5898.00,0.95
5897.00,0.95
5896.00,0.95
5895.00,0.95
5894.00,0.96
5893.00,0.96
5892.00,0.96
5891.00,0.96
5890.00,0.97
5889.00,0.97
5888.00,0.97
5887.00,0.98
5886.00,0.98
5885.00,0.98
5884.00,0.99
5883.00,0.99
5882.00,1.00
5881.00,1.00
5880.00,1.00
5879.00,1.01
5878.00,1.01
5877.00,1.01
5876.00,1.01
5875.00,1.02
5874.00,1.02
5873.00,1.02
5872.00,1.03
5871.00,1.03
5870.00,1.03
5869.00,1.03
5868.00,1.03
5867.00,1.04
5866.00,1.04
5865.00,1.04
5864.00,1.04
5863.00,1.04
5862.00,1.05
5861.00,1.05
5860.00,1.05
5859.00,1.05
5858.00,1.05
5857.00,1.05
5856.00,1.05
5855.00,1.05
5854.00,1.06
5853.00,1.06
5852.00,1.06
5851.00,1.06
5850.00,1.06
5849.00,1.06
5848.00,1.06
5847.00,1.06
5846.00,1.06
5845.00,1.06
5844.00,1.06
5843.00,1.06
5842.00,1.06
5841.00,1.06
5840.00,1.06
5839.00,1.06
5838.00,1.06
5837.00,1.06
5836.00,1.06
5835.00,1.06
5834.00,1.06
5833.00,1.06
5832.00,1.06
5831.00,1.06
5830.00,1.06
5829.00,1.06
5828.00,1.06
5827.00,1.06
5826.00,1.06
5825.00,1.06
5824.00,1.06
5823.00,1.06
5822.00,1.06
5821.00,1.06
5820.00,1.06
5819.00,1.06
5818.00,1.06
5817.00,1.06
5816.00,1.06
5815.00,1.06
5814.00,1.06
5813.00,1.06
5812.00,1.06
5811.00,1.06
5810.00,1.06
5809.00,1.06
5808.00,1.06
5807.00,1.06
5806.00,1.06
5805.00,1.06
5804.00,1.05
5803.00,1.05
5802.00,1.05
5801.00,1.05
5800.00,1.05
5799.00,1.05
5798.00,1.05
5797.00,1.05
5796.00,1.04
5795.00,1.04
5794.00,1.04
5793.00,1.04
5792.00,1.03
5791.00,1.03
5790.00,1.03
5789.00,1.03
5788.00,1.02
5787.00,1.02
5786.00,1.02
5785.00,1.02
5784.00,1.02
5783.00,1.01
5782.00,1.01
5781.00,1.01
5780.00,1.01
5779.00,1.01
5778.00,1.01
5777.00,1.01
5776.00,1.00
5775.00,1.00
5774.00,1.00
5773.00,1.00
5772.00,1.00
5771.00,1.00
5770.00,1.00
5769.00,1.00
5768.00,1.00
5767.00,1.01
5766.00,1.01
5765.00,1.01
5764.00,1.01
5763.00,1.01
5762.00,1.02
5761.00,1.02
5760.00,1.02
5759.00,1.03
5758.00,1.03
5757.00,1.03
5756.00,1.04
5755.00,1.04
5754.00,1.05
5753.00,1.05
5752.00,1.05
5751.00,1.06
5750.00,1.06
5749.00,1.07
5748.00,1.07
5747.00,1.07
5746.00,1.08
5745.00,1.08
5744.00,1.08
5743.00,1.09
5742.00,1.09
5741.00,1.09
5740.00,1.10
5739.00,1.10
5738.00,1.10
5737.00,1.10
5736.00,1.11
5735.00,1.11
5734.00,1.11
5733.00,1.11
5732.00,1.11
5731.00,1.11
5730.00,1.12
5729.00,1.12
5728.00,1.12
5727.00,1.12
5726.00,1.12
5725.00,1.12
5724.00,1.12
5723.00,1.12
5722.00,1.12
5721.00,1.12
5720.00,1.12
5719.00,1.13
5718.00,1.13
5717.00,1.13
5716.00,1.13
5715.00,1.13
5714.00,1.13
5713.00,1.13
5712.00,1.13
5711.00,1.13
5710.00,1.13
5709.00,1.13
5708.00,1.13
5707.00,1.13
5706.00,1.13
5705.00,1.12
5704.00,1.12
5703.00,1.12
5702.00,1.12
5701.00,1.12
5700.00,1.12
5699.00,1.12
5698.00,1.12
5697.00,1.11
5696.00,1.11
5695.00,1.11
5694.00,1.11
5693.00,1.11
5692.00,1.10
5691.00,1.10
5690.00,1.10
5689.00,1.10
5688.00,1.10
5687.00,1.10
5686.00,1.10
5685.00,1.09
5684.00,1.09
5683.00,1.09
5682.00,1.09
5681.00,1.09
5680.00,1.09
5679.00,1.09
5678.00,1.09
5677.00,1.09
5676.00,1.09
5675.00,1.09
5674.00,1.09
5673.00,1.09
5672.00,1.09
5671.00,1.09
5670.00,1.09
5669.00,1.09
5668.00,1.09
5667.00,1.09
5666.00,1.09
5665.00,1.09
5664.00,1.10
5663.00,1.10
5662.00,1.10
5661.00,1.10
5660.00,1.10
5659.00,1.10
5658.00,1.10
5657.00,1.10
5656.00,1.11
5655.00,1.11
5654.00,1.11
5653.00,1.11
5652.00,1.11
5651.00,1.11
5650.00,1.12
5649.00,1.12
5648.00,1.12
5647.00,1.12
5646.00,1.12
5645.00,1.13
5644.00,1.13
5643.00,1.13
5642.00,1.13
5641.00,1.14
5640.00,1.14
5639.00,1.14
5638.00,1.14
5637.00,1.14
5636.00,1.15
5635.00,1.15
5634.00,1.15
5633.00,1.15
5632.00,1.15
5631.00,1.15
5630.00,1.16
5629.00,1.16
5628.00,1.16
5627.00,1.16
5626.00,1.16
5625.00,1.17
5624.00,1.17
5623.00,1.17
5622.00,1.17
5621.00,1.17
5620.00,1.18
5619.00,1.18
5618.00,1.18
5617.00,1.18
5616.00,1.18
5615.00,1.19
5614.00,1.19
5613.00,1.19
5612.00,1.19
5611.00,1.20
5610.00,1.20
5609.00,1.20
5608.00,1.20
5607.00,1.20
5606.00,1.21
5605.00,1.21
5604.00,1.21
5603.00,1.21
5602.00,1.21
5601.00,1.21
5600.00,1.22
5599.00,1.22
5598.00,1.22
5597.00,1.22
5596.00,1.22
5595.00,1.23
5594.00,1.23
5593.00,1.23
5592.00,1.23
5591.00,1.23
5590.00,1.24
5589.00,1.24
5588.00,1.24
5587.00,1.24
5586.00,1.24
5585.00,1.25
5584.00,1.25
5583.00,1.25
5582.00,1.25
5581.00,1.25
5580.00,1.26
5579.00,1.26
5578.00,1.26
5577.00,1.26
5576.00,1.26
5575.00,1.26
5574.00,1.27
5573.00,1.27
5572.00,1.27
5571.00,1.27
5570.00,1.27
5569.00,1.27
5568.00,1.27
5567.00,1.28
5566.00,1.28
5565.00,1.28
5564.00,1.28
5563.00,1.28
5562.00,1.28
5561.00,1.28
5560.00,1.29
5559.00,1.29
5558.00,1.29
5557.00,1.29
5556.00,1.29
5555.00,1.29
5554.00,1.29
5553.00,1.30
5552.00,1.30
5551.00,1.30
5550.00,1.30
5549.00,1.30
5548.00,1.30
5547.00,1.30
5546.00,1.31
5545.00,1.31
5544.00,1.31
5543.00,1.31
5542.00,1.31
5541.00,1.31
5540.00,1.32
5539.00,1.32
5538.00,1.32
5537.00,1.32
5536.00,1.32
5535.00,1.32
5534.00,1.32
5533.00,1.32
5532.00,1.33
5531.00,1.33
5530.00,1.33
5529.00,1.33
5528.00,1.33
5527.00,1.33
5526.00,1.33
5525.00,1.33
5524.00,1.34
5523.00,1.34
5522.00,1.34
5521.00,1.34
5520.00,1.34
5519.00,1.34
5518.00,1.34
5517.00,1.34
5516.00,1.34
5515.00,1.34
5514.00,1.34
5513.00,1.34
5512.00,1.35
5511.00,1.35
5510.00,1.35
5509.00,1.35
5508.00,1.35
5507.00,1.35
5506.00,1.35
5505.00,1.35
5504.00,1.35
5503.00,1.35
5502.00,1.35
5501.00,1.35
5500.00,1.35
5499.00,1.36
5498.00,1.36
5497.00,1.36
5496.00,1.36
5495.00,1.36
5494.00,1.36
5493.00,1.36
5492.00,1.36
5491.00,1.36
5490.00,1.37
5489.00,1.37
5488.00,1.37
5487.00,1.37
5486.00,1.37
5485.00,1.37
5484.00,1.37
5483.00,1.38
5482.00,1.38
5481.00,1.38
5480.00,1.38
5479.00,1.38
5478.00,1.38
5477.00,1.38
5476.00,1.39
5475.00,1.39
5474.00,1.39
5473.00,1.39
5472.00,1.39
5471.00,1.39
5470.00,1.39
5469.00,1.39
5468.00,1.39
5467.00,1.40
5466.00,1.40
5465.00,1.40
5464.00,1.40
5463.00,1.40
5462.00,1.40
5461.00,1.41
5460.00,1.41
5459.00,1.41
5458.00,1.41
5457.00,1.41
5456.00,1.41
5455.00,1.41
5454.00,1.41
5453.00,1.42
5452.00,1.42
5451.00,1.42
5450.00,1.42
5449.00,1.42
5448.00,1.42
5447.00,1.42
5446.00,1.42
5445.00,1.42
5444.00,1.42
5443.00,1.42
5442.00,1.42
5441.00,1.42
5440.00,1.42
5439.00,1.42
5438.00,1.42
5437.00,1.42
5436.00,1.42
5435.00,1.42
5434.00,1.42
5433.00,1.42
5432.00,1.42
5431.00,1.42
5430.00,1.42
5429.00,1.42
5428.00,1.42
5427.00,1.42
5426.00,1.43
5425.00,1.43
5424.00,1.43
5423.00,1.43
5422.00,1.43
5421.00,1.43
5420.00,1.43
5419.00,1.43
5418.00,1.43
5417.00,1.43
5416.00,1.43
5415.00,1.42
5414.00,1.42
5413.00,1.42
5412.00,1.42
5411.00,1.42
5410.00,1.42
5409.00,1.42
5408.00,1.42
5407.00,1.42
5406.00,1.42
5405.00,1.42
5404.00,1.42
5403.00,1.42
5402.00,1.42
5401.00,1.42
5400.00,1.42
5399.00,1.42
5398.00,1.42
5397.00,1.42
5396.00,1.42
5395.00,1.42
5394.00,1.42
5393.00,1.42
5392.00,1.41
5391.00,1.41
5390.00,1.41
5389.00,1.41
5388.00,1.40
5387.00,1.40
5386.00,1.40
5385.00,1.40
5384.00,1.39
5383.00,1.39
5382.00,1.38
5381.00,1.38
5380.00,1.38
5379.00,1.37
5378.00,1.37
5377.00,1.36
5376.00,1.36
5375.00,1.36
5374.00,1.35
5373.00,1.35
5372.00,1.34
5371.00,1.34
5370.00,1.33
5369.00,1.32
5368.00,1.32
5367.00,1.31
5366.00,1.31
5365.00,1.30
5364.00,1.29
5363.00,1.29
5362.00,1.28
5361.00,1.27
5360.00,1.26
5359.00,1.26
5358.00,1.25
5357.00,1.24
5356.00,1.23
5355.00,1.22
5354.00,1.21
5353.00,1.20
5352.00,1.19
5351.00,1.18
5350.00,1.17
5349.00,1.16
5348.00,1.15
5347.00,1.14
5346.00,1.13
5345.00,1.12
5344.00,1.10
5343.00,1.09
5342.00,1.08
5341.00,1.07
5340.00,1.06
5339.00,1.05
5338.00,1.04
5337.00,1.02
5336.00,1.01
5335.00,1.00
5334.00,0.99
5333.00,0.98
5332.00,0.97
5331.00,0.96
5330.00,0.95
5329.00,0.93
5328.00,0.92
5327.00,0.91
5326.00,0.90
5325.00,0.89
5324.00,0.88
5323.00,0.87
5322.00,0.86
5321.00,0.85
5320.00,0.84
5319.00,0.83
5318.00,0.82
5317.00,0.81
5316.00,0.80
5315.00,0.79
5314.00,0.78
5313.00,0.77
5312.00,0.77
5311.00,0.76
5310.00,0.75
5309.00,0.74
5308.00,0.73
5307.00,0.72
5306.00,0.71
5305.00,0.71
5304.00,0.70
5303.00,0.69
5302.00,0.69
5301.00,0.68
5300.00,0.68
5299.00,0.67
5298.00,0.66
5297.00,0.66
5296.00,0.66
5295.00,0.65
5294.00,0.65
5293.00,0.64
5292.00,0.64
5291.00,0.64
5290.00,0.64
5289.00,0.63
5288.00,0.63
5287.00,0.63
5286.00,0.63
5285.00,0.63
5284.00,0.62
5283.00,0.62
5282.00,0.62
5281.00,0.62
5280.00,0.62
5279.00,0.62
5278.00,0.62
5277.00,0.62
5276.00,0.62
5275.00,0.62
5274.00,0.61
5273.00,0.61
5272.00,0.61
5271.00,0.61
5270.00,0.61
5269.00,0.61
5268.00,0.61
5267.00,0.61
5266.00,0.61
5265.00,0.61
5264.00,0.60
5263.00,0.60
5262.00,0.60
5261.00,0.60
5260.00,0.60
5259.00,0.60
5258.00,0.60
5257.00,0.60
5256.00,0.60
5255.00,0.60
5254.00,0.60
5253.00,0.60
5252.00,0.60
5251.00,0.60
5250.00,0.60
5249.00,0.60
5248.00,0.60
5247.00,0.60
5246.00,0.60
5245.00,0.60
5244.00,0.60
5243.00,0.61
5242.00,0.61
5241.00,0.61
5240.00,0.61
5239.00,0.61
5238.00,0.61
5237.00,0.61
5236.00,0.61
5235.00,0.61
5234.00,0.61
5233.00,0.61
5232.00,0.61
5231.00,0.61
5230.00,0.61
5229.00,0.61
5228.00,0.61
5227.00,0.61
5226.00,0.61
5225.00,0.61
5224.00,0.61
5223.00,0.61
5222.00,0.61
5221.00,0.61
5220.00,0.61
5219.00,0.61
5218.00,0.61
5217.00,0.61
5216.00,0.61
5215.00,0.62
5214.00,0.62
5213.00,0.62
5212.00,0.62
5211.00,0.62
5210.00,0.62
5209.00,0.62
5208.00,0.62
5207.00,0.62
5206.00,0.62
5205.00,0.62
5204.00,0.62
5203.00,0.62
5202.00,0.62
5201.00,0.62
5200.00,0.62
5199.00,0.62
5198.00,0.62
5197.00,0.62
5196.00,0.62
5195.00,0.62
5194.00,0.62
5193.00,0.62
5192.00,0.62
5191.00,0.63
5190.00,0.63
5189.00,0.63
5188.00,0.63
5187.00,0.63
5186.00,0.63
5185.00,0.63
5184.00,0.63
5183.00,0.63
5182.00,0.63
5181.00,0.63
5180.00,0.63
5179.00,0.63
5178.00,0.64
5177.00,0.64
5176.00,0.64
5175.00,0.64
5174.00,0.64
5173.00,0.64
5172.00,0.64
5171.00,0.64
5170.00,0.64
5169.00,0.64
5168.00,0.64
5167.00,0.64
5166.00,0.64
5165.00,0.64
5164.00,0.64
5163.00,0.64
5162.00,0.64
5161.00,0.64
5160.00,0.64
5159.00,0.64
5158.00,0.64
5157.00,0.64
5156.00,0.64
5155.00,0.64
5154.00,0.64
5153.00,0.64
5152.00,0.64
5151.00,0.64
5150.00,0.65
5149.00,0.65
5148.00,0.65
5147.00,0.65
5146.00,0.65
5145.00,0.65
5144.00,0.65
5143.00,0.65
5142.00,0.65
5141.00,0.65
5140.00,0.65
5139.00,0.65
5138.00,0.65
5137.00,0.65
5136.00,0.65
5135.00,0.65
5134.00,0.65
5133.00,0.65
5132.00,0.65
5131.00,0.65
5130.00,0.65
5129.00,0.65
5128.00,0.65
5127.00,0.65
5126.00,0.65
5125.00,0.65
5124.00,0.66
5123.00,0.66
5122.00,0.66
5121.00,0.66
5120.00,0.66
5119.00,0.66
5118.00,0.66
5117.00,0.66
5116.00,0.66
5115.00,0.66
5114.00,0.66
5113.00,0.66
5112.00,0.66
5111.00,0.66
5110.00,0.66
5109.00,0.66
5108.00,0.66
5107.00,0.66
5106.00,0.67
5105.00,0.67
5104.00,0.67
5103.00,0.67
5102.00,0.67
5101.00,0.67
5100.00,0.67
5099.00,0.67
5098.00,0.67
5097.00,0.67
5096.00,0.67
5095.00,0.68
5094.00,0.68
5093.00,0.68
5092.00,0.68
5091.00,0.68
5090.00,0.68
5089.00,0.68
5088.00,0.68
5087.00,0.68
5086.00,0.68
5085.00,0.68
5084.00,0.68
5083.00,0.68
5082.00,0.68
5081.00,0.68
5080.00,0.68
5079.00,0.68
5078.00,0.68
5077.00,0.69
5076.00,0.69
5075.00,0.69
5074.00,0.69
5073.00,0.69
5072.00,0.69
5071.00,0.69
5070.00,0.69
5069.00,0.69
5068.00,0.69
5067.00,0.69
5066.00,0.69
5065.00,0.69
5064.00,0.69
5063.00,0.69
5062.00,0.69
5061.00,0.69
5060.00,0.70
5059.00,0.70
5058.00,0.70
5057.00,0.70
5056.00,0.70
5055.00,0.70
5054.00,0.70
5053.00,0.70
5052.00,0.70
5051.00,0.70
5050.00,0.70
5049.00,0.70
5048.00,0.70
5047.00,0.70
5046.00,0.70
5045.00,0.71
5044.00,0.71
5043.00,0.71
5042.00,0.71
5041.00,0.71
5040.00,0.71
5039.00,0.71
5038.00,0.71
5037.00,0.71
5036.00,0.71
5035.00,0.71
5034.00,0.72
5033.00,0.72
5032.00,0.72
5031.00,0.72
5030.00,0.72
5029.00,0.72
5028.00,0.72
5027.00,0.72
5026.00,0.72
5025.00,0.72
5024.00,0.72
5023.00,0.72
5022.00,0.72
5021.00,0.73
5020.00,0.73
5019.00,0.73
5018.00,0.73
5017.00,0.73
5016.00,0.73
5015.00,0.73
5014.00,0.73
5013.00,0.73
5012.00,0.73
5011.00,0.73
5010.00,0.73
5009.00,0.73
5008.00,0.73
5007.00,0.73
5006.00,0.73
5005.00,0.73
5004.00,0.73
5003.00,0.73
5002.00,0.73
5001.00,0.73
5000.00,0.74
4999.00,0.74
4998.00,0.74
4997.00,0.74
4996.00,0.74
4995.00,0.74
4994.00,0.75
4993.00,0.75
4992.00,0.75
4991.00,0.75
4990.00,0.75
4989.00,0.76
4988.00,0.76
4987.00,0.76
4986.00,0.76
4985.00,0.76
4984.00,0.76
4983.00,0.76
4982.00,0.76
4981.00,0.76
4980.00,0.76
4979.00,0.77
4978.00,0.77
4977.00,0.77
4976.00,0.77
4975.00,0.77
4974.00,0.77
4973.00,0.77
4972.00,0.77
4971.00,0.77
4970.00,0.77
4969.00,0.77
4968.00,0.77
4967.00,0.77
4966.00,0.77
4965.00,0.77
4964.00,0.77
4963.00,0.78
4962.00,0.78
4961.00,0.78
4960.00,0.78
4959.00,0.78
4958.00,0.78
4957.00,0.78
4956.00,0.78
4955.00,0.78
4954.00,0.78
4953.00,0.79
4952.00,0.79
4951.00,0.79
4950.00,0.79
4949.00,0.79
4948.00,0.79
4947.00,0.79
4946.00,0.79
4945.00,0.79
4944.00,0.79
4943.00,0.79
4942.00,0.79
4941.00,0.79
4940.00,0.79
4939.00,0.80
4938.00,0.80
4937.00,0.80
4936.00,0.80
4935.00,0.80
4934.00,0.80
4933.00,0.80
4932.00,0.80
4931.00,0.80
4930.00,0.81
4929.00,0.81
4928.00,0.81
4927.00,0.81
4926.00,0.81
4925.00,0.81
4924.00,0.81
4923.00,0.81
4922.00,0.81
4921.00,0.81
4920.00,0.81
4919.00,0.81
4918.00,0.81
4917.00,0.81
4916.00,0.81
4915.00,0.81
4914.00,0.81
4913.00,0.81
4912.00,0.81
4911.00,0.81
4910.00,0.81
4909.00,0.81
4908.00,0.81
4907.00,0.81
4906.00,0.81
4905.00,0.82
4904.00,0.82
4903.00,0.82
4902.00,0.82
4901.00,0.82
4900.00,0.82
4899.00,0.82
4898.00,0.82
4897.00,0.82
4896.00,0.82
4895.00,0.82
4894.00,0.82
4893.00,0.82
4892.00,0.83
4891.00,0.83
4890.00,0.83
4889.00,0.83
4888.00,0.83
4887.00,0.83
4886.00,0.83
4885.00,0.83
4884.00,0.84
4883.00,0.84
4882.00,0.84
4881.00,0.84
4880.00,0.84
4879.00,0.84
4878.00,0.84
4877.00,0.84
4876.00,0.84
4875.00,0.84
4874.00,0.84
4873.00,0.84
4872.00,0.84
4871.00,0.84
4870.00,0.84
4869.00,0.84
4868.00,0.84
4867.00,0.84
4866.00,0.84
4865.00,0.84
4864.00,0.84
4863.00,0.84
4862.00,0.84
4861.00,0.84
4860.00,0.84
4859.00,0.84
4858.00,0.85
4857.00,0.85
4856.00,0.85
4855.00,0.85
4854.00,0.85
4853.00,0.85
4852.00,0.85
4851.00,0.85
4850.00,0.86
4849.00,0.86
4848.00,0.86
4847.00,0.86
4846.00,0.86
4845.00,0.86
4844.00,0.86
4843.00,0.86
4842.00,0.86
4841.00,0.86
4840.00,0.87
4839.00,0.87
4838.00,0.87
4837.00,0.87
4836.00,0.87
4835.00,0.87
4834.00,0.87
4833.00,0.87
4832.00,0.87
4831.00,0.87
4830.00,0.87
4829.00,0.87
4828.00,0.87
4827.00,0.87
4826.00,0.87
4825.00,0.87
4824.00,0.87
4823.00,0.87
4822.00,0.87
4821.00,0.88
4820.00,0.88
4819.00,0.88
4818.00,0.88
4817.00,0.88
4816.00,0.88
4815.00,0.88
4814.00,0.88
4813.00,0.88
4812.00,0.88
4811.00,0.89
4810.00,0.89
4809.00,0.89
4808.00,0.89
4807.00,0.89
4806.00,0.89
4805.00,0.89
4804.00,0.89
4803.00,0.89
4802.00,0.89
4801.00,0.90
4800.00,0.90
4799.00,0.90
4798.00,0.90
4797.00,0.90
4796.00,0.90
4795.00,0.90
4794.00,0.90
4793.00,0.90
4792.00,0.91
4791.00,0.91
4790.00,0.91
4789.00,0.91
4788.00,0.91
4787.00,0.91
4786.00,0.92
4785.00,0.92
4784.00,0.92
4783.00,0.92
4782.00,0.92
4781.00,0.93
4780.00,0.93
4779.00,0.93
4778.00,0.93
4777.00,0.93
4776.00,0.93
4775.00,0.93
4774.00,0.94
4773.00,0.94
4772.00,0.94
4771.00,0.94
4770.00,0.94
4769.00,0.94
4768.00,0.94
4767.00,0.94
4766.00,0.95
4765.00,0.95
4764.00,0.95
4763.00,0.95
4762.00,0.95
4761.00,0.96
4760.00,0.96
4759.00,0.96
4758.00,0.96
4757.00,0.96
4756.00,0.96
4755.00,0.97
4754.00,0.97
4753.00,0.97
4752.00,0.97
4751.00,0.97
4750.00,0.97
4749.00,0.98
4748.00,0.98
4747.00,0.98
4746.00,0.98
4745.00,0.98
4744.00,0.98
4743.00,0.98
4742.00,0.98
4741.00,0.99
4740.00,0.99
4739.00,0.99
4738.00,0.99
4737.00,0.99
4736.00,0.99
4735.00,0.99
4734.00,0.99
4733.00,1.00
4732.00,1.00
4731.00,1.00
4730.00,1.00
4729.00,1.00
4728.00,1.00
4727.00,1.00
4726.00,1.00
4725.00,1.00
4724.00,1.01
4723.00,1.01
4722.00,1.01
4721.00,1.01
4720.00,1.01
4719.00,1.01
4718.00,1.02
4717.00,1.02
4716.00,1.02
4715.00,1.02
4714.00,1.03
4713.00,1.03
4712.00,1.03
4711.00,1.03
4710.00,1.03
4709.00,1.04
4708.00,1.04
4707.00,1.04
4706.00,1.04
4705.00,1.04
4704.00,1.04
4703.00,1.04
4702.00,1.05
4701.00,1.05
4700.00,1.05
4699.00,1.05
4698.00,1.05
4697.00,1.05
4696.00,1.05
4695.00,1.06
4694.00,1.06
4693.00,1.06
4692.00,1.06
4691.00,1.06
4690.00,1.07
4689.00,1.07
4688.00,1.07
4687.00,1.07
4686.00,1.07
4685.00,1.08
4684.00,1.08
4683.00,1.08
4682.00,1.08
4681.00,1.09
4680.00,1.09
4679.00,1.09
4678.00,1.09
4677.00,1.09
4676.00,1.09
4675.00,1.10
4674.00,1.10
4673.00,1.10
4672.00,1.10
4671.00,1.10
4670.00,1.10
4669.00,1.10
4668.00,1.11
4667.00,1.11
4666.00,1.11
4665.00,1.11
4664.00,1.11
4663.00,1.11
4662.00,1.11
4661.00,1.12
4660.00,1.12
4659.00,1.12
4658.00,1.12
4657.00,1.12
4656.00,1.12
4655.00,1.12
4654.00,1.13
4653.00,1.13
4652.00,1.13
4651.00,1.13
4650.00,1.13
4649.00,1.13
4648.00,1.13
4647.00,1.13
4646.00,1.13
4645.00,1.14
4644.00,1.14
4643.00,1.14
4642.00,1.14
4641.00,1.14
4640.00,1.14
4639.00,1.14
4638.00,1.15
4637.00,1.15
4636.00,1.15
4635.00,1.15
4634.00,1.15
4633.00,1.15
4632.00,1.15
4631.00,1.16
4630.00,1.16
4629.00,1.16
4628.00,1.16
4627.00,1.16
4626.00,1.16
4625.00,1.16
4624.00,1.17
4623.00,1.17
4622.00,1.17
4621.00,1.17
4620.00,1.17
4619.00,1.17
4618.00,1.17
4617.00,1.18
4616.00,1.18
4615.00,1.18
4614.00,1.18
4613.00,1.18
4612.00,1.18
4611.00,1.18
4610.00,1.18
4609.00,1.18
4608.00,1.18
4607.00,1.18
4606.00,1.18
4605.00,1.18
4604.00,1.19
4603.00,1.19
4602.00,1.19
4601.00,1.19
4600.00,1.19
4599.00,1.19
4598.00,1.19
4597.00,1.19
4596.00,1.19
4595.00,1.20
4594.00,1.20
4593.00,1.20
4592.00,1.20
4591.00,1.20
4590.00,1.21
4589.00,1.21
4588.00,1.21
4587.00,1.21
4586.00,1.21
4585.00,1.22
4584.00,1.22
4583.00,1.22
4582.00,1.22
4581.00,1.22
4580.00,1.23
4579.00,1.23
4578.00,1.23
4577.00,1.23
4576.00,1.23
4575.00,1.23
4574.00,1.23
4573.00,1.24
4572.00,1.24
4571.00,1.24
4570.00,1.24
4569.00,1.24
4568.00,1.24
4567.00,1.24
4566.00,1.24
4565.00,1.24
4564.00,1.24
4563.00,1.24
4562.00,1.24
4561.00,1.24
4560.00,1.24
4559.00,1.24
4558.00,1.24
4557.00,1.24
4556.00,1.24
4555.00,1.24
4554.00,1.24
4553.00,1.24
4552.00,1.24
4551.00,1.25
4550.00,1.25
4549.00,1.25
4548.00,1.25
4547.00,1.25
4546.00,1.25
4545.00,1.25
4544.00,1.25
4543.00,1.26
4542.00,1.26
4541.00,1.26
4540.00,1.26
4539.00,1.26
4538.00,1.27
4537.00,1.27
4536.00,1.27
4535.00,1.27
4534.00,1.27
4533.00,1.27
4532.00,1.27
4531.00,1.27
4530.00,1.27
4529.00,1.27
4528.00,1.27
4527.00,1.27
4526.00,1.27
4525.00,1.27
4524.00,1.27
4523.00,1.27
4522.00,1.27
4521.00,1.27
4520.00,1.27
4519.00,1.27
4518.00,1.27
4517.00,1.27
4516.00,1.27
4515.00,1.27
4514.00,1.27
4513.00,1.27
4512.00,1.27
4511.00,1.27
4510.00,1.27
4509.00,1.27
4508.00,1.27
4507.00,1.27
4506.00,1.27
4505.00,1.28
4504.00,1.28
4503.00,1.28
4502.00,1.28
4501.00,1.28
4500.00,1.28
4499.00,1.28
4498.00,1.28
4497.00,1.28
4496.00,1.28
4495.00,1.28
4494.00,1.28
4493.00,1.28
4492.00,1.28
4491.00,1.27
4490.00,1.27
4489.00,1.27
4488.00,1.27
4487.00,1.27
4486.00,1.27
4485.00,1.27
4484.00,1.27
4483.00,1.26
4482.00,1.26
4481.00,1.26
4480.00,1.26
4479.00,1.26
4478.00,1.25
4477.00,1.25
4476.00,1.25
4475.00,1.25
4474.00,1.24
4473.00,1.24
4472.00,1.24
4471.00,1.24
4470.00,1.24
4469.00,1.23
4468.00,1.23
4467.00,1.23
4466.00,1.22
4465.00,1.22
4464.00,1.22
4463.00,1.22
4462.00,1.21
4461.00,1.21
4460.00,1.21
4459.00,1.20
4458.00,1.20
4457.00,1.20
4456.00,1.19
4455.00,1.19
4454.00,1.19
4453.00,1.18
4452.00,1.18
4451.00,1.18
4450.00,1.17
4449.00,1.17
4448.00,1.17
4447.00,1.16
4446.00,1.16
4445.00,1.16
4444.00,1.15
4443.00,1.15
4442.00,1.14
4441.00,1.14
4440.00,1.13
4439.00,1.13
4438.00,1.13
4437.00,1.12
4436.00,1.12
4435.00,1.11
4434.00,1.11
4433.00,1.11
4432.00,1.10
4431.00,1.10
4430.00,1.10
4429.00,1.10
4428.00,1.09
4427.00,1.09
4426.00,1.09
4425.00,1.09
4424.00,1.09
4423.00,1.09
4422.00,1.09
4421.00,1.08
4420.00,1.08
4419.00,1.08
4418.00,1.09
4417.00,1.09
4416.00,1.09
4415.00,1.09
4414.00,1.09
4413.00,1.09
4412.00,1.09
4411.00,1.09
4410.00,1.09
4409.00,1.10
4408.00,1.10
4407.00,1.10
4406.00,1.10
4405.00,1.10
4404.00,1.10
4403.00,1.10
4402.00,1.11
4401.00,1.11
4400.00,1.11
4399.00,1.11
4398.00,1.11
4397.00,1.11
4396.00,1.11
4395.00,1.11
4394.00,1.11
4393.00,1.11
4392.00,1.12
4391.00,1.12
4390.00,1.12
4389.00,1.12
4388.00,1.12
4387.00,1.12
4386.00,1.12
4385.00,1.12
4384.00,1.12
4383.00,1.12
4382.00,1.12
4381.00,1.12
4380.00,1.12
4379.00,1.12
4378.00,1.12
4377.00,1.12
4376.00,1.12
4375.00,1.12
4374.00,1.12
4373.00,1.13
4372.00,1.13
4371.00,1.13
4370.00,1.13
4369.00,1.13
4368.00,1.13
4367.00,1.13
4366.00,1.13
4365.00,1.13
4364.00,1.13
4363.00,1.13
4362.00,1.13
4361.00,1.13
4360.00,1.13
4359.00,1.13
4358.00,1.13
4357.00,1.13
4356.00,1.13
4355.00,1.13
4354.00,1.13
4353.00,1.13
4352.00,1.13
4351.00,1.13
4350.00,1.13
4349.00,1.13
4348.00,1.13
4347.00,1.13
4346.00,1.13
4345.00,1.13
4344.00,1.13
4343.00,1.13
4342.00,1.13
4341.00,1.13
4340.00,1.13
4339.00,1.13
4338.00,1.13
4337.00,1.13
4336.00,1.14
4335.00,1.14
4334.00,1.14
4333.00,1.14
4332.00,1.14
4331.00,1.14
4330.00,1.14
4329.00,1.14
4328.00,1.14
4327.00,1.14
4326.00,1.15
4325.00,1.15
4324.00,1.15
4323.00,1.15
4322.00,1.16
4321.00,1.16
4320.00,1.16
4319.00,1.16
4318.00,1.17
4317.00,1.17
4316.00,1.17
4315.00,1.18
4314.00,1.18
4313.00,1.18
4312.00,1.18
4311.00,1.19
4310.00,1.19
4309.00,1.19
4308.00,1.19
4307.00,1.20
4306.00,1.20
4305.00,1.20
4304.00,1.20
4303.00,1.20
4302.00,1.20
4301.00,1.20
4300.00,1.21
4299.00,1.21
4298.00,1.21
4297.00,1.21
4296.00,1.21
4295.00,1.21
4294.00,1.21
4293.00,1.21
4292.00,1.21
4291.00,1.22
4290.00,1.22
4289.00,1.22
4288.00,1.22
4287.00,1.22
4286.00,1.22
4285.00,1.22
4284.00,1.22
4283.00,1.22
4282.00,1.22
4281.00,1.22
4280.00,1.22
4279.00,1.22
4278.00,1.22
4277.00,1.22
4276.00,1.22
4275.00,1.22
4274.00,1.22
4273.00,1.22
4272.00,1.22
4271.00,1.22
4270.00,1.22
4269.00,1.22
4268.00,1.22
4267.00,1.22
4266.00,1.22
4265.00,1.22
4264.00,1.22
4263.00,1.22
4262.00,1.22
4261.00,1.22
4260.00,1.22
4259.00,1.22
4258.00,1.22
4257.00,1.22
4256.00,1.22
4255.00,1.22
4254.00,1.22
4253.00,1.22
4252.00,1.22
4251.00,1.23
4250.00,1.23
4249.00,1.23
4248.00,1.23
4247.00,1.23
4246.00,1.23
4245.00,1.23
4244.00,1.24
4243.00,1.24
4242.00,1.24
4241.00,1.24
4240.00,1.24
4239.00,1.24
4238.00,1.25
4237.00,1.25
4236.00,1.25
4235.00,1.25
4234.00,1.25
4233.00,1.25
4232.00,1.25
4231.00,1.25
4230.00,1.25
4229.00,1.25
4228.00,1.25
4227.00,1.25
4226.00,1.25
4225.00,1.25
4224.00,1.25
4223.00,1.25
4222.00,1.25
4221.00,1.25
4220.00,1.26
4219.00,1.26
4218.00,1.26
4217.00,1.26
4216.00,1.26
4215.00,1.26
4214.00,1.26
4213.00,1.26
4212.00,1.26
4211.00,1.27
4210.00,1.27
4209.00,1.27
4208.00,1.27
4207.00,1.27
4206.00,1.27
4205.00,1.28
4204.00,1.28
4203.00,1.28
4202.00,1.28
4201.00,1.28
4200.00,1.28
4199.00,1.28
4198.00,1.28
4197.00,1.28
4196.00,1.28
4195.00,1.29
4194.00,1.29
4193.00,1.29
4192.00,1.29
4191.00,1.29
4190.00,1.29
4189.00,1.29
4188.00,1.29
4187.00,1.29
4186.00,1.29
4185.00,1.29
4184.00,1.29
4183.00,1.29
4182.00,1.29
4181.00,1.29
4180.00,1.29
4179.00,1.29
4178.00,1.29
4177.00,1.29
4176.00,1.29
4175.00,1.29
4174.00,1.29
4173.00,1.29
4172.00,1.29
4171.00,1.29
4170.00,1.29
4169.00,1.29
4168.00,1.29
4167.00,1.30
4166.00,1.30
4165.00,1.30
4164.00,1.30
4163.00,1.30
4162.00,1.31
4161.00,1.31
4160.00,1.31
4159.00,1.31
4158.00,1.31
4157.00,1.32
4156.00,1.32
4155.00,1.32
4154.00,1.32
4153.00,1.32
4152.00,1.32
4151.00,1.32
4150.00,1.32
4149.00,1.32
4148.00,1.32
4147.00,1.31
4146.00,1.31
4145.00,1.31
4144.00,1.31
4143.00,1.31
4142.00,1.31
4141.00,1.31
4140.00,1.31
4139.00,1.31
4138.00,1.31
4137.00,1.32
4136.00,1.32
4135.00,1.32
4134.00,1.32
4133.00,1.32
4132.00,1.32
4131.00,1.32
4130.00,1.32
4129.00,1.32
4128.00,1.32
4127.00,1.32
4126.00,1.33
4125.00,1.33
4124.00,1.33
4123.00,1.33
4122.00,1.33
4121.00,1.33
4120.00,1.33
4119.00,1.33
4118.00,1.33
4117.00,1.33
4116.00,1.33
4115.00,1.33
4114.00,1.33
4113.00,1.33
4112.00,1.34
4111.00,1.34
4110.00,1.34
4109.00,1.34
4108.00,1.34
4107.00,1.34
4106.00,1.34
4105.00,1.34
4104.00,1.34
4103.00,1.34
4102.00,1.35
4101.00,1.35
4100.00,1.35
4099.00,1.35
4098.00,1.35
4097.00,1.35
4096.00,1.35
4095.00,1.35
4094.00,1.35
4093.00,1.35
4092.00,1.35
4091.00,1.35
4090.00,1.35
4089.00,1.35
4088.00,1.35
4087.00,1.35
4086.00,1.35
4085.00,1.35
4084.00,1.35
4083.00,1.35
4082.00,1.35
4081.00,1.35
4080.00,1.35
4079.00,1.35
4078.00,1.35
4077.00,1.35
4076.00,1.35
4075.00,1.35
4074.00,1.35
4073.00,1.36
4072.00,1.36
4071.00,1.36
4070.00,1.36
4069.00,1.37
4068.00,1.37
4067.00,1.37
4066.00,1.38
4065.00,1.38
4064.00,1.38
4063.00,1.38
4062.00,1.39
4061.00,1.39
4060.00,1.39
4059.00,1.39
4058.00,1.39
4057.00,1.39
4056.00,1.39
4055.00,1.39
4054.00,1.38
4053.00,1.38
4052.00,1.38
4051.00,1.38
4050.00,1.38
4049.00,1.38
4048.00,1.38
4047.00,1.38
4046.00,1.38
4045.00,1.38
4044.00,1.38
4043.00,1.38
4042.00,1.38
4041.00,1.38
4040.00,1.39
4039.00,1.39
4038.00,1.39
4037.00,1.39
4036.00,1.39
4035.00,1.40
4034.00,1.40
4033.00,1.40
4032.00,1.40
4031.00,1.40
4030.00,1.40
4029.00,1.40
4028.00,1.41
4027.00,1.41
4026.00,1.41
4025.00,1.41
4024.00,1.41
4023.00,1.41
4022.00,1.41
4021.00,1.41
4020.00,1.41
4019.00,1.41
4018.00,1.42
4017.00,1.42
4016.00,1.42
4015.00,1.42
4014.00,1.42
4013.00,1.42
4012.00,1.42
4011.00,1.43
4010.00,1.43
4009.00,1.43
4008.00,1.43
4007.00,1.43
4006.00,1.43
4005.00,1.43
4004.00,1.43
4003.00,1.42
4002.00,1.42
4001.00,1.42
4000.00,1.42
