创建为新数据集,样品 294 用户 Administrator 日期 星期三, 三月 07 2018
cm-1,%T
10000.00,1.51
9999.00,1.51
9998.00,1.51
9997.00,1.51
9996.00,1.51
9995.00,1.51
9994.00,1.51
9993.00,1.51
9992.00,1.51
9991.00,1.51
9990.00,1.51
9989.00,1.51
9988.00,1.51
9987.00,1.51
9986.00,1.50
9985.00,1.50
9984.00,1.50
9983.00,1.50
9982.00,1.49
9981.00,1.49
9980.00,1.49
9979.00,1.48
9978.00,1.48
9977.00,1.48
9976.00,1.47
9975.00,1.47
9974.00,1.46
9973.00,1.46
9972.00,1.45
9971.00,1.45
9970.00,1.45
9969.00,1.44
9968.00,1.44
9967.00,1.44
9966.00,1.44
9965.00,1.44
9964.00,1.44
9963.00,1.44
9962.00,1.44
9961.00,1.44
9960.00,1.44
9959.00,1.44
9958.00,1.45
9957.00,1.45
9956.00,1.45
9955.00,1.45
9954.00,1.45
9953.00,1.45
9952.00,1.45
9951.00,1.45
9950.00,1.45
9949.00,1.45
9948.00,1.45
9947.00,1.45
9946.00,1.45
9945.00,1.45
9944.00,1.45
9943.00,1.45
9942.00,1.45
9941.00,1.45
9940.00,1.45
9939.00,1.45
9938.00,1.45
9937.00,1.45
9936.00,1.45
9935.00,1.45
9934.00,1.45
9933.00,1.45
9932.00,1.45
9931.00,1.45
9930.00,1.45
9929.00,1.45
9928.00,1.45
9927.00,1.45
9926.00,1.45
9925.00,1.45
9924.00,1.45
9923.00,1.45
9922.00,1.45
9921.00,1.45
9920.00,1.45
9919.00,1.45
9918.00,1.45
9917.00,1.45
9916.00,1.46
9915.00,1.46
9914.00,1.46
9913.00,1.46
9912.00,1.47
9911.00,1.47
9910.00,1.47
9909.00,1.47
9908.00,1.48
9907.00,1.48
9906.00,1.48
9905.00,1.49
9904.00,1.49
9903.00,1.49
9902.00,1.50
9901.00,1.50
9900.00,1.50
9899.00,1.50
9898.00,1.50
9897.00,1.50
9896.00,1.50
9895.00,1.50
9894.00,1.50
9893.00,1.50
9892.00,1.50
9891.00,1.50
9890.00,1.49
9889.00,1.49
9888.00,1.48
9887.00,1.48
9886.00,1.48
9885.00,1.47
9884.00,1.47
9883.00,1.47
9882.00,1.47
9881.00,1.46
9880.00,1.46
9879.00,1.46
9878.00,1.46
9877.00,1.46
9876.00,1.46
9875.00,1.46
9874.00,1.46
9873.00,1.46
9872.00,1.46
9871.00,1.46
9870.00,1.46
9869.00,1.46
9868.00,1.46
9867.00,1.46
9866.00,1.46
9865.00,1.46
9864.00,1.46
9863.00,1.46
9862.00,1.46
9861.00,1.46
9860.00,1.45
9859.00,1.45
9858.00,1.45
9857.00,1.45
9856.00,1.45
9855.00,1.45
9854.00,1.45
9853.00,1.45
9852.00,1.45
9851.00,1.45
9850.00,1.45
9849.00,1.45
9848.00,1.45
9847.00,1.44
9846.00,1.44
9845.00,1.44
9844.00,1.44
9843.00,1.44
9842.00,1.44
9841.00,1.44
9840.00,1.44
9839.00,1.44
9838.00,1.44
9837.00,1.44
9836.00,1.44
9835.00,1.44
9834.00,1.44
9833.00,1.44
9832.00,1.44
9831.00,1.44
9830.00,1.44
9829.00,1.45
9828.00,1.45
9827.00,1.45
9826.00,1.45
9825.00,1.45
9824.00,1.45
9823.00,1.45
9822.00,1.45
9821.00,1.45
9820.00,1.45
9819.00,1.45
9818.00,1.45
9817.00,1.45
9816.00,1.45
9815.00,1.45
9814.00,1.45
9813.00,1.45
9812.00,1.45
9811.00,1.45
9810.00,1.45
9809.00,1.45
9808.00,1.45
9807.00,1.45
9806.00,1.45
9805.00,1.45
9804.00,1.45
9803.00,1.45
9802.00,1.45
9801.00,1.45
9800.00,1.45
9799.00,1.45
9798.00,1.45
9797.00,1.45
9796.00,1.45
9795.00,1.45
9794.00,1.45
9793.00,1.45
9792.00,1.45
9791.00,1.45
9790.00,1.45
9789.00,1.45
9788.00,1.44
9787.00,1.44
9786.00,1.44
9785.00,1.44
9784.00,1.44
9783.00,1.43
9782.00,1.43
9781.00,1.43
9780.00,1.43
9779.00,1.43
9778.00,1.43
9777.00,1.43
9776.00,1.43
9775.00,1.43
9774.00,1.43
9773.00,1.43
9772.00,1.43
9771.00,1.43
9770.00,1.43
9769.00,1.44
9768.00,1.44
9767.00,1.44
9766.00,1.44
9765.00,1.45
9764.00,1.45
9763.00,1.45
9762.00,1.45
9761.00,1.45
9760.00,1.46
9759.00,1.46
9758.00,1.46
9757.00,1.46
9756.00,1.46
9755.00,1.46
9754.00,1.46
9753.00,1.46
9752.00,1.46
9751.00,1.46
9750.00,1.46
9749.00,1.46
9748.00,1.46
9747.00,1.46
9746.00,1.46
9745.00,1.46
9744.00,1.46
9743.00,1.46
9742.00,1.46
9741.00,1.46
9740.00,1.46
9739.00,1.46
9738.00,1.46
9737.00,1.46
9736.00,1.46
9735.00,1.46
9734.00,1.45
9733.00,1.45
9732.00,1.45
9731.00,1.45
9730.00,1.45
9729.00,1.45
9728.00,1.45
9727.00,1.44
9726.00,1.44
9725.00,1.44
9724.00,1.44
9723.00,1.43
9722.00,1.43
9721.00,1.43
9720.00,1.43
9719.00,1.42
9718.00,1.42
9717.00,1.42
9716.00,1.42
9715.00,1.41
9714.00,1.41
9713.00,1.41
9712.00,1.41
9711.00,1.41
9710.00,1.41
9709.00,1.41
9708.00,1.41
9707.00,1.42
9706.00,1.42
9705.00,1.42
9704.00,1.42
9703.00,1.42
9702.00,1.43
9701.00,1.43
9700.00,1.43
9699.00,1.44
9698.00,1.44
9697.00,1.44
9696.00,1.44
9695.00,1.44
9694.00,1.45
9693.00,1.45
9692.00,1.45
9691.00,1.45
9690.00,1.45
9689.00,1.45
9688.00,1.45
9687.00,1.45
9686.00,1.45
9685.00,1.45
9684.00,1.45
9683.00,1.45
9682.00,1.45
9681.00,1.45
9680.00,1.45
9679.00,1.46
9678.00,1.46
9677.00,1.46
9676.00,1.46
9675.00,1.46
9674.00,1.46
9673.00,1.46
9672.00,1.46
9671.00,1.47
9670.00,1.46
9669.00,1.46
9668.00,1.46
9667.00,1.46
9666.00,1.46
9665.00,1.46
9664.00,1.46
9663.00,1.46
9662.00,1.46
9661.00,1.45
9660.00,1.45
9659.00,1.45
9658.00,1.45
9657.00,1.45
9656.00,1.45
9655.00,1.45
9654.00,1.45
9653.00,1.45
9652.00,1.45
9651.00,1.45
9650.00,1.44
9649.00,1.44
9648.00,1.44
9647.00,1.44
9646.00,1.44
9645.00,1.44
9644.00,1.44
9643.00,1.44
9642.00,1.44
9641.00,1.44
9640.00,1.44
9639.00,1.45
9638.00,1.45
9637.00,1.45
9636.00,1.45
9635.00,1.45
9634.00,1.45
9633.00,1.46
9632.00,1.46
9631.00,1.46
9630.00,1.47
9629.00,1.47
9628.00,1.47
9627.00,1.47
9626.00,1.47
9625.00,1.48
9624.00,1.48
9623.00,1.48
9622.00,1.48
9621.00,1.48
9620.00,1.48
9619.00,1.48
9618.00,1.48
9617.00,1.48
9616.00,1.47
9615.00,1.47
9614.00,1.47
9613.00,1.47
9612.00,1.47
9611.00,1.46
9610.00,1.46
9609.00,1.46
9608.00,1.46
9607.00,1.45
9606.00,1.45
9605.00,1.45
9604.00,1.45
9603.00,1.45
9602.00,1.44
9601.00,1.44
9600.00,1.44
9599.00,1.44
9598.00,1.44
9597.00,1.44
9596.00,1.44
9595.00,1.44
9594.00,1.43
9593.00,1.43
9592.00,1.43
9591.00,1.43
9590.00,1.43
9589.00,1.43
9588.00,1.44
9587.00,1.44
9586.00,1.44
9585.00,1.44
9584.00,1.45
9583.00,1.45
9582.00,1.46
9581.00,1.46
9580.00,1.47
9579.00,1.47
9578.00,1.48
9577.00,1.48
9576.00,1.49
9575.00,1.49
9574.00,1.50
9573.00,1.50
9572.00,1.50
9571.00,1.50
9570.00,1.50
9569.00,1.50
9568.00,1.50
9567.00,1.50
9566.00,1.50
9565.00,1.50
9564.00,1.50
9563.00,1.49
9562.00,1.49
9561.00,1.49
9560.00,1.48
9559.00,1.48
9558.00,1.48
9557.00,1.47
9556.00,1.47
9555.00,1.47
9554.00,1.46
9553.00,1.46
9552.00,1.46
9551.00,1.46
9550.00,1.46
9549.00,1.45
9548.00,1.45
9547.00,1.45
9546.00,1.45
9545.00,1.45
9544.00,1.45
9543.00,1.45
9542.00,1.45
9541.00,1.44
9540.00,1.44
9539.00,1.44
9538.00,1.44
9537.00,1.44
9536.00,1.43
9535.00,1.43
9534.00,1.43
9533.00,1.43
9532.00,1.43
9531.00,1.43
9530.00,1.43
9529.00,1.43
9528.00,1.43
9527.00,1.43
9526.00,1.43
9525.00,1.43
9524.00,1.43
9523.00,1.43
9522.00,1.43
9521.00,1.43
9520.00,1.43
9519.00,1.43
9518.00,1.43
9517.00,1.43
9516.00,1.43
9515.00,1.43
9514.00,1.43
9513.00,1.43
9512.00,1.43
9511.00,1.44
9510.00,1.44
9509.00,1.44
9508.00,1.44
9507.00,1.44
9506.00,1.45
9505.00,1.45
9504.00,1.45
9503.00,1.45
9502.00,1.46
9501.00,1.46
9500.00,1.46
9499.00,1.46
9498.00,1.46
9497.00,1.46
9496.00,1.47
9495.00,1.47
9494.00,1.47
9493.00,1.47
9492.00,1.47
9491.00,1.47
9490.00,1.47
9489.00,1.46
9488.00,1.46
9487.00,1.46
9486.00,1.46
9485.00,1.46
9484.00,1.46
9483.00,1.46
9482.00,1.46
9481.00,1.47
9480.00,1.47
9479.00,1.47
9478.00,1.47
9477.00,1.47
9476.00,1.47
9475.00,1.47
9474.00,1.47
9473.00,1.47
9472.00,1.47
9471.00,1.47
9470.00,1.47
9469.00,1.47
9468.00,1.47
9467.00,1.46
9466.00,1.46
9465.00,1.46
9464.00,1.46
9463.00,1.46
9462.00,1.45
9461.00,1.45
9460.00,1.45
9459.00,1.45
9458.00,1.45
9457.00,1.45
9456.00,1.45
9455.00,1.45
9454.00,1.46
9453.00,1.46
9452.00,1.46
9451.00,1.46
9450.00,1.47
9449.00,1.47
9448.00,1.47
9447.00,1.47
9446.00,1.48
9445.00,1.48
9444.00,1.48
9443.00,1.48
9442.00,1.48
9441.00,1.49
9440.00,1.49
9439.00,1.49
9438.00,1.49
9437.00,1.49
9436.00,1.49
9435.00,1.48
9434.00,1.48
9433.00,1.48
9432.00,1.48
9431.00,1.47
9430.00,1.47
9429.00,1.47
9428.00,1.47
9427.00,1.46
9426.00,1.46
9425.00,1.46
9424.00,1.46
9423.00,1.46
9422.00,1.46
9421.00,1.46
9420.00,1.46
9419.00,1.46
9418.00,1.46
9417.00,1.46
9416.00,1.47
9415.00,1.47
9414.00,1.47
9413.00,1.47
9412.00,1.47
9411.00,1.48
9410.00,1.48
9409.00,1.48
9408.00,1.48
9407.00,1.48
9406.00,1.48
9405.00,1.48
9404.00,1.48
9403.00,1.48
9402.00,1.48
9401.00,1.48
9400.00,1.48
9399.00,1.48
9398.00,1.48
9397.00,1.48
9396.00,1.48
9395.00,1.48
9394.00,1.47
9393.00,1.47
9392.00,1.47
9391.00,1.47
9390.00,1.47
9389.00,1.47
9388.00,1.47
9387.00,1.47
9386.00,1.47
9385.00,1.47
9384.00,1.47
9383.00,1.48
9382.00,1.48
9381.00,1.48
9380.00,1.48
9379.00,1.48
9378.00,1.48
9377.00,1.48
9376.00,1.48
9375.00,1.48
9374.00,1.48
9373.00,1.48
9372.00,1.48
9371.00,1.48
9370.00,1.48
9369.00,1.48
9368.00,1.48
9367.00,1.48
9366.00,1.48
9365.00,1.48
9364.00,1.48
9363.00,1.48
9362.00,1.47
9361.00,1.47
9360.00,1.47
9359.00,1.47
9358.00,1.47
9357.00,1.47
9356.00,1.47
9355.00,1.47
9354.00,1.47
9353.00,1.47
9352.00,1.47
9351.00,1.47
9350.00,1.47
9349.00,1.47
9348.00,1.47
9347.00,1.47
9346.00,1.47
9345.00,1.47
9344.00,1.47
9343.00,1.47
9342.00,1.47
9341.00,1.47
9340.00,1.47
9339.00,1.47
9338.00,1.47
9337.00,1.47
9336.00,1.48
9335.00,1.48
9334.00,1.48
9333.00,1.48
9332.00,1.48
9331.00,1.48
9330.00,1.48
9329.00,1.48
9328.00,1.48
9327.00,1.48
9326.00,1.48
9325.00,1.48
9324.00,1.48
9323.00,1.48
9322.00,1.48
9321.00,1.48
9320.00,1.48
9319.00,1.47
9318.00,1.47
9317.00,1.47
9316.00,1.47
9315.00,1.47
9314.00,1.46
9313.00,1.46
9312.00,1.46
9311.00,1.46
9310.00,1.46
9309.00,1.46
9308.00,1.46
9307.00,1.46
9306.00,1.46
9305.00,1.46
9304.00,1.46
9303.00,1.47
9302.00,1.47
9301.00,1.47
9300.00,1.47
9299.00,1.47
9298.00,1.47
9297.00,1.47
9296.00,1.47
9295.00,1.47
9294.00,1.46
9293.00,1.46
9292.00,1.46
9291.00,1.46
9290.00,1.46
9289.00,1.46
9288.00,1.45
9287.00,1.45
9286.00,1.45
9285.00,1.45
9284.00,1.45
9283.00,1.45
9282.00,1.45
9281.00,1.46
9280.00,1.46
9279.00,1.46
9278.00,1.46
9277.00,1.46
9276.00,1.47
9275.00,1.47
9274.00,1.47
9273.00,1.47
9272.00,1.48
9271.00,1.48
9270.00,1.48
9269.00,1.48
9268.00,1.48
9267.00,1.48
9266.00,1.48
9265.00,1.49
9264.00,1.49
9263.00,1.49
9262.00,1.49
9261.00,1.48
9260.00,1.48
9259.00,1.48
9258.00,1.48
9257.00,1.48
9256.00,1.48
9255.00,1.48
9254.00,1.48
9253.00,1.48
9252.00,1.48
9251.00,1.48
9250.00,1.48
9249.00,1.48
9248.00,1.47
9247.00,1.47
9246.00,1.47
9245.00,1.47
9244.00,1.47
9243.00,1.47
9242.00,1.47
9241.00,1.46
9240.00,1.46
9239.00,1.46
9238.00,1.46
9237.00,1.46
9236.00,1.46
9235.00,1.46
9234.00,1.46
9233.00,1.46
9232.00,1.46
9231.00,1.46
9230.00,1.46
9229.00,1.46
9228.00,1.46
9227.00,1.46
9226.00,1.46
9225.00,1.46
9224.00,1.47
9223.00,1.47
9222.00,1.47
9221.00,1.47
9220.00,1.47
9219.00,1.48
9218.00,1.48
9217.00,1.48
9216.00,1.48
9215.00,1.48
9214.00,1.49
9213.00,1.49
9212.00,1.49
9211.00,1.49
9210.00,1.49
9209.00,1.49
9208.00,1.49
9207.00,1.49
9206.00,1.49
9205.00,1.49
9204.00,1.49
9203.00,1.49
9202.00,1.49
9201.00,1.49
9200.00,1.49
9199.00,1.48
9198.00,1.48
9197.00,1.48
9196.00,1.48
9195.00,1.48
9194.00,1.48
9193.00,1.48
9192.00,1.48
9191.00,1.48
9190.00,1.48
9189.00,1.48
9188.00,1.48
9187.00,1.48
9186.00,1.48
9185.00,1.48
9184.00,1.48
9183.00,1.48
9182.00,1.48
9181.00,1.48
9180.00,1.49
9179.00,1.49
9178.00,1.49
9177.00,1.49
9176.00,1.49
9175.00,1.49
9174.00,1.49
9173.00,1.49
9172.00,1.48
9171.00,1.48
9170.00,1.48
9169.00,1.48
9168.00,1.48
9167.00,1.47
9166.00,1.47
9165.00,1.47
9164.00,1.46
9163.00,1.46
9162.00,1.46
9161.00,1.45
9160.00,1.45
9159.00,1.44
9158.00,1.44
9157.00,1.43
9156.00,1.43
9155.00,1.43
9154.00,1.42
9153.00,1.42
9152.00,1.42
9151.00,1.42
9150.00,1.42
9149.00,1.42
9148.00,1.42
9147.00,1.42
9146.00,1.42
9145.00,1.42
9144.00,1.42
9143.00,1.42
9142.00,1.42
9141.00,1.42
9140.00,1.43
9139.00,1.43
9138.00,1.43
9137.00,1.44
9136.00,1.44
9135.00,1.45
9134.00,1.45
9133.00,1.45
9132.00,1.46
9131.00,1.46
9130.00,1.46
9129.00,1.47
9128.00,1.47
9127.00,1.47
9126.00,1.48
9125.00,1.48
9124.00,1.48
9123.00,1.48
9122.00,1.48
9121.00,1.49
9120.00,1.49
9119.00,1.49
9118.00,1.49
9117.00,1.49
9116.00,1.49
9115.00,1.50
9114.00,1.50
9113.00,1.50
9112.00,1.50
9111.00,1.50
9110.00,1.50
9109.00,1.50
9108.00,1.50
9107.00,1.51
9106.00,1.51
9105.00,1.50
9104.00,1.50
9103.00,1.50
9102.00,1.50
9101.00,1.50
9100.00,1.50
9099.00,1.50
9098.00,1.49
9097.00,1.49
9096.00,1.49
9095.00,1.49
9094.00,1.48
9093.00,1.48
9092.00,1.48
9091.00,1.48
9090.00,1.48
9089.00,1.47
9088.00,1.47
9087.00,1.47
9086.00,1.47
9085.00,1.47
9084.00,1.47
9083.00,1.47
9082.00,1.47
9081.00,1.47
9080.00,1.47
9079.00,1.46
9078.00,1.46
9077.00,1.46
9076.00,1.47
9075.00,1.47
9074.00,1.47
9073.00,1.47
9072.00,1.47
9071.00,1.47
9070.00,1.47
9069.00,1.47
9068.00,1.47
9067.00,1.47
9066.00,1.47
9065.00,1.47
9064.00,1.47
9063.00,1.47
9062.00,1.47
9061.00,1.47
9060.00,1.47
9059.00,1.47
9058.00,1.47
9057.00,1.47
9056.00,1.47
9055.00,1.47
9054.00,1.46
9053.00,1.46
9052.00,1.46
9051.00,1.46
9050.00,1.46
9049.00,1.46
9048.00,1.46
9047.00,1.46
9046.00,1.46
9045.00,1.46
9044.00,1.46
9043.00,1.46
9042.00,1.46
9041.00,1.46
9040.00,1.46
9039.00,1.46
9038.00,1.46
9037.00,1.46
9036.00,1.46
9035.00,1.46
9034.00,1.46
9033.00,1.46
9032.00,1.46
9031.00,1.46
9030.00,1.46
9029.00,1.46
9028.00,1.47
9027.00,1.47
9026.00,1.47
9025.00,1.47
9024.00,1.47
9023.00,1.47
9022.00,1.47
9021.00,1.47
9020.00,1.47
9019.00,1.47
9018.00,1.47
9017.00,1.47
9016.00,1.47
9015.00,1.47
9014.00,1.47
9013.00,1.47
9012.00,1.47
9011.00,1.47
9010.00,1.48
9009.00,1.48
9008.00,1.48
9007.00,1.48
9006.00,1.48
9005.00,1.48
9004.00,1.48
9003.00,1.48
9002.00,1.48
9001.00,1.48
9000.00,1.48
8999.00,1.48
8998.00,1.48
8997.00,1.48
8996.00,1.48
8995.00,1.48
8994.00,1.48
8993.00,1.48
8992.00,1.48
8991.00,1.48
8990.00,1.48
8989.00,1.48
8988.00,1.48
8987.00,1.48
8986.00,1.48
8985.00,1.48
8984.00,1.48
8983.00,1.48
8982.00,1.48
8981.00,1.48
8980.00,1.48
8979.00,1.48
8978.00,1.48
8977.00,1.48
8976.00,1.48
8975.00,1.48
8974.00,1.48
8973.00,1.48
8972.00,1.48
8971.00,1.48
8970.00,1.48
8969.00,1.48
8968.00,1.48
8967.00,1.49
8966.00,1.49
8965.00,1.49
8964.00,1.49
8963.00,1.49
8962.00,1.49
8961.00,1.49
8960.00,1.49
8959.00,1.49
8958.00,1.49
8957.00,1.49
8956.00,1.48
8955.00,1.48
8954.00,1.48
8953.00,1.48
8952.00,1.48
8951.00,1.47
8950.00,1.47
8949.00,1.47
8948.00,1.47
8947.00,1.47
8946.00,1.46
8945.00,1.46
8944.00,1.46
8943.00,1.46
8942.00,1.46
8941.00,1.46
8940.00,1.46
8939.00,1.46
8938.00,1.46
8937.00,1.46
8936.00,1.46
8935.00,1.46
8934.00,1.46
8933.00,1.47
8932.00,1.47
8931.00,1.47
8930.00,1.47
8929.00,1.47
8928.00,1.47
8927.00,1.48
8926.00,1.48
8925.00,1.48
8924.00,1.48
8923.00,1.48
8922.00,1.48
8921.00,1.49
8920.00,1.49
8919.00,1.49
8918.00,1.49
8917.00,1.49
8916.00,1.49
8915.00,1.49
8914.00,1.49
8913.00,1.49
8912.00,1.49
8911.00,1.49
8910.00,1.49
8909.00,1.49
8908.00,1.49
8907.00,1.49
8906.00,1.49
8905.00,1.49
8904.00,1.49
8903.00,1.49
8902.00,1.49
8901.00,1.49
8900.00,1.49
8899.00,1.49
8898.00,1.49
8897.00,1.49
8896.00,1.49
8895.00,1.49
8894.00,1.49
8893.00,1.48
8892.00,1.48
8891.00,1.48
8890.00,1.48
8889.00,1.48
8888.00,1.47
8887.00,1.47
8886.00,1.47
8885.00,1.46
8884.00,1.46
8883.00,1.46
8882.00,1.46
8881.00,1.46
8880.00,1.45
8879.00,1.45
8878.00,1.45
8877.00,1.45
8876.00,1.45
8875.00,1.45
8874.00,1.45
8873.00,1.45
8872.00,1.46
8871.00,1.46
8870.00,1.46
8869.00,1.46
8868.00,1.46
8867.00,1.46
8866.00,1.46
8865.00,1.46
8864.00,1.46
8863.00,1.46
8862.00,1.46
8861.00,1.46
8860.00,1.46
8859.00,1.46
8858.00,1.46
8857.00,1.46
8856.00,1.46
8855.00,1.46
8854.00,1.46
8853.00,1.46
8852.00,1.46
8851.00,1.46
8850.00,1.46
8849.00,1.46
8848.00,1.46
8847.00,1.46
8846.00,1.46
8845.00,1.46
8844.00,1.46
8843.00,1.46
8842.00,1.46
8841.00,1.46
8840.00,1.46
8839.00,1.46
8838.00,1.47
8837.00,1.47
8836.00,1.47
8835.00,1.47
8834.00,1.47
8833.00,1.47
8832.00,1.47
8831.00,1.47
8830.00,1.47
8829.00,1.47
8828.00,1.47
8827.00,1.47
8826.00,1.47
8825.00,1.47
8824.00,1.47
8823.00,1.46
8822.00,1.46
8821.00,1.46
8820.00,1.46
8819.00,1.46
8818.00,1.45
8817.00,1.45
8816.00,1.45
8815.00,1.45
8814.00,1.45
8813.00,1.45
8812.00,1.45
8811.00,1.45
8810.00,1.45
8809.00,1.45
8808.00,1.45
8807.00,1.45
8806.00,1.45
8805.00,1.45
8804.00,1.45
8803.00,1.45
8802.00,1.45
8801.00,1.45
8800.00,1.45
8799.00,1.44
8798.00,1.44
8797.00,1.44
8796.00,1.44
8795.00,1.44
8794.00,1.44
8793.00,1.44
8792.00,1.44
8791.00,1.44
8790.00,1.44
8789.00,1.44
8788.00,1.44
8787.00,1.44
8786.00,1.44
8785.00,1.44
8784.00,1.44
8783.00,1.44
8782.00,1.45
8781.00,1.45
8780.00,1.45
8779.00,1.45
8778.00,1.45
8777.00,1.45
8776.00,1.45
8775.00,1.45
8774.00,1.45
8773.00,1.45
8772.00,1.45
8771.00,1.45
8770.00,1.45
8769.00,1.45
8768.00,1.45
8767.00,1.45
8766.00,1.44
8765.00,1.44
8764.00,1.44
8763.00,1.44
8762.00,1.44
8761.00,1.43
8760.00,1.43
8759.00,1.43
8758.00,1.43
8757.00,1.43
8756.00,1.42
8755.00,1.42
8754.00,1.42
8753.00,1.42
8752.00,1.42
8751.00,1.42
8750.00,1.41
8749.00,1.41
8748.00,1.41
8747.00,1.41
8746.00,1.41
8745.00,1.41
8744.00,1.41
8743.00,1.41
8742.00,1.41
8741.00,1.41
8740.00,1.41
8739.00,1.42
8738.00,1.42
8737.00,1.42
8736.00,1.42
8735.00,1.42
8734.00,1.42
8733.00,1.42
8732.00,1.43
8731.00,1.43
8730.00,1.43
8729.00,1.43
8728.00,1.43
8727.00,1.43
8726.00,1.43
8725.00,1.43
8724.00,1.43
8723.00,1.43
8722.00,1.43
8721.00,1.44
8720.00,1.44
8719.00,1.44
8718.00,1.44
8717.00,1.44
8716.00,1.44
8715.00,1.44
8714.00,1.43
8713.00,1.43
8712.00,1.43
8711.00,1.43
8710.00,1.43
8709.00,1.43
8708.00,1.43
8707.00,1.43
8706.00,1.42
8705.00,1.42
8704.00,1.42
8703.00,1.42
8702.00,1.42
8701.00,1.42
8700.00,1.42
8699.00,1.41
8698.00,1.41
8697.00,1.41
8696.00,1.41
8695.00,1.41
8694.00,1.41
8693.00,1.41
8692.00,1.40
8691.00,1.40
8690.00,1.40
8689.00,1.40
8688.00,1.40
8687.00,1.40
8686.00,1.40
8685.00,1.40
8684.00,1.40
8683.00,1.40
8682.00,1.40
8681.00,1.40
8680.00,1.41
8679.00,1.41
8678.00,1.41
8677.00,1.41
8676.00,1.41
8675.00,1.41
8674.00,1.42
8673.00,1.42
8672.00,1.42
8671.00,1.42
8670.00,1.42
8669.00,1.42
8668.00,1.42
8667.00,1.42
8666.00,1.42
8665.00,1.42
8664.00,1.42
8663.00,1.41
8662.00,1.41
8661.00,1.41
8660.00,1.41
8659.00,1.41
8658.00,1.40
8657.00,1.40
8656.00,1.40
8655.00,1.40
8654.00,1.40
8653.00,1.40
8652.00,1.39
8651.00,1.39
8650.00,1.39
8649.00,1.39
8648.00,1.39
8647.00,1.39
8646.00,1.39
8645.00,1.39
8644.00,1.39
8643.00,1.39
8642.00,1.39
8641.00,1.39
8640.00,1.39
8639.00,1.39
8638.00,1.40
8637.00,1.40
8636.00,1.39
8635.00,1.39
8634.00,1.39
8633.00,1.39
8632.00,1.39
8631.00,1.39
8630.00,1.39
8629.00,1.39
8628.00,1.39
8627.00,1.39
8626.00,1.39
8625.00,1.39
8624.00,1.39
8623.00,1.39
8622.00,1.39
8621.00,1.39
8620.00,1.39
8619.00,1.39
8618.00,1.40
8617.00,1.40
8616.00,1.40
8615.00,1.40
8614.00,1.40
8613.00,1.40
8612.00,1.39
8611.00,1.39
8610.00,1.39
8609.00,1.39
8608.00,1.39
8607.00,1.39
8606.00,1.39
8605.00,1.39
8604.00,1.39
8603.00,1.39
8602.00,1.39
8601.00,1.39
8600.00,1.39
8599.00,1.39
8598.00,1.39
8597.00,1.39
8596.00,1.39
8595.00,1.39
8594.00,1.39
8593.00,1.39
8592.00,1.39
8591.00,1.39
8590.00,1.39
8589.00,1.39
8588.00,1.39
8587.00,1.39
8586.00,1.39
8585.00,1.38
8584.00,1.38
8583.00,1.38
8582.00,1.38
8581.00,1.38
8580.00,1.37
8579.00,1.37
8578.00,1.37
8577.00,1.37
8576.00,1.37
8575.00,1.36
8574.00,1.36
8573.00,1.36
8572.00,1.36
8571.00,1.36
8570.00,1.35
8569.00,1.35
8568.00,1.35
8567.00,1.35
8566.00,1.35
8565.00,1.35
8564.00,1.35
8563.00,1.35
8562.00,1.35
8561.00,1.35
8560.00,1.35
8559.00,1.35
8558.00,1.35
8557.00,1.35
8556.00,1.35
8555.00,1.35
8554.00,1.35
8553.00,1.35
8552.00,1.35
8551.00,1.35
8550.00,1.36
8549.00,1.36
8548.00,1.36
8547.00,1.36
8546.00,1.36
8545.00,1.36
8544.00,1.36
8543.00,1.36
8542.00,1.36
8541.00,1.36
8540.00,1.36
8539.00,1.36
8538.00,1.36
8537.00,1.36
8536.00,1.36
8535.00,1.36
8534.00,1.36
8533.00,1.36
8532.00,1.36
8531.00,1.36
8530.00,1.36
8529.00,1.37
8528.00,1.37
8527.00,1.37
8526.00,1.37
8525.00,1.37
8524.00,1.37
8523.00,1.37
8522.00,1.37
8521.00,1.37
8520.00,1.37
8519.00,1.37
8518.00,1.37
8517.00,1.36
8516.00,1.36
8515.00,1.36
8514.00,1.36
8513.00,1.36
8512.00,1.36
8511.00,1.36
8510.00,1.36
8509.00,1.35
8508.00,1.35
8507.00,1.35
8506.00,1.35
8505.00,1.35
8504.00,1.35
8503.00,1.35
8502.00,1.35
8501.00,1.35
8500.00,1.34
8499.00,1.34
8498.00,1.34
8497.00,1.34
8496.00,1.34
8495.00,1.34
8494.00,1.34
8493.00,1.33
8492.00,1.33
8491.00,1.33
8490.00,1.33
8489.00,1.33
8488.00,1.33
8487.00,1.32
8486.00,1.32
8485.00,1.32
8484.00,1.32
8483.00,1.32
8482.00,1.32
8481.00,1.31
8480.00,1.31
8479.00,1.31
8478.00,1.31
8477.00,1.31
8476.00,1.31
8475.00,1.31
8474.00,1.30
8473.00,1.30
8472.00,1.30
8471.00,1.30
8470.00,1.30
8469.00,1.30
8468.00,1.30
8467.00,1.30
8466.00,1.30
8465.00,1.30
8464.00,1.30
8463.00,1.29
8462.00,1.29
8461.00,1.29
8460.00,1.29
8459.00,1.29
8458.00,1.29
8457.00,1.29
8456.00,1.29
8455.00,1.29
8454.00,1.29
8453.00,1.29
8452.00,1.29
8451.00,1.29
8450.00,1.29
8449.00,1.29
8448.00,1.29
8447.00,1.29
8446.00,1.29
8445.00,1.29
8444.00,1.29
8443.00,1.29
8442.00,1.29
8441.00,1.29
8440.00,1.29
8439.00,1.29
8438.00,1.29
8437.00,1.29
8436.00,1.29
8435.00,1.29
8434.00,1.29
8433.00,1.29
8432.00,1.29
8431.00,1.29
8430.00,1.29
8429.00,1.28
8428.00,1.28
8427.00,1.28
8426.00,1.28
8425.00,1.28
8424.00,1.28
8423.00,1.28
8422.00,1.28
8421.00,1.28
8420.00,1.28
8419.00,1.28
8418.00,1.28
8417.00,1.28
8416.00,1.28
8415.00,1.29
8414.00,1.29
8413.00,1.29
8412.00,1.29
8411.00,1.29
8410.00,1.29
8409.00,1.30
8408.00,1.30
8407.00,1.30
8406.00,1.30
8405.00,1.30
8404.00,1.31
8403.00,1.31
8402.00,1.31
8401.00,1.31
8400.00,1.31
8399.00,1.32
8398.00,1.32
8397.00,1.32
8396.00,1.32
8395.00,1.32
8394.00,1.32
8393.00,1.32
8392.00,1.32
8391.00,1.32
8390.00,1.32
8389.00,1.32
8388.00,1.32
8387.00,1.32
8386.00,1.32
8385.00,1.32
8384.00,1.32
8383.00,1.32
8382.00,1.32
8381.00,1.32
8380.00,1.32
8379.00,1.32
8378.00,1.32
8377.00,1.32
8376.00,1.32
8375.00,1.32
8374.00,1.32
8373.00,1.32
8372.00,1.32
8371.00,1.32
8370.00,1.32
8369.00,1.32
8368.00,1.32
8367.00,1.32
8366.00,1.32
8365.00,1.32
8364.00,1.32
8363.00,1.32
8362.00,1.32
8361.00,1.32
8360.00,1.32
8359.00,1.32
8358.00,1.32
8357.00,1.32
8356.00,1.32
8355.00,1.32
8354.00,1.32
8353.00,1.32
8352.00,1.32
8351.00,1.32
8350.00,1.32
8349.00,1.32
8348.00,1.32
8347.00,1.32
8346.00,1.32
8345.00,1.32
8344.00,1.32
8343.00,1.32
8342.00,1.33
8341.00,1.33
8340.00,1.33
8339.00,1.33
8338.00,1.33
8337.00,1.33
8336.00,1.33
8335.00,1.33
8334.00,1.33
8333.00,1.33
8332.00,1.33
8331.00,1.33
8330.00,1.33
8329.00,1.33
8328.00,1.33
8327.00,1.33
8326.00,1.33
8325.00,1.33
8324.00,1.33
8323.00,1.33
8322.00,1.33
8321.00,1.33
8320.00,1.33
8319.00,1.33
8318.00,1.33
8317.00,1.33
8316.00,1.33
8315.00,1.33
8314.00,1.33
8313.00,1.33
8312.00,1.33
8311.00,1.33
8310.00,1.34
8309.00,1.34
8308.00,1.34
8307.00,1.34
8306.00,1.34
8305.00,1.34
8304.00,1.34
8303.00,1.34
8302.00,1.34
8301.00,1.34
8300.00,1.34
8299.00,1.35
8298.00,1.35
8297.00,1.35
8296.00,1.35
8295.00,1.35
8294.00,1.35
8293.00,1.34
8292.00,1.34
8291.00,1.34
8290.00,1.34
8289.00,1.34
8288.00,1.34
8287.00,1.34
8286.00,1.34
8285.00,1.34
8284.00,1.34
8283.00,1.34
8282.00,1.34
8281.00,1.34
8280.00,1.34
8279.00,1.34
8278.00,1.35
8277.00,1.35
8276.00,1.35
8275.00,1.35
8274.00,1.35
8273.00,1.35
8272.00,1.35
8271.00,1.35
8270.00,1.35
8269.00,1.35
8268.00,1.35
8267.00,1.35
8266.00,1.35
8265.00,1.35
8264.00,1.35
8263.00,1.35
8262.00,1.35
8261.00,1.35
8260.00,1.35
8259.00,1.35
8258.00,1.35
8257.00,1.35
8256.00,1.35
8255.00,1.35
8254.00,1.35
8253.00,1.35
8252.00,1.35
8251.00,1.35
8250.00,1.35
8249.00,1.35
8248.00,1.36
8247.00,1.36
8246.00,1.36
8245.00,1.36
8244.00,1.36
8243.00,1.37
8242.00,1.37
8241.00,1.37
8240.00,1.37
8239.00,1.37
8238.00,1.37
8237.00,1.37
8236.00,1.37
8235.00,1.37
8234.00,1.37
8233.00,1.37
8232.00,1.37
8231.00,1.37
8230.00,1.37
8229.00,1.37
8228.00,1.37
8227.00,1.37
8226.00,1.37
8225.00,1.37
8224.00,1.37
8223.00,1.37
8222.00,1.37
8221.00,1.37
8220.00,1.37
8219.00,1.37
8218.00,1.37
8217.00,1.37
8216.00,1.37
8215.00,1.37
8214.00,1.37
8213.00,1.37
8212.00,1.38
8211.00,1.38
8210.00,1.38
8209.00,1.38
8208.00,1.38
8207.00,1.38
8206.00,1.38
8205.00,1.38
8204.00,1.38
8203.00,1.38
8202.00,1.38
8201.00,1.37
8200.00,1.37
8199.00,1.37
8198.00,1.37
8197.00,1.37
8196.00,1.37
8195.00,1.37
8194.00,1.37
8193.00,1.37
8192.00,1.37
8191.00,1.36
8190.00,1.36
8189.00,1.36
8188.00,1.36
8187.00,1.36
8186.00,1.36
8185.00,1.36
8184.00,1.36
8183.00,1.36
8182.00,1.36
8181.00,1.37
8180.00,1.37
8179.00,1.37
8178.00,1.37
8177.00,1.37
8176.00,1.37
8175.00,1.37
8174.00,1.38
8173.00,1.38
8172.00,1.38
8171.00,1.38
8170.00,1.39
8169.00,1.39
8168.00,1.39
8167.00,1.39
8166.00,1.39
8165.00,1.40
8164.00,1.40
8163.00,1.40
8162.00,1.40
8161.00,1.40
8160.00,1.40
8159.00,1.40
8158.00,1.41
8157.00,1.41
8156.00,1.41
8155.00,1.41
8154.00,1.41
8153.00,1.41
8152.00,1.41
8151.00,1.41
8150.00,1.41
8149.00,1.41
8148.00,1.41
8147.00,1.41
8146.00,1.41
8145.00,1.41
8144.00,1.41
8143.00,1.41
8142.00,1.41
8141.00,1.41
8140.00,1.41
8139.00,1.41
8138.00,1.41
8137.00,1.41
8136.00,1.41
8135.00,1.41
8134.00,1.40
8133.00,1.40
8132.00,1.40
8131.00,1.40
8130.00,1.40
8129.00,1.40
8128.00,1.40
8127.00,1.40
8126.00,1.40
8125.00,1.40
8124.00,1.40
8123.00,1.40
8122.00,1.40
8121.00,1.40
8120.00,1.40
8119.00,1.40
8118.00,1.40
8117.00,1.40
8116.00,1.40
8115.00,1.40
8114.00,1.40
8113.00,1.40
8112.00,1.40
8111.00,1.40
8110.00,1.40
8109.00,1.40
8108.00,1.40
8107.00,1.40
8106.00,1.40
8105.00,1.41
8104.00,1.41
8103.00,1.41
8102.00,1.41
8101.00,1.41
8100.00,1.41
8099.00,1.41
8098.00,1.40
8097.00,1.40
8096.00,1.41
8095.00,1.41
8094.00,1.41
8093.00,1.41
8092.00,1.41
8091.00,1.41
8090.00,1.41
8089.00,1.41
8088.00,1.41
8087.00,1.42
8086.00,1.42
8085.00,1.42
8084.00,1.42
8083.00,1.42
8082.00,1.43
8081.00,1.43
8080.00,1.43
8079.00,1.43
8078.00,1.43
8077.00,1.43
8076.00,1.43
8075.00,1.43
8074.00,1.43
8073.00,1.43
8072.00,1.43
8071.00,1.43
8070.00,1.43
8069.00,1.43
8068.00,1.43
8067.00,1.43
8066.00,1.43
8065.00,1.43
8064.00,1.43
8063.00,1.43
8062.00,1.43
8061.00,1.43
8060.00,1.43
8059.00,1.43
8058.00,1.43
8057.00,1.43
8056.00,1.43
8055.00,1.43
8054.00,1.43
8053.00,1.43
8052.00,1.43
8051.00,1.44
8050.00,1.44
8049.00,1.44
8048.00,1.44
8047.00,1.44
8046.00,1.44
8045.00,1.44
8044.00,1.44
8043.00,1.44
8042.00,1.44
8041.00,1.44
8040.00,1.44
8039.00,1.44
8038.00,1.44
8037.00,1.44
8036.00,1.45
8035.00,1.45
8034.00,1.45
8033.00,1.45
8032.00,1.45
8031.00,1.45
8030.00,1.45
8029.00,1.45
8028.00,1.45
8027.00,1.45
8026.00,1.45
8025.00,1.45
8024.00,1.45
8023.00,1.45
8022.00,1.45
8021.00,1.45
8020.00,1.45
8019.00,1.45
8018.00,1.45
8017.00,1.45
8016.00,1.45
8015.00,1.45
8014.00,1.46
8013.00,1.46
8012.00,1.46
8011.00,1.46
8010.00,1.46
8009.00,1.46
8008.00,1.46
8007.00,1.46
8006.00,1.46
8005.00,1.46
8004.00,1.46
8003.00,1.46
8002.00,1.46
8001.00,1.46
8000.00,1.46
7999.00,1.46
7998.00,1.46
7997.00,1.46
7996.00,1.46
7995.00,1.46
7994.00,1.46
7993.00,1.46
7992.00,1.46
7991.00,1.46
7990.00,1.46
7989.00,1.46
7988.00,1.46
7987.00,1.46
7986.00,1.46
7985.00,1.46
7984.00,1.46
7983.00,1.46
7982.00,1.46
7981.00,1.46
7980.00,1.46
7979.00,1.46
7978.00,1.46
7977.00,1.46
7976.00,1.46
7975.00,1.46
7974.00,1.46
7973.00,1.46
7972.00,1.45
7971.00,1.45
7970.00,1.45
7969.00,1.45
7968.00,1.45
7967.00,1.45
7966.00,1.45
7965.00,1.45
7964.00,1.45
7963.00,1.45
7962.00,1.45
7961.00,1.45
7960.00,1.45
7959.00,1.45
7958.00,1.45
7957.00,1.45
7956.00,1.45
7955.00,1.45
7954.00,1.45
7953.00,1.45
7952.00,1.45
7951.00,1.45
7950.00,1.45
7949.00,1.45
7948.00,1.45
7947.00,1.45
7946.00,1.45
7945.00,1.45
7944.00,1.45
7943.00,1.46
7942.00,1.46
7941.00,1.46
7940.00,1.46
7939.00,1.46
7938.00,1.46
7937.00,1.46
7936.00,1.46
7935.00,1.46
7934.00,1.46
7933.00,1.46
7932.00,1.46
7931.00,1.46
7930.00,1.46
7929.00,1.46
7928.00,1.47
7927.00,1.47
7926.00,1.47
7925.00,1.47
7924.00,1.47
7923.00,1.47
7922.00,1.47
7921.00,1.47
7920.00,1.47
7919.00,1.47
7918.00,1.47
7917.00,1.47
7916.00,1.47
7915.00,1.47
7914.00,1.47
7913.00,1.47
7912.00,1.47
7911.00,1.47
7910.00,1.46
7909.00,1.46
7908.00,1.46
7907.00,1.46
7906.00,1.46
7905.00,1.46
7904.00,1.46
7903.00,1.46
7902.00,1.46
7901.00,1.47
7900.00,1.47
7899.00,1.47
7898.00,1.47
7897.00,1.47
7896.00,1.47
7895.00,1.47
7894.00,1.47
7893.00,1.47
7892.00,1.47
7891.00,1.47
7890.00,1.47
7889.00,1.47
7888.00,1.47
7887.00,1.47
7886.00,1.47
7885.00,1.47
7884.00,1.46
7883.00,1.46
7882.00,1.46
7881.00,1.46
7880.00,1.46
7879.00,1.46
7878.00,1.46
7877.00,1.46
7876.00,1.46
7875.00,1.46
7874.00,1.46
7873.00,1.46
7872.00,1.46
7871.00,1.46
7870.00,1.46
7869.00,1.46
7868.00,1.47
7867.00,1.47
7866.00,1.47
7865.00,1.47
7864.00,1.47
7863.00,1.47
7862.00,1.47
7861.00,1.48
7860.00,1.48
7859.00,1.48
7858.00,1.48
7857.00,1.48
7856.00,1.48
7855.00,1.48
7854.00,1.48
7853.00,1.48
7852.00,1.48
7851.00,1.48
7850.00,1.48
7849.00,1.48
7848.00,1.48
7847.00,1.48
7846.00,1.48
7845.00,1.48
7844.00,1.48
7843.00,1.48
7842.00,1.48
7841.00,1.48
7840.00,1.49
7839.00,1.49
7838.00,1.49
7837.00,1.49
7836.00,1.49
7835.00,1.48
7834.00,1.48
7833.00,1.48
7832.00,1.48
7831.00,1.48
7830.00,1.48
7829.00,1.48
7828.00,1.48
7827.00,1.48
7826.00,1.48
7825.00,1.47
7824.00,1.47
7823.00,1.47
7822.00,1.47
7821.00,1.47
7820.00,1.47
7819.00,1.47
7818.00,1.47
7817.00,1.47
7816.00,1.47
7815.00,1.47
7814.00,1.48
7813.00,1.48
7812.00,1.48
7811.00,1.48
7810.00,1.48
7809.00,1.48
7808.00,1.48
7807.00,1.48
7806.00,1.48
7805.00,1.48
7804.00,1.48
7803.00,1.48
7802.00,1.48
7801.00,1.49
7800.00,1.49
7799.00,1.49
7798.00,1.49
7797.00,1.49
7796.00,1.49
7795.00,1.49
7794.00,1.49
7793.00,1.49
7792.00,1.50
7791.00,1.50
7790.00,1.50
7789.00,1.50
7788.00,1.50
7787.00,1.50
7786.00,1.50
7785.00,1.50
7784.00,1.50
7783.00,1.50
7782.00,1.50
7781.00,1.50
7780.00,1.50
7779.00,1.50
7778.00,1.50
7777.00,1.49
7776.00,1.49
7775.00,1.49
7774.00,1.49
7773.00,1.49
7772.00,1.49
7771.00,1.49
7770.00,1.49
7769.00,1.49
7768.00,1.49
7767.00,1.49
7766.00,1.49
7765.00,1.49
7764.00,1.49
7763.00,1.50
7762.00,1.50
7761.00,1.50
7760.00,1.50
7759.00,1.50
7758.00,1.50
7757.00,1.50
7756.00,1.50
7755.00,1.50
7754.00,1.50
7753.00,1.50
7752.00,1.49
7751.00,1.49
7750.00,1.49
7749.00,1.49
7748.00,1.49
7747.00,1.49
7746.00,1.48
7745.00,1.48
7744.00,1.48
7743.00,1.48
7742.00,1.48
7741.00,1.48
7740.00,1.48
7739.00,1.48
7738.00,1.48
7737.00,1.48
7736.00,1.48
7735.00,1.48
7734.00,1.48
7733.00,1.48
7732.00,1.48
7731.00,1.48
7730.00,1.48
7729.00,1.48
7728.00,1.49
7727.00,1.49
7726.00,1.49
7725.00,1.49
7724.00,1.49
7723.00,1.49
7722.00,1.49
7721.00,1.49
7720.00,1.49
7719.00,1.49
7718.00,1.49
7717.00,1.49
7716.00,1.49
7715.00,1.49
7714.00,1.49
7713.00,1.49
7712.00,1.49
7711.00,1.49
7710.00,1.49
7709.00,1.49
7708.00,1.49
7707.00,1.49
7706.00,1.49
7705.00,1.49
7704.00,1.49
7703.00,1.49
7702.00,1.49
7701.00,1.49
7700.00,1.49
7699.00,1.49
7698.00,1.49
7697.00,1.49
7696.00,1.49
7695.00,1.49
7694.00,1.49
7693.00,1.49
7692.00,1.49
7691.00,1.49
7690.00,1.49
7689.00,1.49
7688.00,1.49
7687.00,1.50
7686.00,1.50
7685.00,1.50
7684.00,1.50
7683.00,1.50
7682.00,1.50
7681.00,1.50
7680.00,1.50
7679.00,1.50
7678.00,1.50
7677.00,1.50
7676.00,1.50
7675.00,1.50
7674.00,1.50
7673.00,1.50
7672.00,1.50
7671.00,1.50
7670.00,1.51
7669.00,1.51
7668.00,1.51
7667.00,1.51
7666.00,1.51
7665.00,1.51
7664.00,1.51
7663.00,1.51
7662.00,1.51
7661.00,1.51
7660.00,1.51
7659.00,1.51
7658.00,1.51
7657.00,1.50
7656.00,1.50
7655.00,1.50
7654.00,1.50
7653.00,1.50
7652.00,1.50
7651.00,1.50
7650.00,1.50
7649.00,1.50
7648.00,1.50
7647.00,1.50
7646.00,1.50
7645.00,1.50
7644.00,1.49
7643.00,1.49
7642.00,1.49
7641.00,1.49
7640.00,1.49
7639.00,1.49
7638.00,1.49
7637.00,1.49
7636.00,1.49
7635.00,1.49
7634.00,1.49
7633.00,1.49
7632.00,1.49
7631.00,1.49
7630.00,1.49
7629.00,1.49
7628.00,1.49
7627.00,1.49
7626.00,1.49
7625.00,1.49
7624.00,1.49
7623.00,1.49
7622.00,1.49
7621.00,1.49
7620.00,1.49
7619.00,1.49
7618.00,1.49
7617.00,1.49
7616.00,1.49
7615.00,1.49
7614.00,1.49
7613.00,1.50
7612.00,1.50
7611.00,1.50
7610.00,1.50
7609.00,1.50
7608.00,1.50
7607.00,1.50
7606.00,1.50
7605.00,1.50
7604.00,1.50
7603.00,1.50
7602.00,1.50
7601.00,1.50
7600.00,1.50
7599.00,1.50
7598.00,1.50
7597.00,1.50
7596.00,1.50
7595.00,1.50
7594.00,1.50
7593.00,1.50
7592.00,1.50
7591.00,1.50
7590.00,1.50
7589.00,1.50
7588.00,1.49
7587.00,1.49
7586.00,1.49
7585.00,1.49
7584.00,1.49
7583.00,1.49
7582.00,1.49
7581.00,1.49
7580.00,1.49
7579.00,1.49
7578.00,1.49
7577.00,1.49
7576.00,1.49
7575.00,1.49
7574.00,1.49
7573.00,1.49
7572.00,1.49
7571.00,1.50
7570.00,1.50
7569.00,1.50
7568.00,1.50
7567.00,1.50
7566.00,1.50
7565.00,1.50
7564.00,1.50
7563.00,1.50
7562.00,1.50
7561.00,1.50
7560.00,1.50
7559.00,1.50
7558.00,1.50
7557.00,1.50
7556.00,1.50
7555.00,1.50
7554.00,1.50
7553.00,1.50
7552.00,1.50
7551.00,1.50
7550.00,1.50
7549.00,1.50
7548.00,1.50
7547.00,1.50
7546.00,1.50
7545.00,1.50
7544.00,1.50
7543.00,1.50
7542.00,1.50
7541.00,1.50
7540.00,1.49
7539.00,1.49
7538.00,1.49
7537.00,1.49
7536.00,1.49
7535.00,1.49
7534.00,1.49
7533.00,1.49
7532.00,1.49
7531.00,1.49
7530.00,1.49
7529.00,1.49
7528.00,1.49
7527.00,1.48
7526.00,1.48
7525.00,1.48
7524.00,1.48
7523.00,1.48
7522.00,1.48
7521.00,1.48
7520.00,1.48
7519.00,1.48
7518.00,1.47
7517.00,1.47
7516.00,1.47
7515.00,1.47
7514.00,1.47
7513.00,1.47
7512.00,1.47
7511.00,1.47
7510.00,1.47
7509.00,1.47
7508.00,1.47
7507.00,1.47
7506.00,1.47
7505.00,1.47
7504.00,1.47
7503.00,1.48
7502.00,1.48
7501.00,1.48
7500.00,1.48
7499.00,1.48
7498.00,1.48
7497.00,1.48
7496.00,1.48
7495.00,1.48
7494.00,1.47
7493.00,1.47
7492.00,1.47
7491.00,1.47
7490.00,1.47
7489.00,1.47
7488.00,1.47
7487.00,1.47
7486.00,1.47
7485.00,1.47
7484.00,1.46
7483.00,1.46
7482.00,1.46
7481.00,1.46
7480.00,1.46
7479.00,1.46
7478.00,1.46
7477.00,1.46
7476.00,1.46
7475.00,1.46
7474.00,1.45
7473.00,1.45
7472.00,1.45
7471.00,1.45
7470.00,1.45
7469.00,1.45
7468.00,1.45
7467.00,1.45
7466.00,1.45
7465.00,1.45
7464.00,1.45
7463.00,1.45
7462.00,1.45
7461.00,1.45
7460.00,1.45
7459.00,1.45
7458.00,1.45
7457.00,1.45
7456.00,1.44
7455.00,1.44
7454.00,1.44
7453.00,1.44
7452.00,1.44
7451.00,1.44
7450.00,1.44
7449.00,1.44
7448.00,1.44
7447.00,1.44
7446.00,1.44
7445.00,1.44
7444.00,1.44
7443.00,1.44
7442.00,1.44
7441.00,1.44
7440.00,1.44
7439.00,1.44
7438.00,1.44
7437.00,1.44
7436.00,1.44
7435.00,1.44
7434.00,1.44
7433.00,1.44
7432.00,1.44
7431.00,1.44
7430.00,1.44
7429.00,1.44
7428.00,1.44
7427.00,1.44
7426.00,1.44
7425.00,1.44
7424.00,1.44
7423.00,1.44
7422.00,1.44
7421.00,1.44
7420.00,1.43
7419.00,1.43
7418.00,1.43
7417.00,1.43
7416.00,1.43
7415.00,1.43
7414.00,1.43
7413.00,1.43
7412.00,1.42
7411.00,1.42
7410.00,1.42
7409.00,1.42
7408.00,1.42
7407.00,1.42
7406.00,1.42
7405.00,1.41
7404.00,1.41
7403.00,1.41
7402.00,1.41
7401.00,1.41
7400.00,1.41
7399.00,1.41
7398.00,1.41
7397.00,1.40
7396.00,1.40
7395.00,1.40
7394.00,1.40
7393.00,1.40
7392.00,1.40
7391.00,1.40
7390.00,1.40
7389.00,1.39
7388.00,1.39
7387.00,1.39
7386.00,1.39
7385.00,1.39
7384.00,1.39
7383.00,1.39
7382.00,1.39
7381.00,1.39
7380.00,1.38
7379.00,1.38
7378.00,1.38
7377.00,1.38
7376.00,1.38
7375.00,1.38
7374.00,1.38
7373.00,1.38
7372.00,1.38
7371.00,1.38
7370.00,1.38
7369.00,1.38
7368.00,1.38
7367.00,1.38
7366.00,1.38
7365.00,1.38
7364.00,1.38
7363.00,1.38
7362.00,1.38
7361.00,1.38
7360.00,1.38
7359.00,1.38
7358.00,1.38
7357.00,1.38
7356.00,1.38
7355.00,1.38
7354.00,1.38
7353.00,1.38
7352.00,1.38
7351.00,1.38
7350.00,1.38
7349.00,1.38
7348.00,1.38
7347.00,1.38
7346.00,1.38
7345.00,1.38
7344.00,1.38
7343.00,1.38
7342.00,1.38
7341.00,1.37
7340.00,1.37
7339.00,1.37
7338.00,1.37
7337.00,1.37
7336.00,1.37
7335.00,1.37
7334.00,1.36
7333.00,1.36
7332.00,1.36
7331.00,1.36
7330.00,1.36
7329.00,1.36
7328.00,1.36
7327.00,1.35
7326.00,1.35
7325.00,1.35
7324.00,1.35
7323.00,1.35
7322.00,1.35
7321.00,1.35
7320.00,1.35
7319.00,1.35
7318.00,1.35
7317.00,1.35
7316.00,1.35
7315.00,1.35
7314.00,1.35
7313.00,1.35
7312.00,1.35
7311.00,1.35
7310.00,1.35
7309.00,1.35
7308.00,1.35
7307.00,1.35
7306.00,1.35
7305.00,1.35
7304.00,1.35
7303.00,1.35
7302.00,1.35
7301.00,1.35
7300.00,1.35
7299.00,1.35
7298.00,1.35
7297.00,1.35
7296.00,1.34
7295.00,1.34
7294.00,1.34
7293.00,1.34
7292.00,1.34
7291.00,1.33
7290.00,1.33
7289.00,1.33
7288.00,1.33
7287.00,1.32
7286.00,1.32
7285.00,1.32
7284.00,1.32
7283.00,1.32
7282.00,1.32
7281.00,1.32
7280.00,1.31
7279.00,1.31
7278.00,1.31
7277.00,1.31
7276.00,1.31
7275.00,1.31
7274.00,1.31
7273.00,1.31
7272.00,1.31
7271.00,1.30
7270.00,1.30
7269.00,1.30
7268.00,1.30
7267.00,1.30
7266.00,1.30
7265.00,1.30
7264.00,1.30
7263.00,1.29
7262.00,1.29
7261.00,1.29
7260.00,1.29
7259.00,1.29
7258.00,1.29
7257.00,1.29
7256.00,1.29
7255.00,1.29
7254.00,1.28
7253.00,1.28
7252.00,1.28
7251.00,1.28
7250.00,1.28
7249.00,1.28
7248.00,1.28
7247.00,1.27
7246.00,1.27
7245.00,1.27
7244.00,1.27
7243.00,1.26
7242.00,1.26
7241.00,1.26
7240.00,1.25
7239.00,1.25
7238.00,1.25
7237.00,1.24
7236.00,1.24
7235.00,1.24
7234.00,1.23
7233.00,1.23
7232.00,1.23
7231.00,1.22
7230.00,1.22
7229.00,1.22
7228.00,1.22
7227.00,1.21
7226.00,1.21
7225.00,1.21
7224.00,1.21
7223.00,1.20
7222.00,1.20
7221.00,1.20
7220.00,1.19
7219.00,1.19
7218.00,1.18
7217.00,1.18
7216.00,1.18
7215.00,1.17
7214.00,1.17
7213.00,1.16
7212.00,1.16
7211.00,1.16
7210.00,1.15
7209.00,1.15
7208.00,1.14
7207.00,1.14
7206.00,1.14
7205.00,1.13
7204.00,1.13
7203.00,1.13
7202.00,1.12
7201.00,1.12
7200.00,1.12
7199.00,1.11
7198.00,1.11
7197.00,1.11
7196.00,1.10
7195.00,1.10
7194.00,1.10
7193.00,1.09
7192.00,1.09
7191.00,1.09
7190.00,1.08
7189.00,1.08
7188.00,1.08
7187.00,1.07
7186.00,1.07
7185.00,1.07
7184.00,1.06
7183.00,1.06
7182.00,1.05
7181.00,1.05
7180.00,1.05
7179.00,1.05
7178.00,1.04
7177.00,1.04
7176.00,1.04
7175.00,1.03
7174.00,1.03
7173.00,1.03
7172.00,1.03
7171.00,1.02
7170.00,1.02
7169.00,1.02
7168.00,1.01
7167.00,1.01
7166.00,1.01
7165.00,1.01
7164.00,1.00
7163.00,1.00
7162.00,1.00
7161.00,1.00
7160.00,1.00
7159.00,0.99
7158.00,0.99
7157.00,0.99
7156.00,0.98
7155.00,0.98
7154.00,0.98
7153.00,0.98
7152.00,0.97
7151.00,0.97
7150.00,0.97
7149.00,0.96
7148.00,0.96
7147.00,0.96
7146.00,0.95
7145.00,0.95
7144.00,0.95
7143.00,0.94
7142.00,0.94
7141.00,0.94
7140.00,0.94
7139.00,0.93
7138.00,0.93
7137.00,0.93
7136.00,0.93
7135.00,0.92
7134.00,0.92
7133.00,0.92
7132.00,0.92
7131.00,0.91
7130.00,0.91
7129.00,0.91
7128.00,0.91
7127.00,0.90
7126.00,0.90
7125.00,0.90
7124.00,0.90
7123.00,0.89
7122.00,0.89
7121.00,0.89
7120.00,0.88
7119.00,0.88
7118.00,0.88
7117.00,0.87
7116.00,0.87
7115.00,0.87
7114.00,0.87
7113.00,0.86
7112.00,0.86
7111.00,0.86
7110.00,0.85
7109.00,0.85
7108.00,0.85
7107.00,0.85
7106.00,0.84
7105.00,0.84
7104.00,0.84
7103.00,0.83
7102.00,0.83
7101.00,0.83
7100.00,0.83
7099.00,0.82
7098.00,0.82
7097.00,0.82
7096.00,0.82
7095.00,0.81
7094.00,0.81
7093.00,0.81
7092.00,0.81
7091.00,0.80
7090.00,0.80
7089.00,0.80
7088.00,0.80
7087.00,0.79
7086.00,0.79
7085.00,0.79
7084.00,0.79
7083.00,0.78
7082.00,0.78
7081.00,0.78
7080.00,0.78
7079.00,0.78
7078.00,0.77
7077.00,0.77
7076.00,0.77
7075.00,0.77
7074.00,0.76
7073.00,0.76
7072.00,0.76
7071.00,0.76
7070.00,0.76
7069.00,0.75
7068.00,0.75
7067.00,0.75
7066.00,0.75
7065.00,0.75
7064.00,0.74
7063.00,0.74
7062.00,0.74
7061.00,0.74
7060.00,0.74
7059.00,0.73
7058.00,0.73
7057.00,0.73
7056.00,0.73
7055.00,0.73
7054.00,0.73
7053.00,0.72
7052.00,0.72
7051.00,0.72
7050.00,0.72
7049.00,0.72
7048.00,0.72
7047.00,0.72
7046.00,0.72
7045.00,0.71
7044.00,0.71
7043.00,0.71
7042.00,0.71
7041.00,0.71
7040.00,0.71
7039.00,0.71
7038.00,0.71
7037.00,0.71
7036.00,0.71
7035.00,0.71
7034.00,0.71
7033.00,0.71
7032.00,0.71
7031.00,0.70
7030.00,0.70
7029.00,0.70
7028.00,0.70
7027.00,0.70
7026.00,0.70
7025.00,0.70
7024.00,0.70
7023.00,0.70
7022.00,0.70
7021.00,0.70
7020.00,0.70
7019.00,0.69
7018.00,0.69
7017.00,0.69
7016.00,0.69
7015.00,0.69
7014.00,0.68
7013.00,0.68
7012.00,0.68
7011.00,0.68
7010.00,0.67
7009.00,0.67
7008.00,0.67
7007.00,0.67
7006.00,0.67
7005.00,0.67
7004.00,0.66
7003.00,0.66
7002.00,0.66
7001.00,0.66
7000.00,0.66
6999.00,0.66
6998.00,0.66
6997.00,0.66
6996.00,0.66
6995.00,0.66
6994.00,0.65
6993.00,0.65
6992.00,0.65
6991.00,0.65
6990.00,0.65
6989.00,0.65
6988.00,0.65
6987.00,0.65
6986.00,0.65
6985.00,0.65
6984.00,0.65
6983.00,0.65
6982.00,0.64
6981.00,0.64
6980.00,0.64
6979.00,0.64
6978.00,0.64
6977.00,0.64
6976.00,0.64
6975.00,0.64
6974.00,0.64
6973.00,0.64
6972.00,0.64
6971.00,0.64
6970.00,0.64
6969.00,0.64
6968.00,0.64
6967.00,0.64
6966.00,0.64
6965.00,0.64
6964.00,0.64
6963.00,0.63
6962.00,0.63
6961.00,0.63
6960.00,0.63
6959.00,0.63
6958.00,0.63
6957.00,0.63
6956.00,0.63
6955.00,0.62
6954.00,0.62
6953.00,0.62
6952.00,0.62
6951.00,0.62
6950.00,0.62
6949.00,0.62
6948.00,0.62
6947.00,0.62
6946.00,0.61
6945.00,0.61
6944.00,0.61
6943.00,0.61
6942.00,0.61
6941.00,0.61
6940.00,0.61
6939.00,0.61
6938.00,0.61
6937.00,0.61
6936.00,0.61
6935.00,0.61
6934.00,0.61
6933.00,0.61
6932.00,0.62
6931.00,0.62
6930.00,0.62
6929.00,0.62
6928.00,0.62
6927.00,0.62
6926.00,0.62
6925.00,0.62
6924.00,0.62
6923.00,0.62
6922.00,0.62
6921.00,0.62
6920.00,0.62
6919.00,0.62
6918.00,0.62
6917.00,0.62
6916.00,0.62
6915.00,0.61
6914.00,0.61
6913.00,0.61
6912.00,0.61
6911.00,0.61
6910.00,0.61
6909.00,0.61
6908.00,0.61
6907.00,0.61
6906.00,0.61
6905.00,0.61
6904.00,0.60
6903.00,0.60
6902.00,0.60
6901.00,0.60
6900.00,0.60
6899.00,0.60
6898.00,0.60
6897.00,0.60
6896.00,0.60
6895.00,0.60
6894.00,0.60
6893.00,0.60
6892.00,0.60
6891.00,0.60
6890.00,0.60
6889.00,0.60
6888.00,0.60
6887.00,0.60
6886.00,0.60
6885.00,0.60
6884.00,0.60
6883.00,0.60
6882.00,0.60
6881.00,0.60
6880.00,0.60
6879.00,0.60
6878.00,0.60
6877.00,0.60
6876.00,0.60
6875.00,0.60
6874.00,0.60
6873.00,0.60
6872.00,0.60
6871.00,0.60
6870.00,0.60
6869.00,0.60
6868.00,0.60
6867.00,0.60
6866.00,0.60
6865.00,0.60
6864.00,0.60
6863.00,0.60
6862.00,0.60
6861.00,0.60
6860.00,0.60
6859.00,0.60
6858.00,0.60
6857.00,0.60
6856.00,0.60
6855.00,0.60
6854.00,0.60
6853.00,0.60
6852.00,0.60
6851.00,0.60
6850.00,0.60
6849.00,0.60
6848.00,0.60
6847.00,0.60
6846.00,0.60
6845.00,0.60
6844.00,0.60
6843.00,0.60
6842.00,0.60
6841.00,0.60
6840.00,0.60
6839.00,0.60
6838.00,0.60
6837.00,0.60
6836.00,0.60
6835.00,0.60
6834.00,0.60
6833.00,0.60
6832.00,0.60
6831.00,0.60
6830.00,0.60
6829.00,0.60
6828.00,0.60
6827.00,0.60
6826.00,0.60
6825.00,0.60
6824.00,0.60
6823.00,0.61
6822.00,0.61
6821.00,0.61
6820.00,0.61
6819.00,0.61
6818.00,0.61
6817.00,0.61
6816.00,0.61
6815.00,0.61
6814.00,0.61
6813.00,0.61
6812.00,0.61
6811.00,0.61
6810.00,0.61
6809.00,0.61
6808.00,0.61
6807.00,0.62
6806.00,0.62
6805.00,0.62
6804.00,0.62
6803.00,0.62
6802.00,0.62
6801.00,0.62
6800.00,0.62
6799.00,0.62
6798.00,0.62
6797.00,0.62
6796.00,0.62
6795.00,0.62
6794.00,0.62
6793.00,0.62
6792.00,0.62
6791.00,0.62
6790.00,0.62
6789.00,0.62
6788.00,0.63
6787.00,0.63
6786.00,0.63
6785.00,0.63
6784.00,0.63
6783.00,0.63
6782.00,0.63
6781.00,0.63
6780.00,0.63
6779.00,0.63
6778.00,0.63
6777.00,0.63
6776.00,0.63
6775.00,0.63
6774.00,0.63
6773.00,0.63
6772.00,0.63
6771.00,0.63
6770.00,0.63
6769.00,0.63
6768.00,0.63
6767.00,0.63
6766.00,0.63
6765.00,0.63
6764.00,0.63
6763.00,0.63
6762.00,0.63
6761.00,0.64
6760.00,0.64
6759.00,0.64
6758.00,0.64
6757.00,0.64
6756.00,0.64
6755.00,0.64
6754.00,0.64
6753.00,0.64
6752.00,0.64
6751.00,0.64
6750.00,0.64
6749.00,0.64
6748.00,0.64
6747.00,0.64
6746.00,0.64
6745.00,0.64
6744.00,0.64
6743.00,0.64
6742.00,0.64
6741.00,0.64
6740.00,0.64
6739.00,0.64
6738.00,0.64
6737.00,0.65
6736.00,0.65
6735.00,0.65
6734.00,0.65
6733.00,0.65
6732.00,0.65
6731.00,0.65
6730.00,0.66
6729.00,0.66
6728.00,0.66
6727.00,0.66
6726.00,0.66
6725.00,0.66
6724.00,0.67
6723.00,0.67
6722.00,0.67
6721.00,0.67
6720.00,0.67
6719.00,0.67
6718.00,0.67
6717.00,0.67
6716.00,0.67
6715.00,0.67
6714.00,0.67
6713.00,0.67
6712.00,0.67
6711.00,0.67
6710.00,0.67
6709.00,0.67
6708.00,0.68
6707.00,0.68
6706.00,0.68
6705.00,0.68
6704.00,0.68
6703.00,0.68
6702.00,0.68
6701.00,0.68
6700.00,0.68
6699.00,0.68
6698.00,0.68
6697.00,0.68
6696.00,0.68
6695.00,0.68
6694.00,0.68
6693.00,0.68
6692.00,0.68
6691.00,0.68
6690.00,0.68
6689.00,0.68
6688.00,0.69
6687.00,0.69
6686.00,0.69
6685.00,0.69
6684.00,0.69
6683.00,0.69
6682.00,0.69
6681.00,0.69
6680.00,0.69
6679.00,0.70
6678.00,0.70
6677.00,0.70
6676.00,0.70
6675.00,0.70
6674.00,0.70
6673.00,0.70
6672.00,0.70
6671.00,0.71
6670.00,0.71
6669.00,0.71
6668.00,0.71
6667.00,0.71
6666.00,0.71
6665.00,0.71
6664.00,0.72
6663.00,0.72
6662.00,0.72
6661.00,0.72
6660.00,0.72
6659.00,0.72
6658.00,0.72
6657.00,0.73
6656.00,0.73
6655.00,0.73
6654.00,0.73
6653.00,0.73
6652.00,0.73
6651.00,0.73
6650.00,0.73
6649.00,0.73
6648.00,0.73
6647.00,0.73
6646.00,0.73
6645.00,0.73
6644.00,0.73
6643.00,0.73
6642.00,0.73
6641.00,0.73
6640.00,0.73
6639.00,0.74
6638.00,0.74
6637.00,0.74
6636.00,0.74
6635.00,0.74
6634.00,0.74
6633.00,0.74
6632.00,0.74
6631.00,0.75
6630.00,0.75
6629.00,0.75
6628.00,0.75
6627.00,0.75
6626.00,0.75
6625.00,0.76
6624.00,0.76
6623.00,0.76
6622.00,0.76
6621.00,0.76
6620.00,0.76
6619.00,0.76
6618.00,0.76
6617.00,0.77
6616.00,0.77
6615.00,0.77
6614.00,0.77
6613.00,0.77
6612.00,0.77
6611.00,0.77
6610.00,0.77
6609.00,0.77
6608.00,0.77
6607.00,0.77
6606.00,0.78
6605.00,0.78
6604.00,0.78
6603.00,0.78
6602.00,0.78
6601.00,0.78
6600.00,0.78
6599.00,0.78
6598.00,0.78
6597.00,0.78
6596.00,0.78
6595.00,0.78
6594.00,0.78
6593.00,0.78
6592.00,0.78
6591.00,0.78
6590.00,0.78
6589.00,0.78
6588.00,0.79
6587.00,0.79
6586.00,0.79
6585.00,0.79
6584.00,0.79
6583.00,0.80
6582.00,0.80
6581.00,0.80
6580.00,0.80
6579.00,0.80
6578.00,0.81
6577.00,0.81
6576.00,0.81
6575.00,0.81
6574.00,0.81
6573.00,0.81
6572.00,0.81
6571.00,0.81
6570.00,0.81
6569.00,0.81
6568.00,0.81
6567.00,0.81
6566.00,0.81
6565.00,0.81
6564.00,0.81
6563.00,0.81
6562.00,0.81
6561.00,0.82
6560.00,0.82
6559.00,0.82
6558.00,0.82
6557.00,0.82
6556.00,0.82
6555.00,0.82
6554.00,0.82
6553.00,0.83
6552.00,0.83
6551.00,0.83
6550.00,0.83
6549.00,0.83
6548.00,0.83
6547.00,0.84
6546.00,0.84
6545.00,0.84
6544.00,0.84
6543.00,0.84
6542.00,0.84
6541.00,0.84
6540.00,0.85
6539.00,0.85
6538.00,0.85
6537.00,0.85
6536.00,0.85
6535.00,0.85
6534.00,0.85
6533.00,0.85
6532.00,0.85
6531.00,0.85
6530.00,0.85
6529.00,0.85
6528.00,0.85
6527.00,0.85
6526.00,0.85
6525.00,0.85
6524.00,0.85
6523.00,0.85
6522.00,0.86
6521.00,0.86
6520.00,0.86
6519.00,0.86
6518.00,0.86
6517.00,0.86
6516.00,0.86
6515.00,0.86
6514.00,0.86
6513.00,0.86
6512.00,0.86
6511.00,0.86
6510.00,0.86
6509.00,0.86
6508.00,0.87
6507.00,0.87
6506.00,0.87
6505.00,0.86
6504.00,0.86
6503.00,0.86
6502.00,0.86
6501.00,0.86
6500.00,0.86
6499.00,0.86
6498.00,0.86
6497.00,0.86
6496.00,0.86
6495.00,0.86
6494.00,0.86
6493.00,0.86
6492.00,0.86
6491.00,0.87
6490.00,0.87
6489.00,0.87
6488.00,0.87
6487.00,0.87
6486.00,0.87
6485.00,0.87
6484.00,0.87
6483.00,0.88
6482.00,0.88
6481.00,0.88
6480.00,0.88
6479.00,0.88
6478.00,0.88
6477.00,0.88
6476.00,0.88
6475.00,0.89
6474.00,0.89
6473.00,0.89
6472.00,0.89
6471.00,0.89
6470.00,0.89
6469.00,0.89
6468.00,0.89
6467.00,0.89
6466.00,0.89
6465.00,0.89
6464.00,0.89
6463.00,0.89
6462.00,0.90
6461.00,0.90
6460.00,0.90
6459.00,0.90
6458.00,0.90
6457.00,0.90
6456.00,0.90
6455.00,0.90
6454.00,0.90
6453.00,0.90
6452.00,0.90
6451.00,0.90
6450.00,0.90
6449.00,0.90
6448.00,0.90
6447.00,0.90
6446.00,0.90
6445.00,0.91
6444.00,0.91
6443.00,0.91
6442.00,0.91
6441.00,0.91
6440.00,0.91
6439.00,0.91
6438.00,0.91
6437.00,0.91
6436.00,0.91
6435.00,0.91
6434.00,0.91
6433.00,0.91
6432.00,0.91
6431.00,0.91
6430.00,0.92
6429.00,0.92
6428.00,0.92
6427.00,0.92
6426.00,0.92
6425.00,0.92
6424.00,0.92
6423.00,0.92
6422.00,0.92
6421.00,0.92
6420.00,0.92
6419.00,0.93
6418.00,0.93
6417.00,0.93
6416.00,0.93
6415.00,0.93
6414.00,0.93
6413.00,0.93
6412.00,0.93
6411.00,0.93
6410.00,0.93
6409.00,0.93
6408.00,0.93
6407.00,0.93
6406.00,0.93
6405.00,0.93
6404.00,0.93
6403.00,0.93
6402.00,0.93
6401.00,0.93
6400.00,0.93
6399.00,0.93
6398.00,0.93
6397.00,0.93
6396.00,0.93
6395.00,0.93
6394.00,0.93
6393.00,0.94
6392.00,0.94
6391.00,0.94
6390.00,0.94
6389.00,0.94
6388.00,0.94
6387.00,0.94
6386.00,0.94
6385.00,0.94
6384.00,0.94
6383.00,0.94
6382.00,0.94
6381.00,0.94
6380.00,0.95
6379.00,0.95
6378.00,0.95
6377.00,0.95
6376.00,0.95
6375.00,0.95
6374.00,0.95
6373.00,0.95
6372.00,0.95
6371.00,0.95
6370.00,0.95
6369.00,0.95
6368.00,0.95
6367.00,0.95
6366.00,0.95
6365.00,0.95
6364.00,0.95
6363.00,0.95
6362.00,0.95
6361.00,0.96
6360.00,0.96
6359.00,0.96
6358.00,0.96
6357.00,0.96
6356.00,0.96
6355.00,0.96
6354.00,0.96
6353.00,0.96
6352.00,0.96
6351.00,0.96
6350.00,0.96
6349.00,0.96
6348.00,0.96
6347.00,0.97
6346.00,0.97
6345.00,0.97
6344.00,0.97
6343.00,0.97
6342.00,0.97
6341.00,0.97
6340.00,0.97
6339.00,0.97
6338.00,0.97
6337.00,0.97
6336.00,0.97
6335.00,0.97
6334.00,0.97
6333.00,0.97
6332.00,0.97
6331.00,0.98
6330.00,0.98
6329.00,0.98
6328.00,0.98
6327.00,0.98
6326.00,0.98
6325.00,0.98
6324.00,0.98
6323.00,0.98
6322.00,0.98
6321.00,0.98
6320.00,0.99
6319.00,0.99
6318.00,0.99
6317.00,0.99
6316.00,0.99
6315.00,0.99
6314.00,0.99
6313.00,0.99
6312.00,0.99
6311.00,1.00
6310.00,1.00
6309.00,1.00
6308.00,1.00
6307.00,1.00
6306.00,1.00
6305.00,1.00
6304.00,1.00
6303.00,1.00
6302.00,1.00
6301.00,1.01
6300.00,1.01
6299.00,1.01
6298.00,1.01
6297.00,1.01
6296.00,1.01
6295.00,1.01
6294.00,1.02
6293.00,1.02
6292.00,1.02
6291.00,1.02
6290.00,1.02
6289.00,1.02
6288.00,1.02
6287.00,1.03
6286.00,1.03
6285.00,1.03
6284.00,1.03
6283.00,1.03
6282.00,1.03
6281.00,1.03
6280.00,1.03
6279.00,1.03
6278.00,1.04
6277.00,1.04
6276.00,1.04
6275.00,1.04
6274.00,1.04
6273.00,1.04
6272.00,1.04
6271.00,1.04
6270.00,1.04
6269.00,1.05
6268.00,1.05
6267.00,1.05
6266.00,1.05
6265.00,1.05
6264.00,1.05
6263.00,1.05
6262.00,1.05
6261.00,1.05
6260.00,1.05
6259.00,1.05
6258.00,1.06
6257.00,1.06
6256.00,1.06
6255.00,1.06
6254.00,1.06
6253.00,1.06
6252.00,1.06
6251.00,1.06
6250.00,1.07
6249.00,1.07
6248.00,1.07
6247.00,1.07
6246.00,1.07
6245.00,1.08
6244.00,1.08
6243.00,1.08
6242.00,1.08
6241.00,1.09
6240.00,1.09
6239.00,1.09
6238.00,1.09
6237.00,1.10
6236.00,1.10
6235.00,1.10
6234.00,1.10
6233.00,1.11
6232.00,1.11
6231.00,1.11
6230.00,1.11
6229.00,1.11
6228.00,1.12
6227.00,1.12
6226.00,1.12
6225.00,1.12
6224.00,1.12
6223.00,1.12
6222.00,1.12
6221.00,1.12
6220.00,1.12
6219.00,1.13
6218.00,1.13
6217.00,1.13
6216.00,1.13
6215.00,1.13
6214.00,1.13
6213.00,1.13
6212.00,1.13
6211.00,1.13
6210.00,1.14
6209.00,1.14
6208.00,1.14
6207.00,1.14
6206.00,1.14
6205.00,1.14
6204.00,1.14
6203.00,1.14
6202.00,1.14
6201.00,1.14
6200.00,1.14
6199.00,1.15
6198.00,1.15
6197.00,1.15
6196.00,1.15
6195.00,1.15
6194.00,1.15
6193.00,1.15
6192.00,1.15
6191.00,1.16
6190.00,1.16
6189.00,1.16
6188.00,1.16
6187.00,1.16
6186.00,1.17
6185.00,1.17
6184.00,1.17
6183.00,1.17
6182.00,1.17
6181.00,1.18
6180.00,1.18
6179.00,1.18
6178.00,1.18
6177.00,1.19
6176.00,1.19
6175.00,1.19
6174.00,1.19
6173.00,1.19
6172.00,1.19
6171.00,1.20
6170.00,1.20
6169.00,1.20
6168.00,1.20
6167.00,1.20
6166.00,1.20
6165.00,1.20
6164.00,1.21
6163.00,1.21
6162.00,1.21
6161.00,1.21
6160.00,1.21
6159.00,1.21
6158.00,1.22
6157.00,1.22
6156.00,1.22
6155.00,1.22
6154.00,1.22
6153.00,1.22
6152.00,1.23
6151.00,1.23
6150.00,1.23
6149.00,1.23
6148.00,1.23
6147.00,1.24
6146.00,1.24
6145.00,1.24
6144.00,1.24
6143.00,1.24
6142.00,1.24
6141.00,1.24
6140.00,1.25
6139.00,1.25
6138.00,1.25
6137.00,1.25
6136.00,1.25
6135.00,1.25
6134.00,1.25
6133.00,1.25
6132.00,1.25
6131.00,1.25
6130.00,1.25
6129.00,1.25
6128.00,1.25
6127.00,1.26
6126.00,1.26
6125.00,1.26
6124.00,1.26
6123.00,1.26
6122.00,1.26
6121.00,1.26
6120.00,1.26
6119.00,1.26
6118.00,1.27
6117.00,1.27
6116.00,1.27
6115.00,1.27
6114.00,1.28
6113.00,1.28
6112.00,1.28
6111.00,1.28
6110.00,1.29
6109.00,1.29
6108.00,1.29
6107.00,1.29
6106.00,1.30
6105.00,1.30
6104.00,1.30
6103.00,1.30
6102.00,1.30
6101.00,1.31
6100.00,1.31
6099.00,1.31
6098.00,1.31
6097.00,1.31
6096.00,1.31
6095.00,1.31
6094.00,1.32
6093.00,1.32
6092.00,1.32
6091.00,1.32
6090.00,1.32
6089.00,1.32
6088.00,1.32
6087.00,1.33
6086.00,1.33
6085.00,1.33
6084.00,1.33
6083.00,1.33
6082.00,1.33
6081.00,1.33
6080.00,1.33
6079.00,1.33
6078.00,1.33
6077.00,1.33
6076.00,1.33
6075.00,1.33
6074.00,1.33
6073.00,1.33
6072.00,1.34
6071.00,1.34
6070.00,1.34
6069.00,1.34
6068.00,1.34
6067.00,1.34
6066.00,1.35
6065.00,1.35
6064.00,1.35
6063.00,1.35
6062.00,1.35
6061.00,1.35
6060.00,1.36
6059.00,1.36
6058.00,1.36
6057.00,1.36
6056.00,1.36
6055.00,1.36
6054.00,1.36
6053.00,1.36
6052.00,1.36
6051.00,1.36
6050.00,1.37
6049.00,1.37
6048.00,1.37
6047.00,1.37
6046.00,1.37
6045.00,1.37
6044.00,1.37
6043.00,1.37
6042.00,1.37
6041.00,1.37
6040.00,1.37
6039.00,1.37
6038.00,1.37
6037.00,1.37
6036.00,1.37
6035.00,1.37
6034.00,1.37
6033.00,1.37
6032.00,1.37
6031.00,1.37
6030.00,1.37
6029.00,1.37
6028.00,1.38
6027.00,1.38
6026.00,1.38
6025.00,1.38
6024.00,1.38
6023.00,1.38
6022.00,1.38
6021.00,1.38
6020.00,1.38
6019.00,1.38
6018.00,1.38
6017.00,1.38
6016.00,1.38
6015.00,1.38
6014.00,1.38
6013.00,1.38
6012.00,1.38
6011.00,1.38
6010.00,1.39
6009.00,1.39
6008.00,1.39
6007.00,1.39
6006.00,1.39
6005.00,1.38
6004.00,1.38
6003.00,1.38
6002.00,1.38
6001.00,1.38
6000.00,1.38
5999.00,1.38
5998.00,1.38
5997.00,1.37
5996.00,1.37
5995.00,1.37
5994.00,1.37
5993.00,1.37
5992.00,1.36
5991.00,1.36
5990.00,1.36
5989.00,1.36
5988.00,1.36
5987.00,1.35
5986.00,1.35
5985.00,1.35
5984.00,1.34
5983.00,1.34
5982.00,1.34
5981.00,1.34
5980.00,1.33
5979.00,1.33
5978.00,1.32
5977.00,1.32
5976.00,1.31
5975.00,1.31
5974.00,1.30
5973.00,1.30
5972.00,1.29
5971.00,1.28
5970.00,1.28
5969.00,1.27
5968.00,1.26
5967.00,1.26
5966.00,1.25
5965.00,1.24
5964.00,1.23
5963.00,1.23
5962.00,1.22
5961.00,1.21
5960.00,1.20
5959.00,1.19
5958.00,1.19
5957.00,1.18
5956.00,1.17
5955.00,1.16
5954.00,1.16
5953.00,1.15
5952.00,1.14
5951.00,1.14
5950.00,1.13
5949.00,1.12
5948.00,1.12
5947.00,1.11
5946.00,1.11
5945.00,1.10
5944.00,1.10
5943.00,1.10
5942.00,1.09
5941.00,1.09
5940.00,1.09
5939.00,1.09
5938.00,1.08
5937.00,1.08
5936.00,1.08
5935.00,1.08
5934.00,1.08
5933.00,1.08
5932.00,1.08
5931.00,1.08
5930.00,1.07
5929.00,1.07
5928.00,1.07
5927.00,1.07
5926.00,1.07
5925.00,1.07
5924.00,1.07
5923.00,1.06
5922.00,1.06
5921.00,1.06
5920.00,1.06
5919.00,1.05
5918.00,1.05
5917.00,1.05
5916.00,1.04
5915.00,1.04
5914.00,1.04
5913.00,1.04
5912.00,1.03
5911.00,1.03
5910.00,1.03
5909.00,1.02
5908.00,1.02
5907.00,1.02
5906.00,1.02
5905.00,1.02
5904.00,1.01
5903.00,1.01
5902.00,1.01
5901.00,1.01
5900.00,1.01
5899.00,1.01
5898.00,1.01
5897.00,1.02
5896.00,1.02
5895.00,1.02
5894.00,1.02
5893.00,1.02
5892.00,1.03
5891.00,1.03
5890.00,1.03
5889.00,1.03
5888.00,1.04
5887.00,1.04
5886.00,1.04
5885.00,1.05
5884.00,1.05
5883.00,1.05
5882.00,1.05
5881.00,1.06
5880.00,1.06
5879.00,1.06
5878.00,1.07
5877.00,1.07
5876.00,1.07
5875.00,1.08
5874.00,1.08
5873.00,1.08
5872.00,1.08
5871.00,1.09
5870.00,1.09
5869.00,1.09
5868.00,1.09
5867.00,1.10
5866.00,1.10
5865.00,1.10
5864.00,1.10
5863.00,1.11
5862.00,1.11
5861.00,1.11
5860.00,1.11
5859.00,1.11
5858.00,1.11
5857.00,1.11
5856.00,1.11
5855.00,1.11
5854.00,1.12
5853.00,1.12
5852.00,1.12
5851.00,1.12
5850.00,1.12
5849.00,1.12
5848.00,1.12
5847.00,1.12
5846.00,1.12
5845.00,1.12
5844.00,1.12
5843.00,1.12
5842.00,1.12
5841.00,1.12
5840.00,1.12
5839.00,1.12
5838.00,1.12
5837.00,1.12
5836.00,1.12
5835.00,1.12
5834.00,1.12
5833.00,1.12
5832.00,1.12
5831.00,1.12
5830.00,1.12
5829.00,1.12
5828.00,1.12
5827.00,1.12
5826.00,1.12
5825.00,1.12
5824.00,1.12
5823.00,1.12
5822.00,1.12
5821.00,1.12
5820.00,1.12
5819.00,1.12
5818.00,1.12
5817.00,1.12
5816.00,1.12
5815.00,1.12
5814.00,1.12
5813.00,1.12
5812.00,1.12
5811.00,1.12
5810.00,1.12
5809.00,1.12
5808.00,1.12
5807.00,1.12
5806.00,1.12
5805.00,1.12
5804.00,1.12
5803.00,1.12
5802.00,1.12
5801.00,1.12
5800.00,1.11
5799.00,1.11
5798.00,1.11
5797.00,1.11
5796.00,1.11
5795.00,1.11
5794.00,1.10
5793.00,1.10
5792.00,1.10
5791.00,1.10
5790.00,1.09
5789.00,1.09
5788.00,1.09
5787.00,1.09
5786.00,1.08
5785.00,1.08
5784.00,1.08
5783.00,1.08
5782.00,1.07
5781.00,1.07
5780.00,1.07
5779.00,1.07
5778.00,1.07
5777.00,1.07
5776.00,1.07
5775.00,1.07
5774.00,1.07
5773.00,1.07
5772.00,1.07
5771.00,1.07
5770.00,1.07
5769.00,1.07
5768.00,1.07
5767.00,1.07
5766.00,1.07
5765.00,1.07
5764.00,1.07
5763.00,1.08
5762.00,1.08
5761.00,1.08
5760.00,1.08
5759.00,1.08
5758.00,1.09
5757.00,1.09
5756.00,1.09
5755.00,1.10
5754.00,1.10
5753.00,1.11
5752.00,1.11
5751.00,1.11
5750.00,1.12
5749.00,1.12
5748.00,1.13
5747.00,1.13
5746.00,1.13
5745.00,1.14
5744.00,1.14
5743.00,1.15
5742.00,1.15
5741.00,1.15
5740.00,1.16
5739.00,1.16
5738.00,1.16
5737.00,1.17
5736.00,1.17
5735.00,1.17
5734.00,1.17
5733.00,1.18
5732.00,1.18
5731.00,1.18
5730.00,1.18
5729.00,1.19
5728.00,1.19
5727.00,1.19
5726.00,1.19
5725.00,1.19
5724.00,1.20
5723.00,1.20
5722.00,1.20
5721.00,1.20
5720.00,1.20
5719.00,1.20
5718.00,1.20
5717.00,1.20
5716.00,1.20
5715.00,1.20
5714.00,1.20
5713.00,1.20
5712.00,1.20
5711.00,1.20
5710.00,1.20
5709.00,1.20
5708.00,1.19
5707.00,1.19
5706.00,1.19
5705.00,1.19
5704.00,1.19
5703.00,1.19
5702.00,1.19
5701.00,1.19
5700.00,1.19
5699.00,1.19
5698.00,1.19
5697.00,1.19
5696.00,1.18
5695.00,1.18
5694.00,1.18
5693.00,1.18
5692.00,1.18
5691.00,1.18
5690.00,1.18
5689.00,1.17
5688.00,1.17
5687.00,1.17
5686.00,1.17
5685.00,1.17
5684.00,1.17
5683.00,1.17
5682.00,1.16
5681.00,1.16
5680.00,1.16
5679.00,1.16
5678.00,1.16
5677.00,1.16
5676.00,1.16
5675.00,1.16
5674.00,1.16
5673.00,1.16
5672.00,1.16
5671.00,1.16
5670.00,1.16
5669.00,1.16
5668.00,1.16
5667.00,1.16
5666.00,1.16
5665.00,1.17
5664.00,1.17
5663.00,1.17
5662.00,1.17
5661.00,1.17
5660.00,1.17
5659.00,1.17
5658.00,1.18
5657.00,1.18
5656.00,1.18
5655.00,1.18
5654.00,1.18
5653.00,1.19
5652.00,1.19
5651.00,1.19
5650.00,1.19
5649.00,1.20
5648.00,1.20
5647.00,1.20
5646.00,1.21
5645.00,1.21
5644.00,1.21
5643.00,1.21
5642.00,1.22
5641.00,1.22
5640.00,1.22
5639.00,1.22
5638.00,1.23
5637.00,1.23
5636.00,1.23
5635.00,1.23
5634.00,1.23
5633.00,1.24
5632.00,1.24
5631.00,1.24
5630.00,1.24
5629.00,1.24
5628.00,1.24
5627.00,1.25
5626.00,1.25
5625.00,1.25
5624.00,1.25
5623.00,1.25
5622.00,1.25
5621.00,1.25
5620.00,1.26
5619.00,1.26
5618.00,1.26
5617.00,1.26
5616.00,1.26
5615.00,1.26
5614.00,1.27
5613.00,1.27
5612.00,1.27
5611.00,1.27
5610.00,1.28
5609.00,1.28
5608.00,1.28
5607.00,1.28
5606.00,1.29
5605.00,1.29
5604.00,1.29
5603.00,1.29
5602.00,1.30
5601.00,1.30
5600.00,1.30
5599.00,1.30
5598.00,1.31
5597.00,1.31
5596.00,1.31
5595.00,1.31
5594.00,1.31
5593.00,1.32
5592.00,1.32
5591.00,1.32
5590.00,1.32
5589.00,1.32
5588.00,1.32
5587.00,1.32
5586.00,1.33
5585.00,1.33
5584.00,1.33
5583.00,1.33
5582.00,1.33
5581.00,1.33
5580.00,1.33
5579.00,1.34
5578.00,1.34
5577.00,1.34
5576.00,1.34
5575.00,1.34
5574.00,1.34
5573.00,1.34
5572.00,1.35
5571.00,1.35
5570.00,1.35
5569.00,1.35
5568.00,1.35
5567.00,1.35
5566.00,1.36
5565.00,1.36
5564.00,1.36
5563.00,1.36
5562.00,1.36
5561.00,1.37
5560.00,1.37
5559.00,1.37
5558.00,1.37
5557.00,1.37
5556.00,1.38
5555.00,1.38
5554.00,1.38
5553.00,1.38
5552.00,1.38
5551.00,1.38
5550.00,1.39
5549.00,1.39
5548.00,1.39
5547.00,1.39
5546.00,1.39
5545.00,1.39
5544.00,1.39
5543.00,1.39
5542.00,1.40
5541.00,1.40
5540.00,1.40
5539.00,1.40
5538.00,1.40
5537.00,1.40
5536.00,1.40
5535.00,1.41
5534.00,1.41
5533.00,1.41
5532.00,1.41
5531.00,1.41
5530.00,1.41
5529.00,1.41
5528.00,1.41
5527.00,1.41
5526.00,1.41
5525.00,1.42
5524.00,1.42
5523.00,1.42
5522.00,1.42
5521.00,1.42
5520.00,1.42
5519.00,1.42
5518.00,1.42
5517.00,1.42
5516.00,1.42
5515.00,1.42
5514.00,1.42
5513.00,1.42
5512.00,1.42
5511.00,1.42
5510.00,1.43
5509.00,1.43
5508.00,1.43
5507.00,1.43
5506.00,1.43
5505.00,1.43
5504.00,1.43
5503.00,1.43
5502.00,1.43
5501.00,1.43
5500.00,1.44
5499.00,1.44
5498.00,1.44
5497.00,1.44
5496.00,1.44
5495.00,1.44
5494.00,1.44
5493.00,1.45
5492.00,1.45
5491.00,1.45
5490.00,1.45
5489.00,1.45
5488.00,1.45
5487.00,1.45
5486.00,1.45
5485.00,1.45
5484.00,1.46
5483.00,1.46
5482.00,1.46
5481.00,1.46
5480.00,1.46
5479.00,1.46
5478.00,1.46
5477.00,1.46
5476.00,1.46
5475.00,1.47
5474.00,1.47
5473.00,1.47
5472.00,1.47
5471.00,1.47
5470.00,1.47
5469.00,1.47
5468.00,1.48
5467.00,1.48
5466.00,1.48
5465.00,1.48
5464.00,1.48
5463.00,1.48
5462.00,1.49
5461.00,1.49
5460.00,1.49
5459.00,1.49
5458.00,1.49
5457.00,1.49
5456.00,1.50
5455.00,1.50
5454.00,1.50
5453.00,1.50
5452.00,1.50
5451.00,1.50
5450.00,1.50
5449.00,1.50
5448.00,1.50
5447.00,1.50
5446.00,1.50
5445.00,1.50
5444.00,1.50
5443.00,1.50
5442.00,1.50
5441.00,1.50
5440.00,1.51
5439.00,1.51
5438.00,1.51
5437.00,1.51
5436.00,1.51
5435.00,1.51
5434.00,1.51
5433.00,1.51
5432.00,1.51
5431.00,1.51
5430.00,1.51
5429.00,1.51
5428.00,1.51
5427.00,1.51
5426.00,1.51
5425.00,1.51
5424.00,1.51
5423.00,1.51
5422.00,1.51
5421.00,1.51
5420.00,1.50
5419.00,1.50
5418.00,1.50
5417.00,1.50
5416.00,1.50
5415.00,1.50
5414.00,1.50
5413.00,1.50
5412.00,1.50
5411.00,1.50
5410.00,1.50
5409.00,1.50
5408.00,1.50
5407.00,1.51
5406.00,1.51
5405.00,1.51
5404.00,1.51
5403.00,1.51
5402.00,1.51
5401.00,1.51
5400.00,1.51
5399.00,1.51
5398.00,1.51
5397.00,1.51
5396.00,1.51
5395.00,1.51
5394.00,1.51
5393.00,1.51
5392.00,1.50
5391.00,1.50
5390.00,1.50
5389.00,1.50
5388.00,1.50
5387.00,1.50
5386.00,1.50
5385.00,1.49
5384.00,1.49
5383.00,1.49
5382.00,1.49
5381.00,1.48
5380.00,1.48
5379.00,1.48
5378.00,1.47
5377.00,1.47
5376.00,1.47
5375.00,1.46
5374.00,1.46
5373.00,1.46
5372.00,1.45
5371.00,1.45
5370.00,1.44
5369.00,1.44
5368.00,1.43
5367.00,1.43
5366.00,1.42
5365.00,1.42
5364.00,1.41
5363.00,1.41
5362.00,1.40
5361.00,1.40
5360.00,1.39
5359.00,1.38
5358.00,1.38
5357.00,1.37
5356.00,1.36
5355.00,1.35
5354.00,1.35
5353.00,1.34
5352.00,1.33
5351.00,1.32
5350.00,1.31
5349.00,1.30
5348.00,1.29
5347.00,1.28
5346.00,1.27
5345.00,1.26
5344.00,1.25
5343.00,1.24
5342.00,1.23
5341.00,1.22
5340.00,1.21
5339.00,1.19
5338.00,1.18
5337.00,1.17
5336.00,1.16
5335.00,1.15
5334.00,1.14
5333.00,1.13
5332.00,1.12
5331.00,1.11
5330.00,1.10
5329.00,1.08
5328.00,1.07
5327.00,1.06
5326.00,1.05
5325.00,1.04
5324.00,1.03
5323.00,1.01
5322.00,1.00
5321.00,0.99
5320.00,0.98
5319.00,0.97
5318.00,0.95
5317.00,0.94
5316.00,0.93
5315.00,0.92
5314.00,0.91
5313.00,0.90
5312.00,0.88
5311.00,0.87
5310.00,0.86
5309.00,0.85
5308.00,0.84
5307.00,0.83
5306.00,0.82
5305.00,0.81
5304.00,0.80
5303.00,0.79
5302.00,0.78
5301.00,0.78
5300.00,0.77
5299.00,0.76
5298.00,0.75
5297.00,0.74
5296.00,0.74
5295.00,0.73
5294.00,0.72
5293.00,0.72
5292.00,0.71
5291.00,0.71
5290.00,0.70
5289.00,0.70
5288.00,0.69
5287.00,0.69
5286.00,0.68
5285.00,0.68
5284.00,0.68
5283.00,0.68
5282.00,0.67
5281.00,0.67
5280.00,0.67
5279.00,0.67
5278.00,0.66
5277.00,0.66
5276.00,0.66
5275.00,0.66
5274.00,0.66
5273.00,0.66
5272.00,0.65
5271.00,0.65
5270.00,0.65
5269.00,0.65
5268.00,0.65
5267.00,0.65
5266.00,0.65
5265.00,0.65
5264.00,0.65
5263.00,0.65
5262.00,0.64
5261.00,0.64
5260.00,0.64
5259.00,0.64
5258.00,0.64
5257.00,0.64
5256.00,0.64
5255.00,0.64
5254.00,0.64
5253.00,0.64
5252.00,0.64
5251.00,0.64
5250.00,0.64
5249.00,0.64
5248.00,0.64
5247.00,0.64
5246.00,0.64
5245.00,0.64
5244.00,0.64
5243.00,0.64
5242.00,0.64
5241.00,0.64
5240.00,0.64
5239.00,0.64
5238.00,0.64
5237.00,0.64
5236.00,0.64
5235.00,0.64
5234.00,0.64
5233.00,0.63
5232.00,0.63
5231.00,0.63
5230.00,0.63
5229.00,0.63
5228.00,0.63
5227.00,0.63
5226.00,0.63
5225.00,0.63
5224.00,0.63
5223.00,0.63
5222.00,0.62
5221.00,0.62
5220.00,0.62
5219.00,0.62
5218.00,0.62
5217.00,0.62
5216.00,0.62
5215.00,0.63
5214.00,0.63
5213.00,0.63
5212.00,0.63
5211.00,0.63
5210.00,0.63
5209.00,0.63
5208.00,0.63
5207.00,0.63
5206.00,0.63
5205.00,0.63
5204.00,0.64
5203.00,0.64
5202.00,0.64
5201.00,0.64
5200.00,0.64
5199.00,0.64
5198.00,0.64
5197.00,0.64
5196.00,0.64
5195.00,0.64
5194.00,0.64
5193.00,0.64
5192.00,0.64
5191.00,0.64
5190.00,0.64
5189.00,0.64
5188.00,0.64
5187.00,0.64
5186.00,0.64
5185.00,0.64
5184.00,0.64
5183.00,0.64
5182.00,0.64
5181.00,0.64
5180.00,0.64
5179.00,0.64
5178.00,0.64
5177.00,0.64
5176.00,0.64
5175.00,0.64
5174.00,0.64
5173.00,0.64
5172.00,0.65
5171.00,0.65
5170.00,0.65
5169.00,0.65
5168.00,0.65
5167.00,0.65
5166.00,0.65
5165.00,0.65
5164.00,0.65
5163.00,0.65
5162.00,0.65
5161.00,0.66
5160.00,0.66
5159.00,0.66
5158.00,0.66
5157.00,0.66
5156.00,0.66
5155.00,0.66
5154.00,0.66
5153.00,0.66
5152.00,0.66
5151.00,0.66
5150.00,0.66
5149.00,0.66
5148.00,0.66
5147.00,0.66
5146.00,0.66
5145.00,0.66
5144.00,0.66
5143.00,0.66
5142.00,0.66
5141.00,0.66
5140.00,0.66
5139.00,0.66
5138.00,0.66
5137.00,0.66
5136.00,0.66
5135.00,0.67
5134.00,0.67
5133.00,0.67
5132.00,0.67
5131.00,0.67
5130.00,0.67
5129.00,0.67
5128.00,0.67
5127.00,0.67
5126.00,0.67
5125.00,0.67
5124.00,0.67
5123.00,0.67
5122.00,0.67
5121.00,0.67
5120.00,0.67
5119.00,0.67
5118.00,0.67
5117.00,0.67
5116.00,0.67
5115.00,0.67
5114.00,0.67
5113.00,0.68
5112.00,0.68
5111.00,0.68
5110.00,0.68
5109.00,0.68
5108.00,0.68
5107.00,0.68
5106.00,0.68
5105.00,0.68
5104.00,0.68
5103.00,0.69
5102.00,0.69
5101.00,0.69
5100.00,0.69
5099.00,0.69
5098.00,0.69
5097.00,0.69
5096.00,0.69
5095.00,0.69
5094.00,0.69
5093.00,0.69
5092.00,0.70
5091.00,0.70
5090.00,0.70
5089.00,0.70
5088.00,0.70
5087.00,0.70
5086.00,0.70
5085.00,0.70
5084.00,0.70
5083.00,0.70
5082.00,0.70
5081.00,0.70
5080.00,0.71
5079.00,0.71
5078.00,0.71
5077.00,0.71
5076.00,0.71
5075.00,0.71
5074.00,0.71
5073.00,0.71
5072.00,0.71
5071.00,0.71
5070.00,0.71
5069.00,0.71
5068.00,0.71
5067.00,0.71
5066.00,0.71
5065.00,0.71
5064.00,0.71
5063.00,0.71
5062.00,0.71
5061.00,0.71
5060.00,0.71
5059.00,0.71
5058.00,0.71
5057.00,0.72
5056.00,0.72
5055.00,0.72
5054.00,0.72
5053.00,0.72
5052.00,0.72
5051.00,0.72
5050.00,0.72
5049.00,0.72
5048.00,0.72
5047.00,0.72
5046.00,0.72
5045.00,0.73
5044.00,0.73
5043.00,0.73
5042.00,0.73
5041.00,0.73
5040.00,0.73
5039.00,0.73
5038.00,0.73
5037.00,0.73
5036.00,0.74
5035.00,0.74
5034.00,0.74
5033.00,0.74
5032.00,0.74
5031.00,0.74
5030.00,0.74
5029.00,0.74
5028.00,0.75
5027.00,0.75
5026.00,0.75
5025.00,0.75
5024.00,0.75
5023.00,0.75
5022.00,0.75
5021.00,0.75
5020.00,0.76
5019.00,0.76
5018.00,0.76
5017.00,0.76
5016.00,0.76
5015.00,0.76
5014.00,0.76
5013.00,0.76
5012.00,0.76
5011.00,0.76
5010.00,0.77
5009.00,0.77
5008.00,0.77
5007.00,0.77
5006.00,0.77
5005.00,0.77
5004.00,0.77
5003.00,0.78
5002.00,0.78
5001.00,0.78
5000.00,0.78
4999.00,0.78
4998.00,0.78
4997.00,0.78
4996.00,0.79
4995.00,0.79
4994.00,0.79
4993.00,0.79
4992.00,0.79
4991.00,0.79
4990.00,0.79
4989.00,0.79
4988.00,0.80
4987.00,0.80
4986.00,0.80
4985.00,0.80
4984.00,0.80
4983.00,0.80
4982.00,0.80
4981.00,0.80
4980.00,0.81
4979.00,0.81
4978.00,0.81
4977.00,0.81
4976.00,0.81
4975.00,0.81
4974.00,0.81
4973.00,0.82
4972.00,0.82
4971.00,0.82
4970.00,0.82
4969.00,0.82
4968.00,0.82
4967.00,0.83
4966.00,0.83
4965.00,0.83
4964.00,0.83
4963.00,0.83
4962.00,0.83
4961.00,0.83
4960.00,0.83
4959.00,0.84
4958.00,0.84
4957.00,0.84
4956.00,0.84
4955.00,0.84
4954.00,0.84
4953.00,0.84
4952.00,0.84
4951.00,0.84
4950.00,0.84
4949.00,0.84
4948.00,0.84
4947.00,0.84
4946.00,0.84
4945.00,0.84
4944.00,0.84
4943.00,0.84
4942.00,0.84
4941.00,0.84
4940.00,0.84
4939.00,0.84
4938.00,0.84
4937.00,0.84
4936.00,0.84
4935.00,0.84
4934.00,0.84
4933.00,0.84
4932.00,0.84
4931.00,0.85
4930.00,0.85
4929.00,0.85
4928.00,0.85
4927.00,0.85
4926.00,0.85
4925.00,0.85
4924.00,0.86
4923.00,0.86
4922.00,0.86
4921.00,0.86
4920.00,0.86
4919.00,0.86
4918.00,0.87
4917.00,0.87
4916.00,0.87
4915.00,0.87
4914.00,0.87
4913.00,0.87
4912.00,0.87
4911.00,0.87
4910.00,0.87
4909.00,0.87
4908.00,0.87
4907.00,0.87
4906.00,0.87
4905.00,0.87
4904.00,0.87
4903.00,0.87
4902.00,0.87
4901.00,0.87
4900.00,0.88
4899.00,0.88
4898.00,0.88
4897.00,0.88
4896.00,0.88
4895.00,0.88
4894.00,0.88
4893.00,0.88
4892.00,0.88
4891.00,0.88
4890.00,0.88
4889.00,0.88
4888.00,0.88
4887.00,0.88
4886.00,0.88
4885.00,0.88
4884.00,0.88
4883.00,0.88
4882.00,0.88
4881.00,0.89
4880.00,0.89
4879.00,0.89
4878.00,0.89
4877.00,0.89
4876.00,0.89
4875.00,0.89
4874.00,0.89
4873.00,0.89
4872.00,0.90
4871.00,0.90
4870.00,0.90
4869.00,0.90
4868.00,0.90
4867.00,0.90
4866.00,0.91
4865.00,0.91
4864.00,0.91
4863.00,0.91
4862.00,0.91
4861.00,0.91
4860.00,0.91
4859.00,0.91
4858.00,0.91
4857.00,0.92
4856.00,0.92
4855.00,0.92
4854.00,0.92
4853.00,0.92
4852.00,0.92
4851.00,0.92
4850.00,0.92
4849.00,0.92
4848.00,0.92
4847.00,0.92
4846.00,0.92
4845.00,0.92
4844.00,0.92
4843.00,0.92
4842.00,0.92
4841.00,0.92
4840.00,0.92
4839.00,0.92
4838.00,0.92
4837.00,0.92
4836.00,0.92
4835.00,0.92
4834.00,0.92
4833.00,0.92
4832.00,0.92
4831.00,0.92
4830.00,0.92
4829.00,0.92
4828.00,0.92
4827.00,0.92
4826.00,0.92
4825.00,0.92
4824.00,0.92
4823.00,0.92
4822.00,0.92
4821.00,0.93
4820.00,0.93
4819.00,0.93
4818.00,0.93
4817.00,0.93
4816.00,0.93
4815.00,0.93
4814.00,0.94
4813.00,0.94
4812.00,0.94
4811.00,0.94
4810.00,0.94
4809.00,0.95
4808.00,0.95
4807.00,0.95
4806.00,0.95
4805.00,0.95
4804.00,0.95
4803.00,0.96
4802.00,0.96
4801.00,0.96
4800.00,0.96
4799.00,0.96
4798.00,0.96
4797.00,0.97
4796.00,0.97
4795.00,0.97
4794.00,0.97
4793.00,0.97
4792.00,0.97
4791.00,0.97
4790.00,0.97
4789.00,0.98
4788.00,0.98
4787.00,0.98
4786.00,0.98
4785.00,0.98
4784.00,0.98
4783.00,0.98
4782.00,0.99
4781.00,0.99
4780.00,0.99
4779.00,0.99
4778.00,0.99
4777.00,1.00
4776.00,1.00
4775.00,1.00
4774.00,1.00
4773.00,1.00
4772.00,1.00
4771.00,1.01
4770.00,1.01
4769.00,1.01
4768.00,1.01
4767.00,1.01
4766.00,1.01
4765.00,1.02
4764.00,1.02
4763.00,1.02
4762.00,1.02
4761.00,1.02
4760.00,1.02
4759.00,1.03
4758.00,1.03
4757.00,1.03
4756.00,1.03
4755.00,1.03
4754.00,1.04
4753.00,1.04
4752.00,1.04
4751.00,1.04
4750.00,1.04
4749.00,1.05
4748.00,1.05
4747.00,1.05
4746.00,1.05
4745.00,1.05
4744.00,1.05
4743.00,1.06
4742.00,1.06
4741.00,1.06
4740.00,1.06
4739.00,1.06
4738.00,1.06
4737.00,1.06
4736.00,1.07
4735.00,1.07
4734.00,1.07
4733.00,1.07
4732.00,1.07
4731.00,1.08
4730.00,1.08
4729.00,1.08
4728.00,1.08
4727.00,1.08
4726.00,1.09
4725.00,1.09
4724.00,1.09
4723.00,1.09
4722.00,1.09
4721.00,1.10
4720.00,1.10
4719.00,1.10
4718.00,1.10
4717.00,1.10
4716.00,1.11
4715.00,1.11
4714.00,1.11
4713.00,1.11
4712.00,1.11
4711.00,1.11
4710.00,1.12
4709.00,1.12
4708.00,1.12
4707.00,1.12
4706.00,1.13
4705.00,1.13
4704.00,1.13
4703.00,1.14
4702.00,1.14
4701.00,1.14
4700.00,1.15
4699.00,1.15
4698.00,1.15
4697.00,1.15
4696.00,1.16
4695.00,1.16
4694.00,1.16
4693.00,1.17
4692.00,1.17
4691.00,1.17
4690.00,1.17
4689.00,1.17
4688.00,1.18
4687.00,1.18
4686.00,1.18
4685.00,1.18
4684.00,1.18
4683.00,1.18
4682.00,1.18
4681.00,1.19
4680.00,1.19
4679.00,1.19
4678.00,1.19
4677.00,1.19
4676.00,1.19
4675.00,1.20
4674.00,1.20
4673.00,1.20
4672.00,1.20
4671.00,1.20
4670.00,1.20
4669.00,1.20
4668.00,1.21
4667.00,1.21
4666.00,1.21
4665.00,1.21
4664.00,1.21
4663.00,1.22
4662.00,1.22
4661.00,1.22
4660.00,1.22
4659.00,1.22
4658.00,1.22
4657.00,1.23
4656.00,1.23
4655.00,1.23
4654.00,1.23
4653.00,1.24
4652.00,1.24
4651.00,1.24
4650.00,1.24
4649.00,1.24
4648.00,1.25
4647.00,1.25
4646.00,1.25
4645.00,1.25
4644.00,1.26
4643.00,1.26
4642.00,1.26
4641.00,1.26
4640.00,1.26
4639.00,1.27
4638.00,1.27
4637.00,1.27
4636.00,1.27
4635.00,1.27
4634.00,1.27
4633.00,1.27
4632.00,1.27
4631.00,1.28
4630.00,1.28
4629.00,1.28
4628.00,1.28
4627.00,1.28
4626.00,1.28
4625.00,1.28
4624.00,1.29
4623.00,1.29
4622.00,1.29
4621.00,1.29
4620.00,1.29
4619.00,1.30
4618.00,1.30
4617.00,1.30
4616.00,1.30
4615.00,1.30
4614.00,1.30
4613.00,1.30
4612.00,1.30
4611.00,1.30
4610.00,1.30
4609.00,1.30
4608.00,1.30
4607.00,1.30
4606.00,1.31
4605.00,1.31
4604.00,1.31
4603.00,1.31
4602.00,1.31
4601.00,1.31
4600.00,1.31
4599.00,1.31
4598.00,1.31
4597.00,1.31
4596.00,1.31
4595.00,1.31
4594.00,1.32
4593.00,1.32
4592.00,1.32
4591.00,1.32
4590.00,1.32
4589.00,1.32
4588.00,1.32
4587.00,1.33
4586.00,1.33
4585.00,1.33
4584.00,1.33
4583.00,1.33
4582.00,1.33
4581.00,1.33
4580.00,1.33
4579.00,1.34
4578.00,1.34
4577.00,1.34
4576.00,1.34
4575.00,1.34
4574.00,1.35
4573.00,1.35
4572.00,1.35
4571.00,1.35
4570.00,1.35
4569.00,1.36
4568.00,1.36
4567.00,1.36
4566.00,1.36
4565.00,1.36
4564.00,1.36
4563.00,1.37
4562.00,1.37
4561.00,1.37
4560.00,1.37
4559.00,1.37
4558.00,1.38
4557.00,1.38
4556.00,1.38
4555.00,1.38
4554.00,1.38
4553.00,1.39
4552.00,1.39
4551.00,1.39
4550.00,1.39
4549.00,1.39
4548.00,1.39
4547.00,1.39
4546.00,1.39
4545.00,1.40
4544.00,1.40
4543.00,1.40
4542.00,1.40
4541.00,1.40
4540.00,1.40
4539.00,1.40
4538.00,1.40
4537.00,1.40
4536.00,1.40
4535.00,1.40
4534.00,1.40
4533.00,1.40
4532.00,1.40
4531.00,1.40
4530.00,1.40
4529.00,1.40
4528.00,1.40
4527.00,1.40
4526.00,1.40
4525.00,1.40
4524.00,1.40
4523.00,1.40
4522.00,1.40
4521.00,1.40
4520.00,1.40
4519.00,1.40
4518.00,1.40
4517.00,1.40
4516.00,1.40
4515.00,1.40
4514.00,1.40
4513.00,1.40
4512.00,1.40
4511.00,1.40
4510.00,1.40
4509.00,1.40
4508.00,1.40
4507.00,1.40
4506.00,1.40
4505.00,1.40
4504.00,1.40
4503.00,1.40
4502.00,1.40
4501.00,1.40
4500.00,1.40
4499.00,1.40
4498.00,1.40
4497.00,1.40
4496.00,1.40
4495.00,1.40
4494.00,1.40
4493.00,1.40
4492.00,1.40
4491.00,1.40
4490.00,1.40
4489.00,1.40
4488.00,1.40
4487.00,1.39
4486.00,1.39
4485.00,1.39
4484.00,1.39
4483.00,1.39
4482.00,1.38
4481.00,1.38
4480.00,1.38
4479.00,1.38
4478.00,1.37
4477.00,1.37
4476.00,1.37
4475.00,1.36
4474.00,1.36
4473.00,1.36
4472.00,1.35
4471.00,1.35
4470.00,1.35
4469.00,1.34
4468.00,1.34
4467.00,1.34
4466.00,1.33
4465.00,1.33
4464.00,1.33
4463.00,1.33
4462.00,1.32
4461.00,1.32
4460.00,1.32
4459.00,1.31
4458.00,1.31
4457.00,1.31
4456.00,1.30
4455.00,1.30
4454.00,1.30
4453.00,1.29
4452.00,1.29
4451.00,1.28
4450.00,1.28
4449.00,1.27
4448.00,1.27
4447.00,1.26
4446.00,1.25
4445.00,1.25
4444.00,1.24
4443.00,1.24
4442.00,1.23
4441.00,1.22
4440.00,1.22
4439.00,1.21
4438.00,1.20
4437.00,1.20
4436.00,1.19
4435.00,1.18
4434.00,1.18
4433.00,1.17
4432.00,1.16
4431.00,1.16
4430.00,1.15
4429.00,1.15
4428.00,1.15
4427.00,1.14
4426.00,1.14
4425.00,1.14
4424.00,1.13
4423.00,1.13
4422.00,1.13
4421.00,1.13
4420.00,1.13
4419.00,1.13
4418.00,1.13
4417.00,1.13
4416.00,1.13
4415.00,1.13
4414.00,1.13
4413.00,1.13
4412.00,1.13
4411.00,1.13
4410.00,1.13
4409.00,1.13
4408.00,1.13
4407.00,1.14
4406.00,1.14
4405.00,1.14
4404.00,1.14
4403.00,1.14
4402.00,1.14
4401.00,1.14
4400.00,1.14
4399.00,1.14
4398.00,1.15
4397.00,1.15
4396.00,1.15
4395.00,1.15
4394.00,1.15
4393.00,1.16
4392.00,1.16
4391.00,1.16
4390.00,1.16
4389.00,1.16
4388.00,1.17
4387.00,1.17
4386.00,1.17
4385.00,1.17
4384.00,1.17
4383.00,1.17
4382.00,1.17
4381.00,1.18
4380.00,1.18
4379.00,1.18
4378.00,1.18
4377.00,1.18
4376.00,1.18
4375.00,1.18
4374.00,1.18
4373.00,1.18
4372.00,1.18
4371.00,1.18
4370.00,1.18
4369.00,1.18
4368.00,1.18
4367.00,1.18
4366.00,1.18
4365.00,1.18
4364.00,1.18
4363.00,1.18
4362.00,1.18
4361.00,1.18
4360.00,1.18
4359.00,1.18
4358.00,1.18
4357.00,1.18
4356.00,1.18
4355.00,1.18
4354.00,1.18
4353.00,1.18
4352.00,1.19
4351.00,1.19
4350.00,1.19
4349.00,1.19
4348.00,1.19
4347.00,1.19
4346.00,1.19
4345.00,1.19
4344.00,1.19
4343.00,1.20
4342.00,1.20
4341.00,1.20
4340.00,1.20
4339.00,1.20
4338.00,1.20
4337.00,1.20
4336.00,1.20
4335.00,1.20
4334.00,1.20
4333.00,1.20
4332.00,1.20
4331.00,1.20
4330.00,1.21
4329.00,1.21
4328.00,1.21
4327.00,1.21
4326.00,1.21
4325.00,1.21
4324.00,1.21
4323.00,1.21
4322.00,1.22
4321.00,1.22
4320.00,1.22
4319.00,1.22
4318.00,1.22
4317.00,1.22
4316.00,1.23
4315.00,1.23
4314.00,1.23
4313.00,1.23
4312.00,1.24
4311.00,1.24
4310.00,1.24
4309.00,1.25
4308.00,1.25
4307.00,1.25
4306.00,1.26
4305.00,1.26
4304.00,1.26
4303.00,1.27
4302.00,1.27
4301.00,1.27
4300.00,1.27
4299.00,1.27
4298.00,1.28
4297.00,1.28
4296.00,1.28
4295.00,1.28
4294.00,1.28
4293.00,1.28
4292.00,1.28
4291.00,1.28
4290.00,1.28
4289.00,1.28
4288.00,1.28
4287.00,1.28
4286.00,1.28
4285.00,1.28
4284.00,1.28
4283.00,1.28
4282.00,1.28
4281.00,1.28
4280.00,1.28
4279.00,1.28
4278.00,1.28
4277.00,1.28
4276.00,1.28
4275.00,1.28
4274.00,1.28
4273.00,1.28
4272.00,1.28
4271.00,1.29
4270.00,1.29
4269.00,1.29
4268.00,1.29
4267.00,1.29
4266.00,1.29
4265.00,1.29
4264.00,1.29
4263.00,1.30
4262.00,1.30
4261.00,1.30
4260.00,1.30
4259.00,1.30
4258.00,1.30
4257.00,1.30
4256.00,1.30
4255.00,1.30
4254.00,1.30
4253.00,1.30
4252.00,1.31
4251.00,1.31
4250.00,1.31
4249.00,1.31
4248.00,1.31
4247.00,1.31
4246.00,1.31
4245.00,1.31
4244.00,1.31
4243.00,1.31
4242.00,1.32
4241.00,1.32
4240.00,1.32
4239.00,1.32
4238.00,1.32
4237.00,1.32
4236.00,1.33
4235.00,1.33
4234.00,1.33
4233.00,1.33
4232.00,1.33
4231.00,1.34
4230.00,1.34
4229.00,1.34
4228.00,1.34
4227.00,1.34
4226.00,1.34
4225.00,1.34
4224.00,1.34
4223.00,1.35
4222.00,1.35
4221.00,1.35
4220.00,1.35
4219.00,1.35
4218.00,1.35
4217.00,1.35
4216.00,1.35
4215.00,1.35
4214.00,1.35
4213.00,1.35
4212.00,1.35
4211.00,1.36
4210.00,1.36
4209.00,1.36
4208.00,1.36
4207.00,1.36
4206.00,1.36
4205.00,1.36
4204.00,1.36
4203.00,1.37
4202.00,1.37
4201.00,1.37
4200.00,1.37
4199.00,1.37
4198.00,1.37
4197.00,1.37
4196.00,1.37
4195.00,1.37
4194.00,1.37
4193.00,1.37
4192.00,1.37
4191.00,1.37
4190.00,1.37
4189.00,1.37
4188.00,1.37
4187.00,1.37
4186.00,1.37
4185.00,1.37
4184.00,1.37
4183.00,1.37
4182.00,1.37
4181.00,1.37
4180.00,1.37
4179.00,1.37
4178.00,1.37
4177.00,1.37
4176.00,1.37
4175.00,1.37
4174.00,1.37
4173.00,1.37
4172.00,1.37
4171.00,1.37
4170.00,1.37
4169.00,1.37
4168.00,1.37
4167.00,1.37
4166.00,1.37
4165.00,1.37
4164.00,1.37
4163.00,1.37
4162.00,1.37
4161.00,1.37
4160.00,1.38
4159.00,1.38
4158.00,1.38
4157.00,1.38
4156.00,1.38
4155.00,1.38
4154.00,1.39
4153.00,1.39
4152.00,1.39
4151.00,1.39
4150.00,1.39
4149.00,1.40
4148.00,1.40
4147.00,1.40
4146.00,1.40
4145.00,1.40
4144.00,1.40
4143.00,1.40
4142.00,1.40
4141.00,1.40
4140.00,1.40
4139.00,1.40
4138.00,1.40
4137.00,1.40
4136.00,1.40
4135.00,1.40
4134.00,1.40
4133.00,1.40
4132.00,1.40
4131.00,1.40
4130.00,1.40
4129.00,1.40
4128.00,1.40
4127.00,1.40
4126.00,1.40
4125.00,1.40
4124.00,1.40
4123.00,1.40
4122.00,1.40
4121.00,1.40
4120.00,1.40
4119.00,1.41
4118.00,1.41
4117.00,1.41
4116.00,1.41
4115.00,1.42
4114.00,1.42
4113.00,1.42
4112.00,1.42
4111.00,1.43
4110.00,1.43
4109.00,1.43
4108.00,1.43
4107.00,1.43
4106.00,1.43
4105.00,1.43
4104.00,1.43
4103.00,1.42
4102.00,1.42
4101.00,1.42
4100.00,1.42
4099.00,1.41
4098.00,1.41
4097.00,1.41
4096.00,1.41
4095.00,1.41
4094.00,1.40
4093.00,1.40
4092.00,1.40
4091.00,1.40
4090.00,1.40
4089.00,1.40
4088.00,1.40
4087.00,1.41
4086.00,1.41
4085.00,1.41
4084.00,1.41
4083.00,1.42
4082.00,1.42
4081.00,1.42
4080.00,1.43
4079.00,1.43
4078.00,1.43
4077.00,1.44
4076.00,1.44
4075.00,1.44
4074.00,1.44
4073.00,1.45
4072.00,1.45
4071.00,1.45
4070.00,1.45
4069.00,1.46
4068.00,1.46
4067.00,1.46
4066.00,1.46
4065.00,1.46
4064.00,1.46
4063.00,1.46
4062.00,1.46
4061.00,1.46
4060.00,1.46
4059.00,1.46
4058.00,1.46
4057.00,1.46
4056.00,1.46
4055.00,1.46
4054.00,1.46
4053.00,1.46
4052.00,1.46
4051.00,1.46
4050.00,1.47
4049.00,1.47
4048.00,1.47
4047.00,1.47
4046.00,1.47
4045.00,1.47
4044.00,1.47
4043.00,1.47
4042.00,1.47
4041.00,1.47
4040.00,1.47
4039.00,1.47
4038.00,1.47
4037.00,1.47
4036.00,1.47
4035.00,1.47
4034.00,1.47
4033.00,1.47
4032.00,1.47
4031.00,1.47
4030.00,1.47
4029.00,1.47
4028.00,1.47
4027.00,1.47
4026.00,1.47
4025.00,1.47
4024.00,1.47
4023.00,1.47
4022.00,1.47
4021.00,1.47
4020.00,1.47
4019.00,1.47
4018.00,1.47
4017.00,1.47
4016.00,1.48
4015.00,1.48
4014.00,1.48
4013.00,1.48
4012.00,1.48
4011.00,1.49
4010.00,1.49
4009.00,1.49
4008.00,1.49
4007.00,1.49
4006.00,1.50
4005.00,1.50
4004.00,1.50
4003.00,1.50
4002.00,1.50
4001.00,1.51
4000.00,1.51
