创建为新数据集,样品 297 用户 Administrator 日期 星期三, 三月 07 2018
cm-1,%T
10000.00,1.42
9999.00,1.41
9998.00,1.41
9997.00,1.41
9996.00,1.40
9995.00,1.40
9994.00,1.40
9993.00,1.40
9992.00,1.40
9991.00,1.40
9990.00,1.39
9989.00,1.39
9988.00,1.39
9987.00,1.39
9986.00,1.39
9985.00,1.40
9984.00,1.40
9983.00,1.40
9982.00,1.40
9981.00,1.40
9980.00,1.40
9979.00,1.40
9978.00,1.40
9977.00,1.40
9976.00,1.40
9975.00,1.40
9974.00,1.40
9973.00,1.40
9972.00,1.40
9971.00,1.40
9970.00,1.40
9969.00,1.40
9968.00,1.40
9967.00,1.39
9966.00,1.39
9965.00,1.39
9964.00,1.39
9963.00,1.39
9962.00,1.39
9961.00,1.39
9960.00,1.39
9959.00,1.39
9958.00,1.39
9957.00,1.39
9956.00,1.39
9955.00,1.40
9954.00,1.40
9953.00,1.40
9952.00,1.40
9951.00,1.41
9950.00,1.41
9949.00,1.41
9948.00,1.41
9947.00,1.41
9946.00,1.41
9945.00,1.41
9944.00,1.41
9943.00,1.41
9942.00,1.41
9941.00,1.41
9940.00,1.41
9939.00,1.40
9938.00,1.40
9937.00,1.40
9936.00,1.40
9935.00,1.40
9934.00,1.39
9933.00,1.39
9932.00,1.39
9931.00,1.39
9930.00,1.39
9929.00,1.38
9928.00,1.38
9927.00,1.38
9926.00,1.38
9925.00,1.38
9924.00,1.38
9923.00,1.37
9922.00,1.37
9921.00,1.37
9920.00,1.37
9919.00,1.37
9918.00,1.36
9917.00,1.36
9916.00,1.36
9915.00,1.36
9914.00,1.36
9913.00,1.35
9912.00,1.35
9911.00,1.35
9910.00,1.35
9909.00,1.35
9908.00,1.35
9907.00,1.35
9906.00,1.35
9905.00,1.35
9904.00,1.35
9903.00,1.35
9902.00,1.35
9901.00,1.36
9900.00,1.36
9899.00,1.36
9898.00,1.37
9897.00,1.37
9896.00,1.37
9895.00,1.38
9894.00,1.38
9893.00,1.38
9892.00,1.39
9891.00,1.39
9890.00,1.39
9889.00,1.39
9888.00,1.39
9887.00,1.39
9886.00,1.39
9885.00,1.39
9884.00,1.38
9883.00,1.38
9882.00,1.38
9881.00,1.38
9880.00,1.37
9879.00,1.37
9878.00,1.37
9877.00,1.36
9876.00,1.36
9875.00,1.36
9874.00,1.36
9873.00,1.35
9872.00,1.35
9871.00,1.35
9870.00,1.35
9869.00,1.35
9868.00,1.35
9867.00,1.35
9866.00,1.35
9865.00,1.35
9864.00,1.35
9863.00,1.36
9862.00,1.36
9861.00,1.36
9860.00,1.36
9859.00,1.36
9858.00,1.37
9857.00,1.37
9856.00,1.37
9855.00,1.37
9854.00,1.38
9853.00,1.38
9852.00,1.38
9851.00,1.39
9850.00,1.39
9849.00,1.39
9848.00,1.39
9847.00,1.40
9846.00,1.40
9845.00,1.40
9844.00,1.40
9843.00,1.40
9842.00,1.40
9841.00,1.41
9840.00,1.41
9839.00,1.41
9838.00,1.41
9837.00,1.41
9836.00,1.41
9835.00,1.41
9834.00,1.41
9833.00,1.41
9832.00,1.41
9831.00,1.41
9830.00,1.41
9829.00,1.41
9828.00,1.41
9827.00,1.41
9826.00,1.41
9825.00,1.41
9824.00,1.41
9823.00,1.41
9822.00,1.41
9821.00,1.41
9820.00,1.40
9819.00,1.40
9818.00,1.40
9817.00,1.40
9816.00,1.40
9815.00,1.40
9814.00,1.39
9813.00,1.39
9812.00,1.39
9811.00,1.39
9810.00,1.39
9809.00,1.39
9808.00,1.39
9807.00,1.39
9806.00,1.39
9805.00,1.38
9804.00,1.38
9803.00,1.38
9802.00,1.38
9801.00,1.38
9800.00,1.38
9799.00,1.38
9798.00,1.37
9797.00,1.37
9796.00,1.37
9795.00,1.37
9794.00,1.37
9793.00,1.37
9792.00,1.37
9791.00,1.37
9790.00,1.37
9789.00,1.37
9788.00,1.37
9787.00,1.37
9786.00,1.37
9785.00,1.37
9784.00,1.37
9783.00,1.37
9782.00,1.37
9781.00,1.37
9780.00,1.37
9779.00,1.37
9778.00,1.37
9777.00,1.37
9776.00,1.37
9775.00,1.37
9774.00,1.37
9773.00,1.37
9772.00,1.38
9771.00,1.38
9770.00,1.38
9769.00,1.38
9768.00,1.39
9767.00,1.39
9766.00,1.39
9765.00,1.39
9764.00,1.40
9763.00,1.40
9762.00,1.40
9761.00,1.40
9760.00,1.40
9759.00,1.40
9758.00,1.39
9757.00,1.39
9756.00,1.39
9755.00,1.39
9754.00,1.38
9753.00,1.38
9752.00,1.38
9751.00,1.38
9750.00,1.38
9749.00,1.37
9748.00,1.37
9747.00,1.38
9746.00,1.38
9745.00,1.38
9744.00,1.38
9743.00,1.38
9742.00,1.39
9741.00,1.39
9740.00,1.39
9739.00,1.40
9738.00,1.40
9737.00,1.40
9736.00,1.40
9735.00,1.40
9734.00,1.40
9733.00,1.40
9732.00,1.40
9731.00,1.40
9730.00,1.40
9729.00,1.39
9728.00,1.39
9727.00,1.39
9726.00,1.38
9725.00,1.38
9724.00,1.38
9723.00,1.37
9722.00,1.37
9721.00,1.37
9720.00,1.37
9719.00,1.37
9718.00,1.37
9717.00,1.37
9716.00,1.37
9715.00,1.38
9714.00,1.38
9713.00,1.38
9712.00,1.38
9711.00,1.38
9710.00,1.38
9709.00,1.39
9708.00,1.39
9707.00,1.39
9706.00,1.39
9705.00,1.39
9704.00,1.39
9703.00,1.39
9702.00,1.39
9701.00,1.39
9700.00,1.39
9699.00,1.39
9698.00,1.39
9697.00,1.39
9696.00,1.39
9695.00,1.39
9694.00,1.39
9693.00,1.39
9692.00,1.40
9691.00,1.40
9690.00,1.40
9689.00,1.40
9688.00,1.40
9687.00,1.40
9686.00,1.40
9685.00,1.40
9684.00,1.40
9683.00,1.40
9682.00,1.40
9681.00,1.41
9680.00,1.41
9679.00,1.41
9678.00,1.41
9677.00,1.41
9676.00,1.41
9675.00,1.41
9674.00,1.40
9673.00,1.40
9672.00,1.40
9671.00,1.40
9670.00,1.40
9669.00,1.40
9668.00,1.39
9667.00,1.39
9666.00,1.39
9665.00,1.39
9664.00,1.39
9663.00,1.39
9662.00,1.38
9661.00,1.38
9660.00,1.38
9659.00,1.38
9658.00,1.38
9657.00,1.38
9656.00,1.38
9655.00,1.38
9654.00,1.37
9653.00,1.37
9652.00,1.37
9651.00,1.37
9650.00,1.37
9649.00,1.37
9648.00,1.37
9647.00,1.37
9646.00,1.37
9645.00,1.37
9644.00,1.37
9643.00,1.37
9642.00,1.37
9641.00,1.37
9640.00,1.37
9639.00,1.37
9638.00,1.36
9637.00,1.36
9636.00,1.36
9635.00,1.36
9634.00,1.36
9633.00,1.36
9632.00,1.36
9631.00,1.36
9630.00,1.35
9629.00,1.35
9628.00,1.35
9627.00,1.35
9626.00,1.35
9625.00,1.35
9624.00,1.35
9623.00,1.35
9622.00,1.35
9621.00,1.35
9620.00,1.35
9619.00,1.35
9618.00,1.35
9617.00,1.35
9616.00,1.35
9615.00,1.35
9614.00,1.35
9613.00,1.35
9612.00,1.35
9611.00,1.35
9610.00,1.35
9609.00,1.35
9608.00,1.34
9607.00,1.34
9606.00,1.34
9605.00,1.34
9604.00,1.34
9603.00,1.34
9602.00,1.34
9601.00,1.34
9600.00,1.34
9599.00,1.34
9598.00,1.35
9597.00,1.35
9596.00,1.35
9595.00,1.35
9594.00,1.36
9593.00,1.36
9592.00,1.37
9591.00,1.37
9590.00,1.38
9589.00,1.38
9588.00,1.39
9587.00,1.39
9586.00,1.40
9585.00,1.40
9584.00,1.40
9583.00,1.41
9582.00,1.41
9581.00,1.41
9580.00,1.41
9579.00,1.41
9578.00,1.41
9577.00,1.41
9576.00,1.41
9575.00,1.41
9574.00,1.41
9573.00,1.41
9572.00,1.40
9571.00,1.40
9570.00,1.40
9569.00,1.40
9568.00,1.40
9567.00,1.40
9566.00,1.39
9565.00,1.39
9564.00,1.39
9563.00,1.39
9562.00,1.39
9561.00,1.39
9560.00,1.39
9559.00,1.39
9558.00,1.39
9557.00,1.39
9556.00,1.39
9555.00,1.39
9554.00,1.39
9553.00,1.39
9552.00,1.39
9551.00,1.39
9550.00,1.39
9549.00,1.39
9548.00,1.39
9547.00,1.40
9546.00,1.40
9545.00,1.40
9544.00,1.40
9543.00,1.40
9542.00,1.40
9541.00,1.40
9540.00,1.40
9539.00,1.40
9538.00,1.39
9537.00,1.39
9536.00,1.39
9535.00,1.39
9534.00,1.39
9533.00,1.38
9532.00,1.38
9531.00,1.38
9530.00,1.38
9529.00,1.38
9528.00,1.38
9527.00,1.37
9526.00,1.37
9525.00,1.37
9524.00,1.37
9523.00,1.37
9522.00,1.37
9521.00,1.37
9520.00,1.37
9519.00,1.37
9518.00,1.37
9517.00,1.37
9516.00,1.37
9515.00,1.37
9514.00,1.37
9513.00,1.37
9512.00,1.37
9511.00,1.37
9510.00,1.37
9509.00,1.37
9508.00,1.37
9507.00,1.37
9506.00,1.37
9505.00,1.37
9504.00,1.37
9503.00,1.37
9502.00,1.37
9501.00,1.37
9500.00,1.37
9499.00,1.37
9498.00,1.37
9497.00,1.37
9496.00,1.37
9495.00,1.37
9494.00,1.37
9493.00,1.37
9492.00,1.37
9491.00,1.37
9490.00,1.38
9489.00,1.38
9488.00,1.38
9487.00,1.38
9486.00,1.38
9485.00,1.38
9484.00,1.38
9483.00,1.38
9482.00,1.38
9481.00,1.38
9480.00,1.38
9479.00,1.38
9478.00,1.38
9477.00,1.38
9476.00,1.38
9475.00,1.38
9474.00,1.38
9473.00,1.38
9472.00,1.38
9471.00,1.38
9470.00,1.38
9469.00,1.37
9468.00,1.37
9467.00,1.37
9466.00,1.37
9465.00,1.37
9464.00,1.37
9463.00,1.37
9462.00,1.37
9461.00,1.36
9460.00,1.36
9459.00,1.36
9458.00,1.36
9457.00,1.36
9456.00,1.36
9455.00,1.36
9454.00,1.36
9453.00,1.36
9452.00,1.36
9451.00,1.37
9450.00,1.37
9449.00,1.37
9448.00,1.37
9447.00,1.37
9446.00,1.38
9445.00,1.38
9444.00,1.38
9443.00,1.38
9442.00,1.38
9441.00,1.39
9440.00,1.39
9439.00,1.39
9438.00,1.39
9437.00,1.39
9436.00,1.39
9435.00,1.39
9434.00,1.39
9433.00,1.39
9432.00,1.39
9431.00,1.39
9430.00,1.39
9429.00,1.39
9428.00,1.39
9427.00,1.39
9426.00,1.39
9425.00,1.39
9424.00,1.39
9423.00,1.39
9422.00,1.39
9421.00,1.39
9420.00,1.39
9419.00,1.39
9418.00,1.39
9417.00,1.38
9416.00,1.38
9415.00,1.38
9414.00,1.38
9413.00,1.38
9412.00,1.38
9411.00,1.38
9410.00,1.38
9409.00,1.38
9408.00,1.38
9407.00,1.38
9406.00,1.38
9405.00,1.38
9404.00,1.38
9403.00,1.38
9402.00,1.38
9401.00,1.38
9400.00,1.38
9399.00,1.38
9398.00,1.38
9397.00,1.38
9396.00,1.38
9395.00,1.39
9394.00,1.39
9393.00,1.39
9392.00,1.39
9391.00,1.39
9390.00,1.39
9389.00,1.39
9388.00,1.39
9387.00,1.39
9386.00,1.39
9385.00,1.39
9384.00,1.39
9383.00,1.39
9382.00,1.39
9381.00,1.39
9380.00,1.39
9379.00,1.38
9378.00,1.38
9377.00,1.38
9376.00,1.38
9375.00,1.37
9374.00,1.37
9373.00,1.37
9372.00,1.36
9371.00,1.36
9370.00,1.36
9369.00,1.35
9368.00,1.35
9367.00,1.35
9366.00,1.35
9365.00,1.35
9364.00,1.35
9363.00,1.35
9362.00,1.35
9361.00,1.35
9360.00,1.35
9359.00,1.35
9358.00,1.35
9357.00,1.36
9356.00,1.36
9355.00,1.36
9354.00,1.36
9353.00,1.37
9352.00,1.37
9351.00,1.37
9350.00,1.37
9349.00,1.38
9348.00,1.38
9347.00,1.38
9346.00,1.38
9345.00,1.38
9344.00,1.38
9343.00,1.38
9342.00,1.38
9341.00,1.38
9340.00,1.37
9339.00,1.37
9338.00,1.37
9337.00,1.37
9336.00,1.37
9335.00,1.37
9334.00,1.37
9333.00,1.37
9332.00,1.37
9331.00,1.38
9330.00,1.38
9329.00,1.38
9328.00,1.38
9327.00,1.38
9326.00,1.38
9325.00,1.38
9324.00,1.38
9323.00,1.38
9322.00,1.38
9321.00,1.38
9320.00,1.38
9319.00,1.38
9318.00,1.38
9317.00,1.38
9316.00,1.38
9315.00,1.38
9314.00,1.38
9313.00,1.38
9312.00,1.38
9311.00,1.38
9310.00,1.38
9309.00,1.38
9308.00,1.38
9307.00,1.38
9306.00,1.38
9305.00,1.38
9304.00,1.38
9303.00,1.38
9302.00,1.38
9301.00,1.38
9300.00,1.38
9299.00,1.38
9298.00,1.38
9297.00,1.38
9296.00,1.38
9295.00,1.38
9294.00,1.38
9293.00,1.38
9292.00,1.38
9291.00,1.38
9290.00,1.38
9289.00,1.38
9288.00,1.38
9287.00,1.38
9286.00,1.38
9285.00,1.38
9284.00,1.38
9283.00,1.38
9282.00,1.38
9281.00,1.38
9280.00,1.38
9279.00,1.37
9278.00,1.37
9277.00,1.37
9276.00,1.37
9275.00,1.37
9274.00,1.36
9273.00,1.36
9272.00,1.36
9271.00,1.36
9270.00,1.36
9269.00,1.36
9268.00,1.36
9267.00,1.36
9266.00,1.36
9265.00,1.36
9264.00,1.36
9263.00,1.36
9262.00,1.36
9261.00,1.36
9260.00,1.36
9259.00,1.36
9258.00,1.36
9257.00,1.36
9256.00,1.36
9255.00,1.37
9254.00,1.37
9253.00,1.37
9252.00,1.37
9251.00,1.37
9250.00,1.37
9249.00,1.37
9248.00,1.38
9247.00,1.38
9246.00,1.38
9245.00,1.38
9244.00,1.38
9243.00,1.38
9242.00,1.38
9241.00,1.38
9240.00,1.38
9239.00,1.38
9238.00,1.38
9237.00,1.38
9236.00,1.38
9235.00,1.38
9234.00,1.38
9233.00,1.38
9232.00,1.38
9231.00,1.38
9230.00,1.38
9229.00,1.38
9228.00,1.38
9227.00,1.38
9226.00,1.38
9225.00,1.38
9224.00,1.38
9223.00,1.38
9222.00,1.38
9221.00,1.38
9220.00,1.38
9219.00,1.38
9218.00,1.38
9217.00,1.38
9216.00,1.38
9215.00,1.38
9214.00,1.38
9213.00,1.38
9212.00,1.38
9211.00,1.38
9210.00,1.38
9209.00,1.38
9208.00,1.38
9207.00,1.38
9206.00,1.38
9205.00,1.38
9204.00,1.38
9203.00,1.38
9202.00,1.39
9201.00,1.39
9200.00,1.39
9199.00,1.39
9198.00,1.39
9197.00,1.39
9196.00,1.39
9195.00,1.39
9194.00,1.39
9193.00,1.39
9192.00,1.39
9191.00,1.39
9190.00,1.39
9189.00,1.39
9188.00,1.39
9187.00,1.39
9186.00,1.39
9185.00,1.39
9184.00,1.39
9183.00,1.39
9182.00,1.39
9181.00,1.39
9180.00,1.39
9179.00,1.39
9178.00,1.39
9177.00,1.39
9176.00,1.39
9175.00,1.39
9174.00,1.40
9173.00,1.40
9172.00,1.39
9171.00,1.39
9170.00,1.39
9169.00,1.39
9168.00,1.39
9167.00,1.39
9166.00,1.39
9165.00,1.39
9164.00,1.39
9163.00,1.39
9162.00,1.39
9161.00,1.39
9160.00,1.39
9159.00,1.39
9158.00,1.38
9157.00,1.38
9156.00,1.38
9155.00,1.38
9154.00,1.38
9153.00,1.38
9152.00,1.38
9151.00,1.38
9150.00,1.38
9149.00,1.37
9148.00,1.37
9147.00,1.37
9146.00,1.37
9145.00,1.37
9144.00,1.38
9143.00,1.38
9142.00,1.38
9141.00,1.38
9140.00,1.38
9139.00,1.38
9138.00,1.38
9137.00,1.39
9136.00,1.39
9135.00,1.39
9134.00,1.39
9133.00,1.39
9132.00,1.39
9131.00,1.39
9130.00,1.39
9129.00,1.39
9128.00,1.39
9127.00,1.39
9126.00,1.39
9125.00,1.39
9124.00,1.39
9123.00,1.39
9122.00,1.39
9121.00,1.39
9120.00,1.39
9119.00,1.39
9118.00,1.39
9117.00,1.40
9116.00,1.40
9115.00,1.40
9114.00,1.40
9113.00,1.40
9112.00,1.40
9111.00,1.40
9110.00,1.39
9109.00,1.39
9108.00,1.39
9107.00,1.39
9106.00,1.39
9105.00,1.39
9104.00,1.39
9103.00,1.38
9102.00,1.38
9101.00,1.38
9100.00,1.38
9099.00,1.38
9098.00,1.38
9097.00,1.38
9096.00,1.38
9095.00,1.38
9094.00,1.38
9093.00,1.39
9092.00,1.39
9091.00,1.39
9090.00,1.39
9089.00,1.39
9088.00,1.40
9087.00,1.40
9086.00,1.40
9085.00,1.40
9084.00,1.41
9083.00,1.41
9082.00,1.41
9081.00,1.41
9080.00,1.41
9079.00,1.41
9078.00,1.41
9077.00,1.41
9076.00,1.41
9075.00,1.41
9074.00,1.41
9073.00,1.41
9072.00,1.41
9071.00,1.40
9070.00,1.40
9069.00,1.40
9068.00,1.40
9067.00,1.40
9066.00,1.40
9065.00,1.40
9064.00,1.40
9063.00,1.40
9062.00,1.40
9061.00,1.40
9060.00,1.40
9059.00,1.40
9058.00,1.40
9057.00,1.40
9056.00,1.40
9055.00,1.40
9054.00,1.40
9053.00,1.40
9052.00,1.40
9051.00,1.40
9050.00,1.40
9049.00,1.40
9048.00,1.40
9047.00,1.40
9046.00,1.40
9045.00,1.40
9044.00,1.40
9043.00,1.40
9042.00,1.39
9041.00,1.39
9040.00,1.39
9039.00,1.39
9038.00,1.39
9037.00,1.39
9036.00,1.39
9035.00,1.39
9034.00,1.39
9033.00,1.39
9032.00,1.39
9031.00,1.38
9030.00,1.38
9029.00,1.38
9028.00,1.38
9027.00,1.38
9026.00,1.38
9025.00,1.38
9024.00,1.37
9023.00,1.37
9022.00,1.37
9021.00,1.37
9020.00,1.37
9019.00,1.37
9018.00,1.37
9017.00,1.37
9016.00,1.37
9015.00,1.37
9014.00,1.37
9013.00,1.37
9012.00,1.37
9011.00,1.37
9010.00,1.37
9009.00,1.37
9008.00,1.37
9007.00,1.37
9006.00,1.37
9005.00,1.37
9004.00,1.37
9003.00,1.37
9002.00,1.37
9001.00,1.37
9000.00,1.37
8999.00,1.37
8998.00,1.37
8997.00,1.37
8996.00,1.37
8995.00,1.37
8994.00,1.37
8993.00,1.37
8992.00,1.37
8991.00,1.37
8990.00,1.37
8989.00,1.38
8988.00,1.38
8987.00,1.38
8986.00,1.38
8985.00,1.38
8984.00,1.38
8983.00,1.38
8982.00,1.38
8981.00,1.38
8980.00,1.38
8979.00,1.38
8978.00,1.38
8977.00,1.38
8976.00,1.38
8975.00,1.38
8974.00,1.38
8973.00,1.38
8972.00,1.38
8971.00,1.39
8970.00,1.39
8969.00,1.39
8968.00,1.39
8967.00,1.39
8966.00,1.39
8965.00,1.39
8964.00,1.39
8963.00,1.39
8962.00,1.39
8961.00,1.39
8960.00,1.39
8959.00,1.39
8958.00,1.39
8957.00,1.39
8956.00,1.39
8955.00,1.38
8954.00,1.38
8953.00,1.38
8952.00,1.38
8951.00,1.38
8950.00,1.37
8949.00,1.37
8948.00,1.37
8947.00,1.37
8946.00,1.37
8945.00,1.37
8944.00,1.37
8943.00,1.37
8942.00,1.37
8941.00,1.37
8940.00,1.37
8939.00,1.37
8938.00,1.37
8937.00,1.37
8936.00,1.37
8935.00,1.37
8934.00,1.37
8933.00,1.37
8932.00,1.37
8931.00,1.37
8930.00,1.37
8929.00,1.37
8928.00,1.37
8927.00,1.37
8926.00,1.37
8925.00,1.38
8924.00,1.38
8923.00,1.38
8922.00,1.38
8921.00,1.38
8920.00,1.38
8919.00,1.38
8918.00,1.39
8917.00,1.39
8916.00,1.39
8915.00,1.39
8914.00,1.39
8913.00,1.39
8912.00,1.39
8911.00,1.39
8910.00,1.39
8909.00,1.39
8908.00,1.39
8907.00,1.38
8906.00,1.38
8905.00,1.38
8904.00,1.38
8903.00,1.38
8902.00,1.38
8901.00,1.37
8900.00,1.37
8899.00,1.37
8898.00,1.37
8897.00,1.37
8896.00,1.37
8895.00,1.37
8894.00,1.37
8893.00,1.36
8892.00,1.36
8891.00,1.37
8890.00,1.37
8889.00,1.37
8888.00,1.37
8887.00,1.37
8886.00,1.37
8885.00,1.37
8884.00,1.38
8883.00,1.38
8882.00,1.38
8881.00,1.38
8880.00,1.38
8879.00,1.39
8878.00,1.39
8877.00,1.39
8876.00,1.39
8875.00,1.39
8874.00,1.39
8873.00,1.39
8872.00,1.39
8871.00,1.39
8870.00,1.38
8869.00,1.38
8868.00,1.38
8867.00,1.38
8866.00,1.38
8865.00,1.38
8864.00,1.38
8863.00,1.38
8862.00,1.38
8861.00,1.38
8860.00,1.38
8859.00,1.38
8858.00,1.38
8857.00,1.38
8856.00,1.38
8855.00,1.38
8854.00,1.38
8853.00,1.38
8852.00,1.38
8851.00,1.38
8850.00,1.38
8849.00,1.38
8848.00,1.38
8847.00,1.38
8846.00,1.38
8845.00,1.38
8844.00,1.38
8843.00,1.38
8842.00,1.38
8841.00,1.38
8840.00,1.38
8839.00,1.38
8838.00,1.38
8837.00,1.38
8836.00,1.38
8835.00,1.38
8834.00,1.37
8833.00,1.37
8832.00,1.37
8831.00,1.37
8830.00,1.37
8829.00,1.37
8828.00,1.36
8827.00,1.36
8826.00,1.36
8825.00,1.36
8824.00,1.36
8823.00,1.36
8822.00,1.36
8821.00,1.36
8820.00,1.36
8819.00,1.36
8818.00,1.36
8817.00,1.36
8816.00,1.37
8815.00,1.37
8814.00,1.37
8813.00,1.37
8812.00,1.37
8811.00,1.37
8810.00,1.37
8809.00,1.37
8808.00,1.38
8807.00,1.38
8806.00,1.38
8805.00,1.38
8804.00,1.38
8803.00,1.38
8802.00,1.38
8801.00,1.37
8800.00,1.37
8799.00,1.37
8798.00,1.37
8797.00,1.37
8796.00,1.37
8795.00,1.37
8794.00,1.37
8793.00,1.37
8792.00,1.37
8791.00,1.37
8790.00,1.37
8789.00,1.37
8788.00,1.37
8787.00,1.37
8786.00,1.37
8785.00,1.37
8784.00,1.37
8783.00,1.37
8782.00,1.37
8781.00,1.37
8780.00,1.37
8779.00,1.37
8778.00,1.37
8777.00,1.37
8776.00,1.37
8775.00,1.37
8774.00,1.37
8773.00,1.37
8772.00,1.37
8771.00,1.36
8770.00,1.36
8769.00,1.36
8768.00,1.36
8767.00,1.36
8766.00,1.35
8765.00,1.35
8764.00,1.35
8763.00,1.35
8762.00,1.34
8761.00,1.34
8760.00,1.34
8759.00,1.34
8758.00,1.33
8757.00,1.33
8756.00,1.33
8755.00,1.32
8754.00,1.32
8753.00,1.32
8752.00,1.32
8751.00,1.32
8750.00,1.31
8749.00,1.31
8748.00,1.31
8747.00,1.31
8746.00,1.31
8745.00,1.31
8744.00,1.31
8743.00,1.31
8742.00,1.31
8741.00,1.31
8740.00,1.31
8739.00,1.31
8738.00,1.32
8737.00,1.32
8736.00,1.32
8735.00,1.32
8734.00,1.32
8733.00,1.32
8732.00,1.32
8731.00,1.32
8730.00,1.32
8729.00,1.33
8728.00,1.33
8727.00,1.33
8726.00,1.33
8725.00,1.33
8724.00,1.33
8723.00,1.33
8722.00,1.33
8721.00,1.33
8720.00,1.33
8719.00,1.33
8718.00,1.33
8717.00,1.32
8716.00,1.32
8715.00,1.32
8714.00,1.32
8713.00,1.32
8712.00,1.32
8711.00,1.32
8710.00,1.32
8709.00,1.31
8708.00,1.31
8707.00,1.31
8706.00,1.31
8705.00,1.31
8704.00,1.31
8703.00,1.31
8702.00,1.31
8701.00,1.31
8700.00,1.31
8699.00,1.31
8698.00,1.31
8697.00,1.31
8696.00,1.32
8695.00,1.32
8694.00,1.32
8693.00,1.32
8692.00,1.32
8691.00,1.32
8690.00,1.32
8689.00,1.32
8688.00,1.32
8687.00,1.32
8686.00,1.32
8685.00,1.32
8684.00,1.32
8683.00,1.32
8682.00,1.32
8681.00,1.32
8680.00,1.32
8679.00,1.32
8678.00,1.32
8677.00,1.32
8676.00,1.32
8675.00,1.32
8674.00,1.32
8673.00,1.32
8672.00,1.32
8671.00,1.32
8670.00,1.32
8669.00,1.32
8668.00,1.31
8667.00,1.31
8666.00,1.31
8665.00,1.31
8664.00,1.31
8663.00,1.31
8662.00,1.31
8661.00,1.31
8660.00,1.30
8659.00,1.30
8658.00,1.30
8657.00,1.30
8656.00,1.30
8655.00,1.30
8654.00,1.30
8653.00,1.31
8652.00,1.31
8651.00,1.31
8650.00,1.31
8649.00,1.31
8648.00,1.31
8647.00,1.32
8646.00,1.32
8645.00,1.32
8644.00,1.32
8643.00,1.32
8642.00,1.33
8641.00,1.33
8640.00,1.33
8639.00,1.33
8638.00,1.33
8637.00,1.33
8636.00,1.33
8635.00,1.33
8634.00,1.33
8633.00,1.33
8632.00,1.33
8631.00,1.33
8630.00,1.32
8629.00,1.32
8628.00,1.32
8627.00,1.31
8626.00,1.31
8625.00,1.31
8624.00,1.30
8623.00,1.30
8622.00,1.30
8621.00,1.30
8620.00,1.29
8619.00,1.29
8618.00,1.29
8617.00,1.29
8616.00,1.29
8615.00,1.29
8614.00,1.29
8613.00,1.30
8612.00,1.30
8611.00,1.30
8610.00,1.30
8609.00,1.30
8608.00,1.31
8607.00,1.31
8606.00,1.31
8605.00,1.31
8604.00,1.32
8603.00,1.32
8602.00,1.32
8601.00,1.32
8600.00,1.32
8599.00,1.32
8598.00,1.32
8597.00,1.32
8596.00,1.32
8595.00,1.32
8594.00,1.32
8593.00,1.32
8592.00,1.32
8591.00,1.31
8590.00,1.31
8589.00,1.31
8588.00,1.31
8587.00,1.31
8586.00,1.30
8585.00,1.30
8584.00,1.30
8583.00,1.30
8582.00,1.30
8581.00,1.29
8580.00,1.29
8579.00,1.29
8578.00,1.29
8577.00,1.29
8576.00,1.29
8575.00,1.29
8574.00,1.29
8573.00,1.29
8572.00,1.29
8571.00,1.29
8570.00,1.29
8569.00,1.29
8568.00,1.29
8567.00,1.29
8566.00,1.29
8565.00,1.29
8564.00,1.29
8563.00,1.29
8562.00,1.29
8561.00,1.29
8560.00,1.29
8559.00,1.29
8558.00,1.29
8557.00,1.29
8556.00,1.29
8555.00,1.29
8554.00,1.29
8553.00,1.28
8552.00,1.28
8551.00,1.28
8550.00,1.28
8549.00,1.28
8548.00,1.28
8547.00,1.28
8546.00,1.28
8545.00,1.28
8544.00,1.28
8543.00,1.28
8542.00,1.28
8541.00,1.28
8540.00,1.28
8539.00,1.28
8538.00,1.28
8537.00,1.28
8536.00,1.28
8535.00,1.28
8534.00,1.28
8533.00,1.28
8532.00,1.28
8531.00,1.28
8530.00,1.28
8529.00,1.28
8528.00,1.28
8527.00,1.28
8526.00,1.28
8525.00,1.28
8524.00,1.28
8523.00,1.28
8522.00,1.28
8521.00,1.27
8520.00,1.27
8519.00,1.27
8518.00,1.27
8517.00,1.27
8516.00,1.26
8515.00,1.26
8514.00,1.26
8513.00,1.26
8512.00,1.26
8511.00,1.26
8510.00,1.26
8509.00,1.26
8508.00,1.26
8507.00,1.26
8506.00,1.26
8505.00,1.26
8504.00,1.26
8503.00,1.26
8502.00,1.25
8501.00,1.25
8500.00,1.25
8499.00,1.25
8498.00,1.25
8497.00,1.25
8496.00,1.25
8495.00,1.25
8494.00,1.25
8493.00,1.25
8492.00,1.25
8491.00,1.25
8490.00,1.24
8489.00,1.24
8488.00,1.24
8487.00,1.24
8486.00,1.24
8485.00,1.24
8484.00,1.24
8483.00,1.24
8482.00,1.24
8481.00,1.24
8480.00,1.24
8479.00,1.24
8478.00,1.24
8477.00,1.24
8476.00,1.24
8475.00,1.24
8474.00,1.24
8473.00,1.24
8472.00,1.24
8471.00,1.24
8470.00,1.24
8469.00,1.24
8468.00,1.24
8467.00,1.24
8466.00,1.24
8465.00,1.24
8464.00,1.24
8463.00,1.24
8462.00,1.24
8461.00,1.24
8460.00,1.24
8459.00,1.24
8458.00,1.24
8457.00,1.24
8456.00,1.24
8455.00,1.24
8454.00,1.24
8453.00,1.24
8452.00,1.24
8451.00,1.24
8450.00,1.25
8449.00,1.25
8448.00,1.25
8447.00,1.24
8446.00,1.24
8445.00,1.24
8444.00,1.24
8443.00,1.24
8442.00,1.24
8441.00,1.24
8440.00,1.24
8439.00,1.24
8438.00,1.24
8437.00,1.23
8436.00,1.23
8435.00,1.23
8434.00,1.23
8433.00,1.23
8432.00,1.23
8431.00,1.23
8430.00,1.23
8429.00,1.23
8428.00,1.23
8427.00,1.23
8426.00,1.23
8425.00,1.23
8424.00,1.23
8423.00,1.23
8422.00,1.22
8421.00,1.22
8420.00,1.22
8419.00,1.22
8418.00,1.22
8417.00,1.22
8416.00,1.22
8415.00,1.22
8414.00,1.22
8413.00,1.22
8412.00,1.21
8411.00,1.21
8410.00,1.21
8409.00,1.21
8408.00,1.21
8407.00,1.21
8406.00,1.22
8405.00,1.22
8404.00,1.22
8403.00,1.22
8402.00,1.22
8401.00,1.22
8400.00,1.23
8399.00,1.23
8398.00,1.23
8397.00,1.23
8396.00,1.24
8395.00,1.24
8394.00,1.24
8393.00,1.24
8392.00,1.25
8391.00,1.25
8390.00,1.25
8389.00,1.25
8388.00,1.25
8387.00,1.25
8386.00,1.25
8385.00,1.26
8384.00,1.26
8383.00,1.26
8382.00,1.26
8381.00,1.26
8380.00,1.26
8379.00,1.26
8378.00,1.26
8377.00,1.26
8376.00,1.26
8375.00,1.26
8374.00,1.26
8373.00,1.26
8372.00,1.26
8371.00,1.26
8370.00,1.26
8369.00,1.26
8368.00,1.26
8367.00,1.26
8366.00,1.25
8365.00,1.25
8364.00,1.25
8363.00,1.25
8362.00,1.25
8361.00,1.24
8360.00,1.24
8359.00,1.24
8358.00,1.24
8357.00,1.24
8356.00,1.24
8355.00,1.24
8354.00,1.24
8353.00,1.24
8352.00,1.24
8351.00,1.24
8350.00,1.24
8349.00,1.24
8348.00,1.24
8347.00,1.24
8346.00,1.24
8345.00,1.25
8344.00,1.25
8343.00,1.25
8342.00,1.25
8341.00,1.26
8340.00,1.26
8339.00,1.26
8338.00,1.27
8337.00,1.27
8336.00,1.27
8335.00,1.28
8334.00,1.28
8333.00,1.28
8332.00,1.28
8331.00,1.28
8330.00,1.28
8329.00,1.29
8328.00,1.29
8327.00,1.29
8326.00,1.28
8325.00,1.28
8324.00,1.28
8323.00,1.28
8322.00,1.28
8321.00,1.27
8320.00,1.27
8319.00,1.27
8318.00,1.27
8317.00,1.26
8316.00,1.26
8315.00,1.26
8314.00,1.26
8313.00,1.26
8312.00,1.26
8311.00,1.26
8310.00,1.25
8309.00,1.26
8308.00,1.26
8307.00,1.26
8306.00,1.26
8305.00,1.26
8304.00,1.26
8303.00,1.26
8302.00,1.26
8301.00,1.27
8300.00,1.27
8299.00,1.27
8298.00,1.27
8297.00,1.27
8296.00,1.28
8295.00,1.28
8294.00,1.28
8293.00,1.28
8292.00,1.28
8291.00,1.29
8290.00,1.29
8289.00,1.29
8288.00,1.29
8287.00,1.29
8286.00,1.29
8285.00,1.29
8284.00,1.29
8283.00,1.29
8282.00,1.29
8281.00,1.29
8280.00,1.29
8279.00,1.29
8278.00,1.29
8277.00,1.29
8276.00,1.29
8275.00,1.29
8274.00,1.29
8273.00,1.29
8272.00,1.29
8271.00,1.29
8270.00,1.29
8269.00,1.29
8268.00,1.29
8267.00,1.29
8266.00,1.29
8265.00,1.29
8264.00,1.29
8263.00,1.29
8262.00,1.29
8261.00,1.29
8260.00,1.28
8259.00,1.28
8258.00,1.28
8257.00,1.28
8256.00,1.28
8255.00,1.28
8254.00,1.28
8253.00,1.27
8252.00,1.27
8251.00,1.27
8250.00,1.27
8249.00,1.27
8248.00,1.27
8247.00,1.27
8246.00,1.27
8245.00,1.27
8244.00,1.27
8243.00,1.27
8242.00,1.27
8241.00,1.27
8240.00,1.27
8239.00,1.28
8238.00,1.28
8237.00,1.28
8236.00,1.28
8235.00,1.28
8234.00,1.28
8233.00,1.29
8232.00,1.29
8231.00,1.29
8230.00,1.29
8229.00,1.29
8228.00,1.29
8227.00,1.29
8226.00,1.29
8225.00,1.29
8224.00,1.29
8223.00,1.29
8222.00,1.29
8221.00,1.29
8220.00,1.29
8219.00,1.29
8218.00,1.29
8217.00,1.30
8216.00,1.30
8215.00,1.30
8214.00,1.30
8213.00,1.30
8212.00,1.30
8211.00,1.30
8210.00,1.30
8209.00,1.31
8208.00,1.31
8207.00,1.31
8206.00,1.31
8205.00,1.31
8204.00,1.31
8203.00,1.31
8202.00,1.31
8201.00,1.31
8200.00,1.31
8199.00,1.31
8198.00,1.31
8197.00,1.31
8196.00,1.31
8195.00,1.31
8194.00,1.30
8193.00,1.30
8192.00,1.30
8191.00,1.30
8190.00,1.30
8189.00,1.30
8188.00,1.29
8187.00,1.29
8186.00,1.29
8185.00,1.29
8184.00,1.29
8183.00,1.29
8182.00,1.29
8181.00,1.29
8180.00,1.29
8179.00,1.29
8178.00,1.29
8177.00,1.30
8176.00,1.30
8175.00,1.30
8174.00,1.30
8173.00,1.30
8172.00,1.30
8171.00,1.30
8170.00,1.30
8169.00,1.30
8168.00,1.30
8167.00,1.30
8166.00,1.30
8165.00,1.30
8164.00,1.30
8163.00,1.30
8162.00,1.30
8161.00,1.30
8160.00,1.30
8159.00,1.30
8158.00,1.30
8157.00,1.30
8156.00,1.31
8155.00,1.31
8154.00,1.31
8153.00,1.31
8152.00,1.31
8151.00,1.31
8150.00,1.31
8149.00,1.32
8148.00,1.32
8147.00,1.32
8146.00,1.32
8145.00,1.32
8144.00,1.32
8143.00,1.32
8142.00,1.32
8141.00,1.32
8140.00,1.32
8139.00,1.33
8138.00,1.33
8137.00,1.33
8136.00,1.33
8135.00,1.33
8134.00,1.33
8133.00,1.33
8132.00,1.32
8131.00,1.32
8130.00,1.32
8129.00,1.32
8128.00,1.32
8127.00,1.32
8126.00,1.32
8125.00,1.32
8124.00,1.32
8123.00,1.32
8122.00,1.32
8121.00,1.32
8120.00,1.32
8119.00,1.32
8118.00,1.32
8117.00,1.32
8116.00,1.32
8115.00,1.32
8114.00,1.32
8113.00,1.32
8112.00,1.32
8111.00,1.32
8110.00,1.32
8109.00,1.32
8108.00,1.32
8107.00,1.32
8106.00,1.32
8105.00,1.32
8104.00,1.33
8103.00,1.33
8102.00,1.33
8101.00,1.33
8100.00,1.33
8099.00,1.33
8098.00,1.33
8097.00,1.33
8096.00,1.33
8095.00,1.33
8094.00,1.33
8093.00,1.33
8092.00,1.33
8091.00,1.33
8090.00,1.33
8089.00,1.33
8088.00,1.33
8087.00,1.33
8086.00,1.33
8085.00,1.33
8084.00,1.33
8083.00,1.34
8082.00,1.34
8081.00,1.34
8080.00,1.34
8079.00,1.34
8078.00,1.34
8077.00,1.34
8076.00,1.34
8075.00,1.35
8074.00,1.35
8073.00,1.35
8072.00,1.35
8071.00,1.35
8070.00,1.35
8069.00,1.35
8068.00,1.35
8067.00,1.35
8066.00,1.35
8065.00,1.35
8064.00,1.35
8063.00,1.35
8062.00,1.35
8061.00,1.36
8060.00,1.36
8059.00,1.36
8058.00,1.36
8057.00,1.36
8056.00,1.36
8055.00,1.36
8054.00,1.36
8053.00,1.36
8052.00,1.36
8051.00,1.36
8050.00,1.36
8049.00,1.36
8048.00,1.36
8047.00,1.36
8046.00,1.36
8045.00,1.36
8044.00,1.36
8043.00,1.35
8042.00,1.35
8041.00,1.35
8040.00,1.35
8039.00,1.35
8038.00,1.35
8037.00,1.35
8036.00,1.35
8035.00,1.35
8034.00,1.35
8033.00,1.35
8032.00,1.35
8031.00,1.35
8030.00,1.35
8029.00,1.35
8028.00,1.35
8027.00,1.35
8026.00,1.35
8025.00,1.35
8024.00,1.36
8023.00,1.36
8022.00,1.36
8021.00,1.36
8020.00,1.36
8019.00,1.36
8018.00,1.36
8017.00,1.36
8016.00,1.36
8015.00,1.36
8014.00,1.36
8013.00,1.36
8012.00,1.36
8011.00,1.36
8010.00,1.36
8009.00,1.36
8008.00,1.36
8007.00,1.36
8006.00,1.36
8005.00,1.36
8004.00,1.36
8003.00,1.36
8002.00,1.36
8001.00,1.36
8000.00,1.36
7999.00,1.36
7998.00,1.36
7997.00,1.36
7996.00,1.36
7995.00,1.36
7994.00,1.36
7993.00,1.36
7992.00,1.36
7991.00,1.36
7990.00,1.36
7989.00,1.36
7988.00,1.36
7987.00,1.36
7986.00,1.36
7985.00,1.36
7984.00,1.36
7983.00,1.36
7982.00,1.37
7981.00,1.37
7980.00,1.37
7979.00,1.37
7978.00,1.37
7977.00,1.37
7976.00,1.37
7975.00,1.37
7974.00,1.37
7973.00,1.37
7972.00,1.37
7971.00,1.37
7970.00,1.37
7969.00,1.37
7968.00,1.37
7967.00,1.37
7966.00,1.37
7965.00,1.37
7964.00,1.37
7963.00,1.37
7962.00,1.37
7961.00,1.36
7960.00,1.36
7959.00,1.36
7958.00,1.37
7957.00,1.37
7956.00,1.37
7955.00,1.37
7954.00,1.37
7953.00,1.37
7952.00,1.37
7951.00,1.37
7950.00,1.37
7949.00,1.37
7948.00,1.37
7947.00,1.37
7946.00,1.37
7945.00,1.37
7944.00,1.37
7943.00,1.37
7942.00,1.37
7941.00,1.37
7940.00,1.37
7939.00,1.37
7938.00,1.37
7937.00,1.37
7936.00,1.37
7935.00,1.37
7934.00,1.37
7933.00,1.37
7932.00,1.37
7931.00,1.37
7930.00,1.37
7929.00,1.37
7928.00,1.37
7927.00,1.37
7926.00,1.37
7925.00,1.37
7924.00,1.37
7923.00,1.37
7922.00,1.37
7921.00,1.37
7920.00,1.37
7919.00,1.37
7918.00,1.37
7917.00,1.37
7916.00,1.37
7915.00,1.37
7914.00,1.37
7913.00,1.37
7912.00,1.37
7911.00,1.37
7910.00,1.37
7909.00,1.37
7908.00,1.37
7907.00,1.37
7906.00,1.37
7905.00,1.37
7904.00,1.37
7903.00,1.37
7902.00,1.38
7901.00,1.38
7900.00,1.38
7899.00,1.38
7898.00,1.38
7897.00,1.38
7896.00,1.38
7895.00,1.38
7894.00,1.38
7893.00,1.38
7892.00,1.38
7891.00,1.38
7890.00,1.38
7889.00,1.38
7888.00,1.38
7887.00,1.38
7886.00,1.38
7885.00,1.38
7884.00,1.38
7883.00,1.38
7882.00,1.38
7881.00,1.38
7880.00,1.38
7879.00,1.38
7878.00,1.38
7877.00,1.38
7876.00,1.38
7875.00,1.38
7874.00,1.38
7873.00,1.38
7872.00,1.38
7871.00,1.38
7870.00,1.39
7869.00,1.39
7868.00,1.39
7867.00,1.39
7866.00,1.39
7865.00,1.39
7864.00,1.39
7863.00,1.39
7862.00,1.39
7861.00,1.39
7860.00,1.39
7859.00,1.39
7858.00,1.39
7857.00,1.39
7856.00,1.39
7855.00,1.39
7854.00,1.39
7853.00,1.39
7852.00,1.39
7851.00,1.39
7850.00,1.39
7849.00,1.39
7848.00,1.39
7847.00,1.39
7846.00,1.39
7845.00,1.39
7844.00,1.39
7843.00,1.39
7842.00,1.39
7841.00,1.39
7840.00,1.39
7839.00,1.38
7838.00,1.38
7837.00,1.38
7836.00,1.38
7835.00,1.38
7834.00,1.38
7833.00,1.38
7832.00,1.38
7831.00,1.38
7830.00,1.38
7829.00,1.38
7828.00,1.38
7827.00,1.38
7826.00,1.38
7825.00,1.38
7824.00,1.38
7823.00,1.38
7822.00,1.38
7821.00,1.38
7820.00,1.38
7819.00,1.38
7818.00,1.38
7817.00,1.39
7816.00,1.39
7815.00,1.39
7814.00,1.39
7813.00,1.39
7812.00,1.39
7811.00,1.39
7810.00,1.39
7809.00,1.39
7808.00,1.39
7807.00,1.39
7806.00,1.39
7805.00,1.39
7804.00,1.39
7803.00,1.39
7802.00,1.39
7801.00,1.39
7800.00,1.40
7799.00,1.40
7798.00,1.40
7797.00,1.40
7796.00,1.40
7795.00,1.40
7794.00,1.40
7793.00,1.41
7792.00,1.41
7791.00,1.41
7790.00,1.41
7789.00,1.41
7788.00,1.41
7787.00,1.41
7786.00,1.41
7785.00,1.41
7784.00,1.41
7783.00,1.41
7782.00,1.41
7781.00,1.41
7780.00,1.41
7779.00,1.41
7778.00,1.41
7777.00,1.41
7776.00,1.41
7775.00,1.41
7774.00,1.41
7773.00,1.41
7772.00,1.41
7771.00,1.41
7770.00,1.41
7769.00,1.41
7768.00,1.41
7767.00,1.41
7766.00,1.41
7765.00,1.40
7764.00,1.40
7763.00,1.40
7762.00,1.40
7761.00,1.40
7760.00,1.40
7759.00,1.40
7758.00,1.40
7757.00,1.40
7756.00,1.40
7755.00,1.40
7754.00,1.40
7753.00,1.40
7752.00,1.40
7751.00,1.40
7750.00,1.40
7749.00,1.40
7748.00,1.40
7747.00,1.40
7746.00,1.40
7745.00,1.40
7744.00,1.40
7743.00,1.40
7742.00,1.40
7741.00,1.40
7740.00,1.40
7739.00,1.40
7738.00,1.40
7737.00,1.40
7736.00,1.40
7735.00,1.41
7734.00,1.41
7733.00,1.41
7732.00,1.41
7731.00,1.41
7730.00,1.41
7729.00,1.41
7728.00,1.41
7727.00,1.41
7726.00,1.41
7725.00,1.40
7724.00,1.40
7723.00,1.40
7722.00,1.40
7721.00,1.40
7720.00,1.40
7719.00,1.40
7718.00,1.40
7717.00,1.40
7716.00,1.40
7715.00,1.40
7714.00,1.40
7713.00,1.40
7712.00,1.40
7711.00,1.40
7710.00,1.40
7709.00,1.40
7708.00,1.40
7707.00,1.40
7706.00,1.41
7705.00,1.41
7704.00,1.41
7703.00,1.41
7702.00,1.41
7701.00,1.41
7700.00,1.41
7699.00,1.41
7698.00,1.41
7697.00,1.41
7696.00,1.41
7695.00,1.41
7694.00,1.41
7693.00,1.41
7692.00,1.41
7691.00,1.41
7690.00,1.41
7689.00,1.41
7688.00,1.41
7687.00,1.41
7686.00,1.41
7685.00,1.41
7684.00,1.41
7683.00,1.41
7682.00,1.41
7681.00,1.40
7680.00,1.40
7679.00,1.40
7678.00,1.40
7677.00,1.40
7676.00,1.40
7675.00,1.40
7674.00,1.39
7673.00,1.39
7672.00,1.39
7671.00,1.39
7670.00,1.39
7669.00,1.39
7668.00,1.39
7667.00,1.39
7666.00,1.39
7665.00,1.39
7664.00,1.39
7663.00,1.39
7662.00,1.39
7661.00,1.39
7660.00,1.39
7659.00,1.39
7658.00,1.39
7657.00,1.39
7656.00,1.40
7655.00,1.40
7654.00,1.40
7653.00,1.40
7652.00,1.40
7651.00,1.40
7650.00,1.40
7649.00,1.40
7648.00,1.40
7647.00,1.40
7646.00,1.40
7645.00,1.40
7644.00,1.40
7643.00,1.40
7642.00,1.40
7641.00,1.40
7640.00,1.40
7639.00,1.40
7638.00,1.40
7637.00,1.40
7636.00,1.40
7635.00,1.40
7634.00,1.40
7633.00,1.40
7632.00,1.40
7631.00,1.40
7630.00,1.40
7629.00,1.40
7628.00,1.40
7627.00,1.40
7626.00,1.40
7625.00,1.40
7624.00,1.40
7623.00,1.40
7622.00,1.40
7621.00,1.40
7620.00,1.40
7619.00,1.40
7618.00,1.40
7617.00,1.40
7616.00,1.41
7615.00,1.41
7614.00,1.41
7613.00,1.41
7612.00,1.41
7611.00,1.41
7610.00,1.41
7609.00,1.41
7608.00,1.41
7607.00,1.41
7606.00,1.41
7605.00,1.41
7604.00,1.41
7603.00,1.41
7602.00,1.41
7601.00,1.41
7600.00,1.41
7599.00,1.41
7598.00,1.41
7597.00,1.41
7596.00,1.41
7595.00,1.41
7594.00,1.41
7593.00,1.41
7592.00,1.41
7591.00,1.41
7590.00,1.41
7589.00,1.40
7588.00,1.40
7587.00,1.40
7586.00,1.40
7585.00,1.40
7584.00,1.40
7583.00,1.40
7582.00,1.40
7581.00,1.40
7580.00,1.39
7579.00,1.39
7578.00,1.39
7577.00,1.39
7576.00,1.39
7575.00,1.39
7574.00,1.39
7573.00,1.39
7572.00,1.39
7571.00,1.39
7570.00,1.39
7569.00,1.39
7568.00,1.39
7567.00,1.39
7566.00,1.39
7565.00,1.39
7564.00,1.39
7563.00,1.39
7562.00,1.39
7561.00,1.39
7560.00,1.39
7559.00,1.39
7558.00,1.39
7557.00,1.39
7556.00,1.39
7555.00,1.38
7554.00,1.38
7553.00,1.38
7552.00,1.38
7551.00,1.38
7550.00,1.38
7549.00,1.38
7548.00,1.38
7547.00,1.38
7546.00,1.38
7545.00,1.38
7544.00,1.38
7543.00,1.38
7542.00,1.38
7541.00,1.38
7540.00,1.38
7539.00,1.38
7538.00,1.38
7537.00,1.38
7536.00,1.38
7535.00,1.38
7534.00,1.39
7533.00,1.39
7532.00,1.39
7531.00,1.39
7530.00,1.39
7529.00,1.39
7528.00,1.39
7527.00,1.39
7526.00,1.38
7525.00,1.38
7524.00,1.38
7523.00,1.38
7522.00,1.38
7521.00,1.38
7520.00,1.38
7519.00,1.38
7518.00,1.38
7517.00,1.38
7516.00,1.38
7515.00,1.38
7514.00,1.38
7513.00,1.38
7512.00,1.38
7511.00,1.37
7510.00,1.37
7509.00,1.37
7508.00,1.37
7507.00,1.37
7506.00,1.37
7505.00,1.37
7504.00,1.37
7503.00,1.37
7502.00,1.37
7501.00,1.37
7500.00,1.37
7499.00,1.37
7498.00,1.37
7497.00,1.37
7496.00,1.37
7495.00,1.37
7494.00,1.37
7493.00,1.37
7492.00,1.37
7491.00,1.37
7490.00,1.37
7489.00,1.37
7488.00,1.37
7487.00,1.37
7486.00,1.37
7485.00,1.37
7484.00,1.37
7483.00,1.37
7482.00,1.38
7481.00,1.38
7480.00,1.38
7479.00,1.38
7478.00,1.38
7477.00,1.38
7476.00,1.38
7475.00,1.38
7474.00,1.38
7473.00,1.38
7472.00,1.38
7471.00,1.38
7470.00,1.38
7469.00,1.38
7468.00,1.38
7467.00,1.38
7466.00,1.38
7465.00,1.38
7464.00,1.37
7463.00,1.37
7462.00,1.37
7461.00,1.37
7460.00,1.37
7459.00,1.37
7458.00,1.37
7457.00,1.37
7456.00,1.37
7455.00,1.37
7454.00,1.37
7453.00,1.36
7452.00,1.36
7451.00,1.36
7450.00,1.36
7449.00,1.36
7448.00,1.36
7447.00,1.36
7446.00,1.36
7445.00,1.36
7444.00,1.36
7443.00,1.35
7442.00,1.35
7441.00,1.35
7440.00,1.35
7439.00,1.35
7438.00,1.35
7437.00,1.35
7436.00,1.35
7435.00,1.35
7434.00,1.35
7433.00,1.35
7432.00,1.35
7431.00,1.35
7430.00,1.35
7429.00,1.35
7428.00,1.35
7427.00,1.35
7426.00,1.35
7425.00,1.35
7424.00,1.35
7423.00,1.35
7422.00,1.34
7421.00,1.34
7420.00,1.34
7419.00,1.34
7418.00,1.34
7417.00,1.34
7416.00,1.34
7415.00,1.34
7414.00,1.34
7413.00,1.34
7412.00,1.34
7411.00,1.34
7410.00,1.34
7409.00,1.34
7408.00,1.34
7407.00,1.34
7406.00,1.34
7405.00,1.34
7404.00,1.34
7403.00,1.34
7402.00,1.33
7401.00,1.33
7400.00,1.33
7399.00,1.33
7398.00,1.33
7397.00,1.33
7396.00,1.33
7395.00,1.33
7394.00,1.32
7393.00,1.32
7392.00,1.32
7391.00,1.32
7390.00,1.32
7389.00,1.32
7388.00,1.32
7387.00,1.32
7386.00,1.31
7385.00,1.31
7384.00,1.31
7383.00,1.31
7382.00,1.31
7381.00,1.31
7380.00,1.31
7379.00,1.31
7378.00,1.31
7377.00,1.31
7376.00,1.31
7375.00,1.31
7374.00,1.30
7373.00,1.30
7372.00,1.30
7371.00,1.30
7370.00,1.30
7369.00,1.30
7368.00,1.30
7367.00,1.30
7366.00,1.30
7365.00,1.30
7364.00,1.30
7363.00,1.30
7362.00,1.30
7361.00,1.30
7360.00,1.30
7359.00,1.30
7358.00,1.30
7357.00,1.30
7356.00,1.30
7355.00,1.30
7354.00,1.30
7353.00,1.30
7352.00,1.29
7351.00,1.29
7350.00,1.29
7349.00,1.29
7348.00,1.29
7347.00,1.29
7346.00,1.29
7345.00,1.28
7344.00,1.28
7343.00,1.28
7342.00,1.28
7341.00,1.28
7340.00,1.28
7339.00,1.28
7338.00,1.28
7337.00,1.28
7336.00,1.28
7335.00,1.28
7334.00,1.28
7333.00,1.28
7332.00,1.28
7331.00,1.28
7330.00,1.28
7329.00,1.28
7328.00,1.28
7327.00,1.28
7326.00,1.28
7325.00,1.28
7324.00,1.28
7323.00,1.28
7322.00,1.28
7321.00,1.28
7320.00,1.28
7319.00,1.28
7318.00,1.28
7317.00,1.28
7316.00,1.28
7315.00,1.28
7314.00,1.28
7313.00,1.28
7312.00,1.28
7311.00,1.28
7310.00,1.27
7309.00,1.27
7308.00,1.27
7307.00,1.27
7306.00,1.27
7305.00,1.27
7304.00,1.27
7303.00,1.27
7302.00,1.27
7301.00,1.27
7300.00,1.26
7299.00,1.26
7298.00,1.26
7297.00,1.26
7296.00,1.26
7295.00,1.26
7294.00,1.25
7293.00,1.25
7292.00,1.25
7291.00,1.25
7290.00,1.25
7289.00,1.25
7288.00,1.25
7287.00,1.24
7286.00,1.24
7285.00,1.24
7284.00,1.24
7283.00,1.24
7282.00,1.24
7281.00,1.24
7280.00,1.24
7279.00,1.24
7278.00,1.24
7277.00,1.23
7276.00,1.23
7275.00,1.23
7274.00,1.23
7273.00,1.23
7272.00,1.23
7271.00,1.22
7270.00,1.22
7269.00,1.22
7268.00,1.22
7267.00,1.22
7266.00,1.21
7265.00,1.21
7264.00,1.21
7263.00,1.21
7262.00,1.21
7261.00,1.21
7260.00,1.20
7259.00,1.20
7258.00,1.20
7257.00,1.20
7256.00,1.20
7255.00,1.20
7254.00,1.20
7253.00,1.19
7252.00,1.19
7251.00,1.19
7250.00,1.19
7249.00,1.19
7248.00,1.18
7247.00,1.18
7246.00,1.18
7245.00,1.18
7244.00,1.17
7243.00,1.17
7242.00,1.17
7241.00,1.17
7240.00,1.16
7239.00,1.16
7238.00,1.16
7237.00,1.16
7236.00,1.15
7235.00,1.15
7234.00,1.15
7233.00,1.15
7232.00,1.14
7231.00,1.14
7230.00,1.14
7229.00,1.14
7228.00,1.13
7227.00,1.13
7226.00,1.13
7225.00,1.13
7224.00,1.12
7223.00,1.12
7222.00,1.12
7221.00,1.11
7220.00,1.11
7219.00,1.11
7218.00,1.10
7217.00,1.10
7216.00,1.10
7215.00,1.09
7214.00,1.09
7213.00,1.09
7212.00,1.08
7211.00,1.08
7210.00,1.08
7209.00,1.08
7208.00,1.07
7207.00,1.07
7206.00,1.07
7205.00,1.07
7204.00,1.07
7203.00,1.06
7202.00,1.06
7201.00,1.06
7200.00,1.06
7199.00,1.05
7198.00,1.05
7197.00,1.05
7196.00,1.05
7195.00,1.04
7194.00,1.04
7193.00,1.04
7192.00,1.03
7191.00,1.03
7190.00,1.03
7189.00,1.02
7188.00,1.02
7187.00,1.02
7186.00,1.01
7185.00,1.01
7184.00,1.01
7183.00,1.00
7182.00,1.00
7181.00,1.00
7180.00,0.99
7179.00,0.99
7178.00,0.99
7177.00,0.98
7176.00,0.98
7175.00,0.98
7174.00,0.98
7173.00,0.97
7172.00,0.97
7171.00,0.97
7170.00,0.96
7169.00,0.96
7168.00,0.96
7167.00,0.96
7166.00,0.95
7165.00,0.95
7164.00,0.95
7163.00,0.95
7162.00,0.94
7161.00,0.94
7160.00,0.94
7159.00,0.94
7158.00,0.94
7157.00,0.94
7156.00,0.93
7155.00,0.93
7154.00,0.93
7153.00,0.93
7152.00,0.93
7151.00,0.92
7150.00,0.92
7149.00,0.92
7148.00,0.92
7147.00,0.91
7146.00,0.91
7145.00,0.91
7144.00,0.90
7143.00,0.90
7142.00,0.90
7141.00,0.89
7140.00,0.89
7139.00,0.88
7138.00,0.88
7137.00,0.88
7136.00,0.87
7135.00,0.87
7134.00,0.87
7133.00,0.86
7132.00,0.86
7131.00,0.86
7130.00,0.85
7129.00,0.85
7128.00,0.85
7127.00,0.84
7126.00,0.84
7125.00,0.84
7124.00,0.84
7123.00,0.84
7122.00,0.83
7121.00,0.83
7120.00,0.83
7119.00,0.83
7118.00,0.83
7117.00,0.83
7116.00,0.82
7115.00,0.82
7114.00,0.82
7113.00,0.82
7112.00,0.82
7111.00,0.82
7110.00,0.81
7109.00,0.81
7108.00,0.81
7107.00,0.81
7106.00,0.81
7105.00,0.80
7104.00,0.80
7103.00,0.80
7102.00,0.80
7101.00,0.79
7100.00,0.79
7099.00,0.79
7098.00,0.79
7097.00,0.78
7096.00,0.78
7095.00,0.78
7094.00,0.78
7093.00,0.78
7092.00,0.77
7091.00,0.77
7090.00,0.77
7089.00,0.77
7088.00,0.77
7087.00,0.77
7086.00,0.76
7085.00,0.76
7084.00,0.76
7083.00,0.76
7082.00,0.75
7081.00,0.75
7080.00,0.75
7079.00,0.75
7078.00,0.75
7077.00,0.74
7076.00,0.74
7075.00,0.74
7074.00,0.74
7073.00,0.73
7072.00,0.73
7071.00,0.73
7070.00,0.73
7069.00,0.73
7068.00,0.73
7067.00,0.72
7066.00,0.72
7065.00,0.72
7064.00,0.72
7063.00,0.72
7062.00,0.72
7061.00,0.72
7060.00,0.71
7059.00,0.71
7058.00,0.71
7057.00,0.71
7056.00,0.71
7055.00,0.71
7054.00,0.71
7053.00,0.71
7052.00,0.71
7051.00,0.70
7050.00,0.70
7049.00,0.70
7048.00,0.70
7047.00,0.70
7046.00,0.70
7045.00,0.70
7044.00,0.69
7043.00,0.69
7042.00,0.69
7041.00,0.69
7040.00,0.69
7039.00,0.68
7038.00,0.68
7037.00,0.68
7036.00,0.68
7035.00,0.67
7034.00,0.67
7033.00,0.67
7032.00,0.67
7031.00,0.67
7030.00,0.67
7029.00,0.66
7028.00,0.66
7027.00,0.66
7026.00,0.66
7025.00,0.66
7024.00,0.66
7023.00,0.66
7022.00,0.66
7021.00,0.66
7020.00,0.66
7019.00,0.66
7018.00,0.66
7017.00,0.66
7016.00,0.66
7015.00,0.66
7014.00,0.66
7013.00,0.66
7012.00,0.66
7011.00,0.66
7010.00,0.66
7009.00,0.66
7008.00,0.66
7007.00,0.65
7006.00,0.65
7005.00,0.65
7004.00,0.65
7003.00,0.65
7002.00,0.65
7001.00,0.65
7000.00,0.65
6999.00,0.65
6998.00,0.65
6997.00,0.65
6996.00,0.65
6995.00,0.65
6994.00,0.64
6993.00,0.64
6992.00,0.64
6991.00,0.64
6990.00,0.64
6989.00,0.64
6988.00,0.64
6987.00,0.64
6986.00,0.64
6985.00,0.64
6984.00,0.63
6983.00,0.63
6982.00,0.63
6981.00,0.63
6980.00,0.63
6979.00,0.63
6978.00,0.63
6977.00,0.63
6976.00,0.63
6975.00,0.63
6974.00,0.63
6973.00,0.63
6972.00,0.63
6971.00,0.63
6970.00,0.63
6969.00,0.62
6968.00,0.62
6967.00,0.62
6966.00,0.62
6965.00,0.62
6964.00,0.62
6963.00,0.62
6962.00,0.62
6961.00,0.62
6960.00,0.62
6959.00,0.61
6958.00,0.61
6957.00,0.61
6956.00,0.61
6955.00,0.61
6954.00,0.61
6953.00,0.61
6952.00,0.61
6951.00,0.61
6950.00,0.61
6949.00,0.61
6948.00,0.61
6947.00,0.61
6946.00,0.61
6945.00,0.61
6944.00,0.61
6943.00,0.61
6942.00,0.61
6941.00,0.61
6940.00,0.61
6939.00,0.61
6938.00,0.61
6937.00,0.61
6936.00,0.61
6935.00,0.61
6934.00,0.61
6933.00,0.61
6932.00,0.60
6931.00,0.60
6930.00,0.60
6929.00,0.60
6928.00,0.60
6927.00,0.60
6926.00,0.60
6925.00,0.60
6924.00,0.60
6923.00,0.60
6922.00,0.60
6921.00,0.60
6920.00,0.60
6919.00,0.60
6918.00,0.60
6917.00,0.60
6916.00,0.60
6915.00,0.60
6914.00,0.60
6913.00,0.59
6912.00,0.59
6911.00,0.59
6910.00,0.59
6909.00,0.59
6908.00,0.59
6907.00,0.59
6906.00,0.59
6905.00,0.59
6904.00,0.59
6903.00,0.59
6902.00,0.59
6901.00,0.59
6900.00,0.59
6899.00,0.59
6898.00,0.59
6897.00,0.59
6896.00,0.59
6895.00,0.59
6894.00,0.59
6893.00,0.59
6892.00,0.59
6891.00,0.59
6890.00,0.60
6889.00,0.60
6888.00,0.60
6887.00,0.60
6886.00,0.60
6885.00,0.60
6884.00,0.60
6883.00,0.60
6882.00,0.60
6881.00,0.60
6880.00,0.60
6879.00,0.60
6878.00,0.60
6877.00,0.60
6876.00,0.60
6875.00,0.60
6874.00,0.61
6873.00,0.61
6872.00,0.61
6871.00,0.61
6870.00,0.61
6869.00,0.61
6868.00,0.61
6867.00,0.61
6866.00,0.61
6865.00,0.61
6864.00,0.61
6863.00,0.61
6862.00,0.61
6861.00,0.61
6860.00,0.61
6859.00,0.61
6858.00,0.61
6857.00,0.61
6856.00,0.60
6855.00,0.60
6854.00,0.60
6853.00,0.60
6852.00,0.60
6851.00,0.60
6850.00,0.60
6849.00,0.60
6848.00,0.60
6847.00,0.60
6846.00,0.60
6845.00,0.60
6844.00,0.60
6843.00,0.59
6842.00,0.59
6841.00,0.59
6840.00,0.59
6839.00,0.59
6838.00,0.59
6837.00,0.59
6836.00,0.59
6835.00,0.60
6834.00,0.60
6833.00,0.60
6832.00,0.60
6831.00,0.60
6830.00,0.60
6829.00,0.60
6828.00,0.60
6827.00,0.60
6826.00,0.60
6825.00,0.60
6824.00,0.61
6823.00,0.61
6822.00,0.61
6821.00,0.61
6820.00,0.61
6819.00,0.61
6818.00,0.61
6817.00,0.61
6816.00,0.61
6815.00,0.61
6814.00,0.61
6813.00,0.61
6812.00,0.61
6811.00,0.61
6810.00,0.61
6809.00,0.61
6808.00,0.61
6807.00,0.61
6806.00,0.61
6805.00,0.61
6804.00,0.61
6803.00,0.61
6802.00,0.61
6801.00,0.61
6800.00,0.61
6799.00,0.61
6798.00,0.61
6797.00,0.61
6796.00,0.61
6795.00,0.61
6794.00,0.61
6793.00,0.61
6792.00,0.61
6791.00,0.61
6790.00,0.61
6789.00,0.61
6788.00,0.61
6787.00,0.61
6786.00,0.61
6785.00,0.61
6784.00,0.61
6783.00,0.61
6782.00,0.61
6781.00,0.61
6780.00,0.62
6779.00,0.62
6778.00,0.62
6777.00,0.62
6776.00,0.62
6775.00,0.62
6774.00,0.62
6773.00,0.62
6772.00,0.62
6771.00,0.63
6770.00,0.63
6769.00,0.63
6768.00,0.63
6767.00,0.63
6766.00,0.63
6765.00,0.63
6764.00,0.63
6763.00,0.63
6762.00,0.63
6761.00,0.63
6760.00,0.63
6759.00,0.63
6758.00,0.63
6757.00,0.62
6756.00,0.62
6755.00,0.62
6754.00,0.62
6753.00,0.62
6752.00,0.63
6751.00,0.63
6750.00,0.63
6749.00,0.63
6748.00,0.63
6747.00,0.63
6746.00,0.63
6745.00,0.63
6744.00,0.63
6743.00,0.63
6742.00,0.63
6741.00,0.63
6740.00,0.63
6739.00,0.63
6738.00,0.63
6737.00,0.63
6736.00,0.63
6735.00,0.63
6734.00,0.63
6733.00,0.63
6732.00,0.63
6731.00,0.63
6730.00,0.63
6729.00,0.64
6728.00,0.64
6727.00,0.64
6726.00,0.64
6725.00,0.64
6724.00,0.64
6723.00,0.64
6722.00,0.64
6721.00,0.64
6720.00,0.65
6719.00,0.65
6718.00,0.65
6717.00,0.65
6716.00,0.65
6715.00,0.65
6714.00,0.66
6713.00,0.66
6712.00,0.66
6711.00,0.66
6710.00,0.66
6709.00,0.66
6708.00,0.66
6707.00,0.66
6706.00,0.67
6705.00,0.67
6704.00,0.67
6703.00,0.67
6702.00,0.67
6701.00,0.67
6700.00,0.67
6699.00,0.67
6698.00,0.67
6697.00,0.67
6696.00,0.67
6695.00,0.67
6694.00,0.67
6693.00,0.67
6692.00,0.67
6691.00,0.68
6690.00,0.68
6689.00,0.68
6688.00,0.68
6687.00,0.68
6686.00,0.68
6685.00,0.68
6684.00,0.68
6683.00,0.68
6682.00,0.69
6681.00,0.69
6680.00,0.69
6679.00,0.69
6678.00,0.69
6677.00,0.69
6676.00,0.69
6675.00,0.69
6674.00,0.69
6673.00,0.69
6672.00,0.69
6671.00,0.69
6670.00,0.69
6669.00,0.70
6668.00,0.70
6667.00,0.70
6666.00,0.70
6665.00,0.70
6664.00,0.70
6663.00,0.70
6662.00,0.70
6661.00,0.70
6660.00,0.70
6659.00,0.70
6658.00,0.70
6657.00,0.70
6656.00,0.70
6655.00,0.70
6654.00,0.70
6653.00,0.70
6652.00,0.70
6651.00,0.70
6650.00,0.70
6649.00,0.70
6648.00,0.70
6647.00,0.71
6646.00,0.71
6645.00,0.71
6644.00,0.71
6643.00,0.71
6642.00,0.71
6641.00,0.71
6640.00,0.72
6639.00,0.72
6638.00,0.72
6637.00,0.72
6636.00,0.72
6635.00,0.72
6634.00,0.72
6633.00,0.72
6632.00,0.73
6631.00,0.73
6630.00,0.73
6629.00,0.73
6628.00,0.73
6627.00,0.73
6626.00,0.73
6625.00,0.73
6624.00,0.74
6623.00,0.74
6622.00,0.74
6621.00,0.74
6620.00,0.74
6619.00,0.74
6618.00,0.74
6617.00,0.74
6616.00,0.74
6615.00,0.74
6614.00,0.74
6613.00,0.74
6612.00,0.74
6611.00,0.74
6610.00,0.74
6609.00,0.74
6608.00,0.74
6607.00,0.75
6606.00,0.75
6605.00,0.75
6604.00,0.75
6603.00,0.75
6602.00,0.75
6601.00,0.75
6600.00,0.75
6599.00,0.75
6598.00,0.75
6597.00,0.75
6596.00,0.75
6595.00,0.76
6594.00,0.76
6593.00,0.76
6592.00,0.76
6591.00,0.76
6590.00,0.76
6589.00,0.76
6588.00,0.76
6587.00,0.76
6586.00,0.76
6585.00,0.76
6584.00,0.76
6583.00,0.76
6582.00,0.77
6581.00,0.77
6580.00,0.77
6579.00,0.77
6578.00,0.77
6577.00,0.77
6576.00,0.77
6575.00,0.77
6574.00,0.77
6573.00,0.77
6572.00,0.77
6571.00,0.77
6570.00,0.78
6569.00,0.78
6568.00,0.78
6567.00,0.78
6566.00,0.78
6565.00,0.78
6564.00,0.78
6563.00,0.78
6562.00,0.78
6561.00,0.79
6560.00,0.79
6559.00,0.79
6558.00,0.79
6557.00,0.79
6556.00,0.79
6555.00,0.79
6554.00,0.80
6553.00,0.80
6552.00,0.80
6551.00,0.80
6550.00,0.80
6549.00,0.81
6548.00,0.81
6547.00,0.81
6546.00,0.81
6545.00,0.81
6544.00,0.81
6543.00,0.81
6542.00,0.82
6541.00,0.82
6540.00,0.82
6539.00,0.82
6538.00,0.82
6537.00,0.82
6536.00,0.82
6535.00,0.82
6534.00,0.82
6533.00,0.82
6532.00,0.82
6531.00,0.82
6530.00,0.82
6529.00,0.82
6528.00,0.82
6527.00,0.82
6526.00,0.82
6525.00,0.82
6524.00,0.82
6523.00,0.82
6522.00,0.82
6521.00,0.82
6520.00,0.83
6519.00,0.83
6518.00,0.83
6517.00,0.83
6516.00,0.83
6515.00,0.83
6514.00,0.83
6513.00,0.83
6512.00,0.83
6511.00,0.83
6510.00,0.83
6509.00,0.83
6508.00,0.83
6507.00,0.83
6506.00,0.83
6505.00,0.83
6504.00,0.83
6503.00,0.83
6502.00,0.84
6501.00,0.84
6500.00,0.84
6499.00,0.84
6498.00,0.84
6497.00,0.84
6496.00,0.84
6495.00,0.84
6494.00,0.84
6493.00,0.84
6492.00,0.84
6491.00,0.84
6490.00,0.84
6489.00,0.84
6488.00,0.84
6487.00,0.84
6486.00,0.84
6485.00,0.85
6484.00,0.85
6483.00,0.85
6482.00,0.85
6481.00,0.85
6480.00,0.85
6479.00,0.85
6478.00,0.86
6477.00,0.86
6476.00,0.86
6475.00,0.86
6474.00,0.86
6473.00,0.86
6472.00,0.86
6471.00,0.86
6470.00,0.86
6469.00,0.86
6468.00,0.86
6467.00,0.86
6466.00,0.86
6465.00,0.87
6464.00,0.87
6463.00,0.87
6462.00,0.87
6461.00,0.87
6460.00,0.87
6459.00,0.87
6458.00,0.87
6457.00,0.87
6456.00,0.87
6455.00,0.87
6454.00,0.87
6453.00,0.87
6452.00,0.88
6451.00,0.88
6450.00,0.88
6449.00,0.88
6448.00,0.88
6447.00,0.88
6446.00,0.88
6445.00,0.89
6444.00,0.89
6443.00,0.89
6442.00,0.89
6441.00,0.89
6440.00,0.89
6439.00,0.89
6438.00,0.89
6437.00,0.89
6436.00,0.89
6435.00,0.89
6434.00,0.89
6433.00,0.89
6432.00,0.89
6431.00,0.89
6430.00,0.89
6429.00,0.89
6428.00,0.89
6427.00,0.89
6426.00,0.89
6425.00,0.89
6424.00,0.89
6423.00,0.89
6422.00,0.89
6421.00,0.89
6420.00,0.89
6419.00,0.89
6418.00,0.89
6417.00,0.89
6416.00,0.89
6415.00,0.89
6414.00,0.89
6413.00,0.89
6412.00,0.89
6411.00,0.89
6410.00,0.89
6409.00,0.89
6408.00,0.90
6407.00,0.90
6406.00,0.90
6405.00,0.90
6404.00,0.90
6403.00,0.90
6402.00,0.90
6401.00,0.90
6400.00,0.90
6399.00,0.90
6398.00,0.90
6397.00,0.90
6396.00,0.90
6395.00,0.90
6394.00,0.90
6393.00,0.90
6392.00,0.90
6391.00,0.90
6390.00,0.90
6389.00,0.91
6388.00,0.91
6387.00,0.91
6386.00,0.91
6385.00,0.91
6384.00,0.91
6383.00,0.91
6382.00,0.91
6381.00,0.91
6380.00,0.91
6379.00,0.91
6378.00,0.91
6377.00,0.91
6376.00,0.91
6375.00,0.92
6374.00,0.92
6373.00,0.92
6372.00,0.92
6371.00,0.92
6370.00,0.92
6369.00,0.92
6368.00,0.92
6367.00,0.92
6366.00,0.92
6365.00,0.92
6364.00,0.92
6363.00,0.93
6362.00,0.93
6361.00,0.93
6360.00,0.93
6359.00,0.93
6358.00,0.93
6357.00,0.93
6356.00,0.93
6355.00,0.93
6354.00,0.93
6353.00,0.93
6352.00,0.93
6351.00,0.93
6350.00,0.93
6349.00,0.93
6348.00,0.93
6347.00,0.93
6346.00,0.93
6345.00,0.94
6344.00,0.94
6343.00,0.94
6342.00,0.94
6341.00,0.94
6340.00,0.94
6339.00,0.94
6338.00,0.94
6337.00,0.94
6336.00,0.94
6335.00,0.94
6334.00,0.94
6333.00,0.94
6332.00,0.94
6331.00,0.94
6330.00,0.94
6329.00,0.94
6328.00,0.95
6327.00,0.95
6326.00,0.95
6325.00,0.95
6324.00,0.95
6323.00,0.95
6322.00,0.95
6321.00,0.95
6320.00,0.95
6319.00,0.96
6318.00,0.96
6317.00,0.96
6316.00,0.96
6315.00,0.96
6314.00,0.96
6313.00,0.97
6312.00,0.97
6311.00,0.97
6310.00,0.97
6309.00,0.97
6308.00,0.97
6307.00,0.97
6306.00,0.98
6305.00,0.98
6304.00,0.98
6303.00,0.98
6302.00,0.98
6301.00,0.98
6300.00,0.98
6299.00,0.98
6298.00,0.98
6297.00,0.98
6296.00,0.98
6295.00,0.98
6294.00,0.98
6293.00,0.99
6292.00,0.99
6291.00,0.99
6290.00,0.99
6289.00,0.99
6288.00,0.99
6287.00,0.99
6286.00,0.99
6285.00,0.99
6284.00,0.99
6283.00,0.99
6282.00,0.99
6281.00,0.99
6280.00,0.99
6279.00,1.00
6278.00,1.00
6277.00,1.00
6276.00,1.00
6275.00,1.00
6274.00,1.00
6273.00,1.00
6272.00,1.00
6271.00,1.00
6270.00,1.01
6269.00,1.01
6268.00,1.01
6267.00,1.01
6266.00,1.01
6265.00,1.01
6264.00,1.01
6263.00,1.02
6262.00,1.02
6261.00,1.02
6260.00,1.02
6259.00,1.02
6258.00,1.03
6257.00,1.03
6256.00,1.03
6255.00,1.03
6254.00,1.03
6253.00,1.03
6252.00,1.04
6251.00,1.04
6250.00,1.04
6249.00,1.04
6248.00,1.04
6247.00,1.04
6246.00,1.04
6245.00,1.04
6244.00,1.04
6243.00,1.04
6242.00,1.04
6241.00,1.04
6240.00,1.04
6239.00,1.05
6238.00,1.05
6237.00,1.05
6236.00,1.05
6235.00,1.05
6234.00,1.05
6233.00,1.05
6232.00,1.05
6231.00,1.05
6230.00,1.05
6229.00,1.05
6228.00,1.05
6227.00,1.06
6226.00,1.06
6225.00,1.06
6224.00,1.06
6223.00,1.06
6222.00,1.06
6221.00,1.06
6220.00,1.06
6219.00,1.07
6218.00,1.07
6217.00,1.07
6216.00,1.07
6215.00,1.07
6214.00,1.07
6213.00,1.07
6212.00,1.07
6211.00,1.08
6210.00,1.08
6209.00,1.08
6208.00,1.08
6207.00,1.08
6206.00,1.08
6205.00,1.08
6204.00,1.08
6203.00,1.08
6202.00,1.09
6201.00,1.09
6200.00,1.09
6199.00,1.09
6198.00,1.09
6197.00,1.09
6196.00,1.09
6195.00,1.09
6194.00,1.09
6193.00,1.09
6192.00,1.10
6191.00,1.10
6190.00,1.10
6189.00,1.10
6188.00,1.10
6187.00,1.10
6186.00,1.11
6185.00,1.11
6184.00,1.11
6183.00,1.11
6182.00,1.11
6181.00,1.11
6180.00,1.12
6179.00,1.12
6178.00,1.12
6177.00,1.12
6176.00,1.12
6175.00,1.12
6174.00,1.12
6173.00,1.12
6172.00,1.12
6171.00,1.12
6170.00,1.13
6169.00,1.13
6168.00,1.13
6167.00,1.13
6166.00,1.13
6165.00,1.13
6164.00,1.13
6163.00,1.13
6162.00,1.14
6161.00,1.14
6160.00,1.14
6159.00,1.14
6158.00,1.14
6157.00,1.14
6156.00,1.14
6155.00,1.14
6154.00,1.15
6153.00,1.15
6152.00,1.15
6151.00,1.15
6150.00,1.15
6149.00,1.15
6148.00,1.15
6147.00,1.16
6146.00,1.16
6145.00,1.16
6144.00,1.16
6143.00,1.16
6142.00,1.16
6141.00,1.17
6140.00,1.17
6139.00,1.17
6138.00,1.17
6137.00,1.17
6136.00,1.17
6135.00,1.18
6134.00,1.18
6133.00,1.18
6132.00,1.18
6131.00,1.18
6130.00,1.19
6129.00,1.19
6128.00,1.19
6127.00,1.19
6126.00,1.19
6125.00,1.19
6124.00,1.20
6123.00,1.20
6122.00,1.20
6121.00,1.20
6120.00,1.20
6119.00,1.21
6118.00,1.21
6117.00,1.21
6116.00,1.21
6115.00,1.21
6114.00,1.22
6113.00,1.22
6112.00,1.22
6111.00,1.22
6110.00,1.22
6109.00,1.22
6108.00,1.22
6107.00,1.22
6106.00,1.22
6105.00,1.22
6104.00,1.22
6103.00,1.22
6102.00,1.22
6101.00,1.23
6100.00,1.23
6099.00,1.23
6098.00,1.23
6097.00,1.23
6096.00,1.23
6095.00,1.23
6094.00,1.23
6093.00,1.23
6092.00,1.24
6091.00,1.24
6090.00,1.24
6089.00,1.24
6088.00,1.24
6087.00,1.24
6086.00,1.24
6085.00,1.25
6084.00,1.25
6083.00,1.25
6082.00,1.25
6081.00,1.25
6080.00,1.25
6079.00,1.26
6078.00,1.26
6077.00,1.26
6076.00,1.26
6075.00,1.26
6074.00,1.26
6073.00,1.26
6072.00,1.26
6071.00,1.26
6070.00,1.27
6069.00,1.27
6068.00,1.27
6067.00,1.27
6066.00,1.27
6065.00,1.27
6064.00,1.27
6063.00,1.27
6062.00,1.27
6061.00,1.27
6060.00,1.27
6059.00,1.27
6058.00,1.27
6057.00,1.27
6056.00,1.28
6055.00,1.28
6054.00,1.28
6053.00,1.28
6052.00,1.28
6051.00,1.28
6050.00,1.28
6049.00,1.28
6048.00,1.28
6047.00,1.28
6046.00,1.28
6045.00,1.28
6044.00,1.29
6043.00,1.29
6042.00,1.29
6041.00,1.29
6040.00,1.29
6039.00,1.29
6038.00,1.29
6037.00,1.29
6036.00,1.29
6035.00,1.29
6034.00,1.29
6033.00,1.29
6032.00,1.29
6031.00,1.29
6030.00,1.29
6029.00,1.29
6028.00,1.30
6027.00,1.30
6026.00,1.30
6025.00,1.30
6024.00,1.30
6023.00,1.30
6022.00,1.30
6021.00,1.30
6020.00,1.30
6019.00,1.30
6018.00,1.30
6017.00,1.30
6016.00,1.30
6015.00,1.30
6014.00,1.30
6013.00,1.30
6012.00,1.30
6011.00,1.30
6010.00,1.30
6009.00,1.30
6008.00,1.30
6007.00,1.30
6006.00,1.30
6005.00,1.30
6004.00,1.30
6003.00,1.30
6002.00,1.30
6001.00,1.30
6000.00,1.30
5999.00,1.29
5998.00,1.29
5997.00,1.29
5996.00,1.29
5995.00,1.29
5994.00,1.29
5993.00,1.29
5992.00,1.29
5991.00,1.28
5990.00,1.28
5989.00,1.28
5988.00,1.28
5987.00,1.28
5986.00,1.28
5985.00,1.27
5984.00,1.27
5983.00,1.27
5982.00,1.27
5981.00,1.26
5980.00,1.26
5979.00,1.26
5978.00,1.25
5977.00,1.25
5976.00,1.25
5975.00,1.24
5974.00,1.24
5973.00,1.24
5972.00,1.23
5971.00,1.23
5970.00,1.22
5969.00,1.22
5968.00,1.21
5967.00,1.20
5966.00,1.20
5965.00,1.19
5964.00,1.18
5963.00,1.18
5962.00,1.17
5961.00,1.16
5960.00,1.15
5959.00,1.15
5958.00,1.14
5957.00,1.13
5956.00,1.12
5955.00,1.12
5954.00,1.11
5953.00,1.10
5952.00,1.10
5951.00,1.09
5950.00,1.09
5949.00,1.08
5948.00,1.08
5947.00,1.07
5946.00,1.07
5945.00,1.06
5944.00,1.06
5943.00,1.06
5942.00,1.06
5941.00,1.06
5940.00,1.05
5939.00,1.05
5938.00,1.05
5937.00,1.05
5936.00,1.05
5935.00,1.05
5934.00,1.05
5933.00,1.05
5932.00,1.05
5931.00,1.05
5930.00,1.05
5929.00,1.05
5928.00,1.05
5927.00,1.05
5926.00,1.04
5925.00,1.04
5924.00,1.04
5923.00,1.04
5922.00,1.04
5921.00,1.04
5920.00,1.03
5919.00,1.03
5918.00,1.03
5917.00,1.02
5916.00,1.02
5915.00,1.02
5914.00,1.02
5913.00,1.01
5912.00,1.01
5911.00,1.01
5910.00,1.00
5909.00,1.00
5908.00,1.00
5907.00,1.00
5906.00,1.00
5905.00,1.00
5904.00,0.99
5903.00,0.99
5902.00,0.99
5901.00,0.99
5900.00,0.99
5899.00,0.99
5898.00,1.00
5897.00,1.00
5896.00,1.00
5895.00,1.00
5894.00,1.00
5893.00,1.00
5892.00,1.01
5891.00,1.01
5890.00,1.01
5889.00,1.02
5888.00,1.02
5887.00,1.02
5886.00,1.03
5885.00,1.03
5884.00,1.03
5883.00,1.03
5882.00,1.04
5881.00,1.04
5880.00,1.04
5879.00,1.05
5878.00,1.05
5877.00,1.05
5876.00,1.06
5875.00,1.06
5874.00,1.06
5873.00,1.06
5872.00,1.06
5871.00,1.07
5870.00,1.07
5869.00,1.07
5868.00,1.07
5867.00,1.07
5866.00,1.07
5865.00,1.07
5864.00,1.07
5863.00,1.08
5862.00,1.08
5861.00,1.08
5860.00,1.08
5859.00,1.08
5858.00,1.08
5857.00,1.08
5856.00,1.08
5855.00,1.08
5854.00,1.08
5853.00,1.08
5852.00,1.08
5851.00,1.08
5850.00,1.08
5849.00,1.08
5848.00,1.08
5847.00,1.08
5846.00,1.08
5845.00,1.08
5844.00,1.08
5843.00,1.08
5842.00,1.08
5841.00,1.08
5840.00,1.08
5839.00,1.08
5838.00,1.08
5837.00,1.08
5836.00,1.08
5835.00,1.08
5834.00,1.08
5833.00,1.08
5832.00,1.08
5831.00,1.09
5830.00,1.09
5829.00,1.09
5828.00,1.09
5827.00,1.09
5826.00,1.09
5825.00,1.09
5824.00,1.09
5823.00,1.09
5822.00,1.09
5821.00,1.09
5820.00,1.09
5819.00,1.09
5818.00,1.09
5817.00,1.09
5816.00,1.09
5815.00,1.09
5814.00,1.09
5813.00,1.09
5812.00,1.09
5811.00,1.09
5810.00,1.09
5809.00,1.09
5808.00,1.09
5807.00,1.10
5806.00,1.10
5805.00,1.10
5804.00,1.09
5803.00,1.09
5802.00,1.09
5801.00,1.09
5800.00,1.09
5799.00,1.09
5798.00,1.09
5797.00,1.09
5796.00,1.09
5795.00,1.09
5794.00,1.08
5793.00,1.08
5792.00,1.08
5791.00,1.08
5790.00,1.07
5789.00,1.07
5788.00,1.07
5787.00,1.07
5786.00,1.06
5785.00,1.06
5784.00,1.06
5783.00,1.06
5782.00,1.06
5781.00,1.05
5780.00,1.05
5779.00,1.05
5778.00,1.05
5777.00,1.05
5776.00,1.05
5775.00,1.05
5774.00,1.05
5773.00,1.05
5772.00,1.05
5771.00,1.04
5770.00,1.04
5769.00,1.04
5768.00,1.04
5767.00,1.05
5766.00,1.05
5765.00,1.05
5764.00,1.05
5763.00,1.05
5762.00,1.05
5761.00,1.05
5760.00,1.05
5759.00,1.06
5758.00,1.06
5757.00,1.06
5756.00,1.07
5755.00,1.07
5754.00,1.07
5753.00,1.08
5752.00,1.08
5751.00,1.08
5750.00,1.09
5749.00,1.09
5748.00,1.10
5747.00,1.10
5746.00,1.10
5745.00,1.11
5744.00,1.11
5743.00,1.12
5742.00,1.12
5741.00,1.12
5740.00,1.13
5739.00,1.13
5738.00,1.13
5737.00,1.13
5736.00,1.14
5735.00,1.14
5734.00,1.14
5733.00,1.14
5732.00,1.14
5731.00,1.15
5730.00,1.15
5729.00,1.15
5728.00,1.15
5727.00,1.15
5726.00,1.15
5725.00,1.15
5724.00,1.15
5723.00,1.16
5722.00,1.16
5721.00,1.16
5720.00,1.16
5719.00,1.16
5718.00,1.16
5717.00,1.16
5716.00,1.16
5715.00,1.16
5714.00,1.16
5713.00,1.16
5712.00,1.15
5711.00,1.15
5710.00,1.15
5709.00,1.15
5708.00,1.15
5707.00,1.15
5706.00,1.15
5705.00,1.15
5704.00,1.15
5703.00,1.15
5702.00,1.15
5701.00,1.15
5700.00,1.15
5699.00,1.15
5698.00,1.14
5697.00,1.14
5696.00,1.14
5695.00,1.14
5694.00,1.14
5693.00,1.14
5692.00,1.13
5691.00,1.13
5690.00,1.13
5689.00,1.13
5688.00,1.13
5687.00,1.13
5686.00,1.12
5685.00,1.12
5684.00,1.12
5683.00,1.12
5682.00,1.12
5681.00,1.12
5680.00,1.12
5679.00,1.12
5678.00,1.12
5677.00,1.12
5676.00,1.12
5675.00,1.12
5674.00,1.12
5673.00,1.12
5672.00,1.12
5671.00,1.12
5670.00,1.12
5669.00,1.12
5668.00,1.12
5667.00,1.12
5666.00,1.12
5665.00,1.12
5664.00,1.12
5663.00,1.12
5662.00,1.13
5661.00,1.13
5660.00,1.13
5659.00,1.13
5658.00,1.13
5657.00,1.13
5656.00,1.13
5655.00,1.13
5654.00,1.14
5653.00,1.14
5652.00,1.14
5651.00,1.14
5650.00,1.14
5649.00,1.14
5648.00,1.15
5647.00,1.15
5646.00,1.15
5645.00,1.15
5644.00,1.16
5643.00,1.16
5642.00,1.16
5641.00,1.16
5640.00,1.17
5639.00,1.17
5638.00,1.17
5637.00,1.17
5636.00,1.17
5635.00,1.18
5634.00,1.18
5633.00,1.18
5632.00,1.18
5631.00,1.18
5630.00,1.18
5629.00,1.19
5628.00,1.19
5627.00,1.19
5626.00,1.19
5625.00,1.19
5624.00,1.19
5623.00,1.19
5622.00,1.20
5621.00,1.20
5620.00,1.20
5619.00,1.20
5618.00,1.20
5617.00,1.21
5616.00,1.21
5615.00,1.21
5614.00,1.21
5613.00,1.21
5612.00,1.21
5611.00,1.22
5610.00,1.22
5609.00,1.22
5608.00,1.22
5607.00,1.22
5606.00,1.22
5605.00,1.22
5604.00,1.23
5603.00,1.23
5602.00,1.23
5601.00,1.23
5600.00,1.23
5599.00,1.24
5598.00,1.24
5597.00,1.24
5596.00,1.24
5595.00,1.24
5594.00,1.25
5593.00,1.25
5592.00,1.25
5591.00,1.25
5590.00,1.25
5589.00,1.25
5588.00,1.26
5587.00,1.26
5586.00,1.26
5585.00,1.26
5584.00,1.26
5583.00,1.26
5582.00,1.27
5581.00,1.27
5580.00,1.27
5579.00,1.27
5578.00,1.27
5577.00,1.27
5576.00,1.27
5575.00,1.27
5574.00,1.27
5573.00,1.27
5572.00,1.27
5571.00,1.27
5570.00,1.28
5569.00,1.28
5568.00,1.28
5567.00,1.28
5566.00,1.28
5565.00,1.28
5564.00,1.28
5563.00,1.28
5562.00,1.28
5561.00,1.28
5560.00,1.28
5559.00,1.29
5558.00,1.29
5557.00,1.29
5556.00,1.29
5555.00,1.29
5554.00,1.29
5553.00,1.29
5552.00,1.30
5551.00,1.30
5550.00,1.30
5549.00,1.30
5548.00,1.30
5547.00,1.30
5546.00,1.30
5545.00,1.31
5544.00,1.31
5543.00,1.31
5542.00,1.31
5541.00,1.31
5540.00,1.31
5539.00,1.31
5538.00,1.31
5537.00,1.32
5536.00,1.32
5535.00,1.32
5534.00,1.32
5533.00,1.32
5532.00,1.32
5531.00,1.32
5530.00,1.32
5529.00,1.33
5528.00,1.33
5527.00,1.33
5526.00,1.33
5525.00,1.33
5524.00,1.33
5523.00,1.34
5522.00,1.34
5521.00,1.34
5520.00,1.34
5519.00,1.34
5518.00,1.34
5517.00,1.34
5516.00,1.34
5515.00,1.35
5514.00,1.35
5513.00,1.35
5512.00,1.35
5511.00,1.35
5510.00,1.35
5509.00,1.35
5508.00,1.35
5507.00,1.35
5506.00,1.35
5505.00,1.35
5504.00,1.35
5503.00,1.35
5502.00,1.35
5501.00,1.35
5500.00,1.35
5499.00,1.35
5498.00,1.35
5497.00,1.35
5496.00,1.35
5495.00,1.35
5494.00,1.35
5493.00,1.35
5492.00,1.35
5491.00,1.36
5490.00,1.36
5489.00,1.36
5488.00,1.36
5487.00,1.36
5486.00,1.36
5485.00,1.36
5484.00,1.36
5483.00,1.36
5482.00,1.37
5481.00,1.37
5480.00,1.37
5479.00,1.37
5478.00,1.37
5477.00,1.37
5476.00,1.37
5475.00,1.38
5474.00,1.38
5473.00,1.38
5472.00,1.38
5471.00,1.38
5470.00,1.38
5469.00,1.39
5468.00,1.39
5467.00,1.39
5466.00,1.39
5465.00,1.39
5464.00,1.39
5463.00,1.39
5462.00,1.40
5461.00,1.40
5460.00,1.40
5459.00,1.40
5458.00,1.40
5457.00,1.40
5456.00,1.40
5455.00,1.40
5454.00,1.40
5453.00,1.40
5452.00,1.40
5451.00,1.40
5450.00,1.40
5449.00,1.40
5448.00,1.40
5447.00,1.40
5446.00,1.40
5445.00,1.40
5444.00,1.40
5443.00,1.40
5442.00,1.40
5441.00,1.40
5440.00,1.40
5439.00,1.40
5438.00,1.40
5437.00,1.40
5436.00,1.40
5435.00,1.41
5434.00,1.41
5433.00,1.41
5432.00,1.41
5431.00,1.41
5430.00,1.41
5429.00,1.41
5428.00,1.41
5427.00,1.41
5426.00,1.41
5425.00,1.41
5424.00,1.41
5423.00,1.41
5422.00,1.41
5421.00,1.41
5420.00,1.41
5419.00,1.41
5418.00,1.41
5417.00,1.41
5416.00,1.41
5415.00,1.41
5414.00,1.41
5413.00,1.41
5412.00,1.41
5411.00,1.41
5410.00,1.41
5409.00,1.41
5408.00,1.41
5407.00,1.41
5406.00,1.41
5405.00,1.41
5404.00,1.41
5403.00,1.41
5402.00,1.41
5401.00,1.41
5400.00,1.41
5399.00,1.41
5398.00,1.41
5397.00,1.41
5396.00,1.41
5395.00,1.41
5394.00,1.41
5393.00,1.41
5392.00,1.41
5391.00,1.41
5390.00,1.41
5389.00,1.41
5388.00,1.41
5387.00,1.40
5386.00,1.40
5385.00,1.40
5384.00,1.40
5383.00,1.40
5382.00,1.39
5381.00,1.39
5380.00,1.39
5379.00,1.39
5378.00,1.38
5377.00,1.38
5376.00,1.38
5375.00,1.37
5374.00,1.37
5373.00,1.37
5372.00,1.36
5371.00,1.36
5370.00,1.35
5369.00,1.35
5368.00,1.34
5367.00,1.34
5366.00,1.33
5365.00,1.33
5364.00,1.32
5363.00,1.32
5362.00,1.31
5361.00,1.31
5360.00,1.30
5359.00,1.30
5358.00,1.29
5357.00,1.28
5356.00,1.28
5355.00,1.27
5354.00,1.26
5353.00,1.25
5352.00,1.25
5351.00,1.24
5350.00,1.23
5349.00,1.22
5348.00,1.21
5347.00,1.20
5346.00,1.20
5345.00,1.19
5344.00,1.18
5343.00,1.17
5342.00,1.16
5341.00,1.15
5340.00,1.14
5339.00,1.14
5338.00,1.13
5337.00,1.12
5336.00,1.11
5335.00,1.10
5334.00,1.09
5333.00,1.08
5332.00,1.07
5331.00,1.06
5330.00,1.05
5329.00,1.04
5328.00,1.03
5327.00,1.02
5326.00,1.01
5325.00,1.00
5324.00,0.99
5323.00,0.98
5322.00,0.96
5321.00,0.95
5320.00,0.94
5319.00,0.93
5318.00,0.92
5317.00,0.91
5316.00,0.90
5315.00,0.89
5314.00,0.88
5313.00,0.87
5312.00,0.87
5311.00,0.86
5310.00,0.85
5309.00,0.84
5308.00,0.83
5307.00,0.82
5306.00,0.81
5305.00,0.81
5304.00,0.80
5303.00,0.79
5302.00,0.78
5301.00,0.78
5300.00,0.77
5299.00,0.77
5298.00,0.76
5297.00,0.75
5296.00,0.75
5295.00,0.74
5294.00,0.74
5293.00,0.73
5292.00,0.73
5291.00,0.72
5290.00,0.72
5289.00,0.72
5288.00,0.71
5287.00,0.71
5286.00,0.71
5285.00,0.70
5284.00,0.70
5283.00,0.70
5282.00,0.69
5281.00,0.69
5280.00,0.69
5279.00,0.69
5278.00,0.69
5277.00,0.69
5276.00,0.68
5275.00,0.68
5274.00,0.68
5273.00,0.68
5272.00,0.68
5271.00,0.68
5270.00,0.68
5269.00,0.68
5268.00,0.68
5267.00,0.68
5266.00,0.68
5265.00,0.68
5264.00,0.68
5263.00,0.68
5262.00,0.68
5261.00,0.67
5260.00,0.67
5259.00,0.67
5258.00,0.67
5257.00,0.67
5256.00,0.67
5255.00,0.67
5254.00,0.67
5253.00,0.67
5252.00,0.66
5251.00,0.66
5250.00,0.66
5249.00,0.66
5248.00,0.66
5247.00,0.66
5246.00,0.66
5245.00,0.66
5244.00,0.66
5243.00,0.66
5242.00,0.66
5241.00,0.66
5240.00,0.66
5239.00,0.66
5238.00,0.66
5237.00,0.66
5236.00,0.66
5235.00,0.66
5234.00,0.66
5233.00,0.66
5232.00,0.66
5231.00,0.66
5230.00,0.66
5229.00,0.66
5228.00,0.66
5227.00,0.66
5226.00,0.66
5225.00,0.66
5224.00,0.66
5223.00,0.67
5222.00,0.67
5221.00,0.67
5220.00,0.67
5219.00,0.67
5218.00,0.67
5217.00,0.67
5216.00,0.67
5215.00,0.67
5214.00,0.67
5213.00,0.67
5212.00,0.67
5211.00,0.67
5210.00,0.67
5209.00,0.67
5208.00,0.67
5207.00,0.67
5206.00,0.67
5205.00,0.67
5204.00,0.67
5203.00,0.68
5202.00,0.68
5201.00,0.68
5200.00,0.68
5199.00,0.68
5198.00,0.68
5197.00,0.68
5196.00,0.68
5195.00,0.68
5194.00,0.68
5193.00,0.68
5192.00,0.68
5191.00,0.68
5190.00,0.68
5189.00,0.68
5188.00,0.68
5187.00,0.68
5186.00,0.68
5185.00,0.68
5184.00,0.68
5183.00,0.68
5182.00,0.68
5181.00,0.68
5180.00,0.68
5179.00,0.68
5178.00,0.68
5177.00,0.68
5176.00,0.68
5175.00,0.68
5174.00,0.68
5173.00,0.68
5172.00,0.68
5171.00,0.68
5170.00,0.68
5169.00,0.68
5168.00,0.68
5167.00,0.68
5166.00,0.68
5165.00,0.69
5164.00,0.69
5163.00,0.69
5162.00,0.69
5161.00,0.69
5160.00,0.69
5159.00,0.69
5158.00,0.69
5157.00,0.69
5156.00,0.69
5155.00,0.69
5154.00,0.69
5153.00,0.69
5152.00,0.69
5151.00,0.69
5150.00,0.69
5149.00,0.69
5148.00,0.69
5147.00,0.69
5146.00,0.69
5145.00,0.69
5144.00,0.69
5143.00,0.69
5142.00,0.69
5141.00,0.69
5140.00,0.69
5139.00,0.69
5138.00,0.70
5137.00,0.70
5136.00,0.70
5135.00,0.70
5134.00,0.70
5133.00,0.70
5132.00,0.70
5131.00,0.70
5130.00,0.70
5129.00,0.70
5128.00,0.71
5127.00,0.71
5126.00,0.71
5125.00,0.71
5124.00,0.71
5123.00,0.71
5122.00,0.71
5121.00,0.71
5120.00,0.71
5119.00,0.71
5118.00,0.71
5117.00,0.71
5116.00,0.71
5115.00,0.71
5114.00,0.72
5113.00,0.72
5112.00,0.72
5111.00,0.72
5110.00,0.72
5109.00,0.72
5108.00,0.72
5107.00,0.72
5106.00,0.72
5105.00,0.72
5104.00,0.72
5103.00,0.72
5102.00,0.72
5101.00,0.72
5100.00,0.72
5099.00,0.72
5098.00,0.72
5097.00,0.72
5096.00,0.72
5095.00,0.72
5094.00,0.72
5093.00,0.72
5092.00,0.72
5091.00,0.72
5090.00,0.72
5089.00,0.72
5088.00,0.72
5087.00,0.73
5086.00,0.73
5085.00,0.73
5084.00,0.73
5083.00,0.73
5082.00,0.73
5081.00,0.73
5080.00,0.73
5079.00,0.73
5078.00,0.73
5077.00,0.73
5076.00,0.73
5075.00,0.73
5074.00,0.73
5073.00,0.73
5072.00,0.73
5071.00,0.73
5070.00,0.73
5069.00,0.73
5068.00,0.73
5067.00,0.73
5066.00,0.73
5065.00,0.73
5064.00,0.73
5063.00,0.74
5062.00,0.74
5061.00,0.74
5060.00,0.74
5059.00,0.74
5058.00,0.74
5057.00,0.74
5056.00,0.74
5055.00,0.74
5054.00,0.74
5053.00,0.74
5052.00,0.75
5051.00,0.75
5050.00,0.75
5049.00,0.75
5048.00,0.75
5047.00,0.75
5046.00,0.75
5045.00,0.75
5044.00,0.75
5043.00,0.76
5042.00,0.76
5041.00,0.76
5040.00,0.76
5039.00,0.76
5038.00,0.76
5037.00,0.76
5036.00,0.76
5035.00,0.76
5034.00,0.76
5033.00,0.76
5032.00,0.76
5031.00,0.76
5030.00,0.76
5029.00,0.76
5028.00,0.76
5027.00,0.77
5026.00,0.77
5025.00,0.77
5024.00,0.77
5023.00,0.77
5022.00,0.77
5021.00,0.77
5020.00,0.77
5019.00,0.77
5018.00,0.77
5017.00,0.77
5016.00,0.77
5015.00,0.77
5014.00,0.77
5013.00,0.78
5012.00,0.78
5011.00,0.78
5010.00,0.78
5009.00,0.78
5008.00,0.78
5007.00,0.78
5006.00,0.78
5005.00,0.78
5004.00,0.79
5003.00,0.79
5002.00,0.79
5001.00,0.79
5000.00,0.79
4999.00,0.79
4998.00,0.79
4997.00,0.79
4996.00,0.80
4995.00,0.80
4994.00,0.80
4993.00,0.80
4992.00,0.80
4991.00,0.80
4990.00,0.81
4989.00,0.81
4988.00,0.81
4987.00,0.81
4986.00,0.81
4985.00,0.81
4984.00,0.82
4983.00,0.82
4982.00,0.82
4981.00,0.82
4980.00,0.82
4979.00,0.82
4978.00,0.82
4977.00,0.82
4976.00,0.82
4975.00,0.82
4974.00,0.82
4973.00,0.82
4972.00,0.82
4971.00,0.82
4970.00,0.82
4969.00,0.82
4968.00,0.82
4967.00,0.82
4966.00,0.82
4965.00,0.82
4964.00,0.82
4963.00,0.82
4962.00,0.82
4961.00,0.82
4960.00,0.82
4959.00,0.82
4958.00,0.82
4957.00,0.82
4956.00,0.82
4955.00,0.82
4954.00,0.83
4953.00,0.83
4952.00,0.83
4951.00,0.83
4950.00,0.83
4949.00,0.83
4948.00,0.83
4947.00,0.83
4946.00,0.83
4945.00,0.83
4944.00,0.84
4943.00,0.84
4942.00,0.84
4941.00,0.84
4940.00,0.84
4939.00,0.84
4938.00,0.84
4937.00,0.84
4936.00,0.84
4935.00,0.84
4934.00,0.84
4933.00,0.85
4932.00,0.85
4931.00,0.85
4930.00,0.85
4929.00,0.85
4928.00,0.85
4927.00,0.85
4926.00,0.85
4925.00,0.85
4924.00,0.86
4923.00,0.86
4922.00,0.86
4921.00,0.86
4920.00,0.86
4919.00,0.86
4918.00,0.86
4917.00,0.86
4916.00,0.86
4915.00,0.86
4914.00,0.86
4913.00,0.86
4912.00,0.86
4911.00,0.86
4910.00,0.86
4909.00,0.86
4908.00,0.86
4907.00,0.86
4906.00,0.86
4905.00,0.86
4904.00,0.86
4903.00,0.86
4902.00,0.86
4901.00,0.86
4900.00,0.87
4899.00,0.87
4898.00,0.87
4897.00,0.87
4896.00,0.87
4895.00,0.87
4894.00,0.87
4893.00,0.87
4892.00,0.87
4891.00,0.87
4890.00,0.88
4889.00,0.88
4888.00,0.88
4887.00,0.88
4886.00,0.88
4885.00,0.88
4884.00,0.88
4883.00,0.88
4882.00,0.88
4881.00,0.88
4880.00,0.88
4879.00,0.88
4878.00,0.88
4877.00,0.88
4876.00,0.89
4875.00,0.89
4874.00,0.89
4873.00,0.89
4872.00,0.89
4871.00,0.89
4870.00,0.89
4869.00,0.89
4868.00,0.89
4867.00,0.89
4866.00,0.89
4865.00,0.90
4864.00,0.90
4863.00,0.90
4862.00,0.90
4861.00,0.90
4860.00,0.90
4859.00,0.90
4858.00,0.90
4857.00,0.90
4856.00,0.90
4855.00,0.90
4854.00,0.90
4853.00,0.90
4852.00,0.90
4851.00,0.90
4850.00,0.90
4849.00,0.90
4848.00,0.90
4847.00,0.90
4846.00,0.90
4845.00,0.91
4844.00,0.91
4843.00,0.91
4842.00,0.91
4841.00,0.91
4840.00,0.91
4839.00,0.91
4838.00,0.91
4837.00,0.91
4836.00,0.91
4835.00,0.91
4834.00,0.91
4833.00,0.91
4832.00,0.91
4831.00,0.91
4830.00,0.91
4829.00,0.91
4828.00,0.91
4827.00,0.91
4826.00,0.91
4825.00,0.91
4824.00,0.92
4823.00,0.92
4822.00,0.92
4821.00,0.92
4820.00,0.92
4819.00,0.92
4818.00,0.92
4817.00,0.92
4816.00,0.92
4815.00,0.93
4814.00,0.93
4813.00,0.93
4812.00,0.93
4811.00,0.93
4810.00,0.93
4809.00,0.94
4808.00,0.94
4807.00,0.94
4806.00,0.94
4805.00,0.94
4804.00,0.94
4803.00,0.94
4802.00,0.94
4801.00,0.94
4800.00,0.95
4799.00,0.95
4798.00,0.95
4797.00,0.95
4796.00,0.95
4795.00,0.95
4794.00,0.95
4793.00,0.95
4792.00,0.95
4791.00,0.95
4790.00,0.95
4789.00,0.95
4788.00,0.95
4787.00,0.96
4786.00,0.96
4785.00,0.96
4784.00,0.96
4783.00,0.96
4782.00,0.96
4781.00,0.96
4780.00,0.97
4779.00,0.97
4778.00,0.97
4777.00,0.97
4776.00,0.97
4775.00,0.98
4774.00,0.98
4773.00,0.98
4772.00,0.98
4771.00,0.99
4770.00,0.99
4769.00,0.99
4768.00,0.99
4767.00,0.99
4766.00,1.00
4765.00,1.00
4764.00,1.00
4763.00,1.00
4762.00,1.00
4761.00,1.00
4760.00,1.00
4759.00,1.00
4758.00,1.00
4757.00,1.00
4756.00,1.00
4755.00,1.00
4754.00,1.00
4753.00,1.00
4752.00,1.00
4751.00,1.01
4750.00,1.01
4749.00,1.01
4748.00,1.01
4747.00,1.01
4746.00,1.01
4745.00,1.01
4744.00,1.01
4743.00,1.02
4742.00,1.02
4741.00,1.02
4740.00,1.02
4739.00,1.02
4738.00,1.03
4737.00,1.03
4736.00,1.03
4735.00,1.03
4734.00,1.03
4733.00,1.04
4732.00,1.04
4731.00,1.04
4730.00,1.04
4729.00,1.04
4728.00,1.05
4727.00,1.05
4726.00,1.05
4725.00,1.05
4724.00,1.05
4723.00,1.06
4722.00,1.06
4721.00,1.06
4720.00,1.06
4719.00,1.06
4718.00,1.07
4717.00,1.07
4716.00,1.07
4715.00,1.07
4714.00,1.07
4713.00,1.08
4712.00,1.08
4711.00,1.08
4710.00,1.08
4709.00,1.09
4708.00,1.09
4707.00,1.09
4706.00,1.09
4705.00,1.09
4704.00,1.10
4703.00,1.10
4702.00,1.10
4701.00,1.10
4700.00,1.10
4699.00,1.11
4698.00,1.11
4697.00,1.11
4696.00,1.11
4695.00,1.11
4694.00,1.11
4693.00,1.11
4692.00,1.12
4691.00,1.12
4690.00,1.12
4689.00,1.12
4688.00,1.12
4687.00,1.12
4686.00,1.12
4685.00,1.12
4684.00,1.12
4683.00,1.12
4682.00,1.13
4681.00,1.13
4680.00,1.13
4679.00,1.13
4678.00,1.13
4677.00,1.13
4676.00,1.13
4675.00,1.13
4674.00,1.13
4673.00,1.13
4672.00,1.13
4671.00,1.13
4670.00,1.13
4669.00,1.13
4668.00,1.14
4667.00,1.14
4666.00,1.14
4665.00,1.14
4664.00,1.14
4663.00,1.14
4662.00,1.14
4661.00,1.14
4660.00,1.15
4659.00,1.15
4658.00,1.15
4657.00,1.15
4656.00,1.16
4655.00,1.16
4654.00,1.16
4653.00,1.17
4652.00,1.17
4651.00,1.17
4650.00,1.17
4649.00,1.17
4648.00,1.18
4647.00,1.18
4646.00,1.18
4645.00,1.18
4644.00,1.18
4643.00,1.18
4642.00,1.18
4641.00,1.18
4640.00,1.18
4639.00,1.18
4638.00,1.19
4637.00,1.19
4636.00,1.19
4635.00,1.19
4634.00,1.19
4633.00,1.19
4632.00,1.19
4631.00,1.19
4630.00,1.20
4629.00,1.20
4628.00,1.20
4627.00,1.20
4626.00,1.20
4625.00,1.20
4624.00,1.20
4623.00,1.20
4622.00,1.20
4621.00,1.20
4620.00,1.20
4619.00,1.20
4618.00,1.20
4617.00,1.20
4616.00,1.20
4615.00,1.20
4614.00,1.20
4613.00,1.20
4612.00,1.20
4611.00,1.20
4610.00,1.20
4609.00,1.21
4608.00,1.21
4607.00,1.21
4606.00,1.21
4605.00,1.21
4604.00,1.21
4603.00,1.21
4602.00,1.22
4601.00,1.22
4600.00,1.22
4599.00,1.22
4598.00,1.22
4597.00,1.23
4596.00,1.23
4595.00,1.23
4594.00,1.23
4593.00,1.23
4592.00,1.24
4591.00,1.24
4590.00,1.24
4589.00,1.24
4588.00,1.24
4587.00,1.25
4586.00,1.25
4585.00,1.25
4584.00,1.25
4583.00,1.25
4582.00,1.25
4581.00,1.25
4580.00,1.25
4579.00,1.25
4578.00,1.25
4577.00,1.25
4576.00,1.25
4575.00,1.25
4574.00,1.25
4573.00,1.25
4572.00,1.25
4571.00,1.25
4570.00,1.25
4569.00,1.25
4568.00,1.25
4567.00,1.25
4566.00,1.25
4565.00,1.25
4564.00,1.26
4563.00,1.26
4562.00,1.26
4561.00,1.26
4560.00,1.26
4559.00,1.26
4558.00,1.26
4557.00,1.26
4556.00,1.26
4555.00,1.26
4554.00,1.26
4553.00,1.26
4552.00,1.26
4551.00,1.27
4550.00,1.27
4549.00,1.27
4548.00,1.27
4547.00,1.27
4546.00,1.27
4545.00,1.27
4544.00,1.27
4543.00,1.27
4542.00,1.28
4541.00,1.28
4540.00,1.28
4539.00,1.28
4538.00,1.28
4537.00,1.28
4536.00,1.28
4535.00,1.28
4534.00,1.28
4533.00,1.28
4532.00,1.28
4531.00,1.28
4530.00,1.28
4529.00,1.28
4528.00,1.28
4527.00,1.28
4526.00,1.28
4525.00,1.28
4524.00,1.28
4523.00,1.28
4522.00,1.28
4521.00,1.28
4520.00,1.28
4519.00,1.28
4518.00,1.28
4517.00,1.28
4516.00,1.28
4515.00,1.28
4514.00,1.28
4513.00,1.29
4512.00,1.29
4511.00,1.29
4510.00,1.29
4509.00,1.29
4508.00,1.29
4507.00,1.29
4506.00,1.29
4505.00,1.29
4504.00,1.29
4503.00,1.29
4502.00,1.29
4501.00,1.29
4500.00,1.29
4499.00,1.29
4498.00,1.29
4497.00,1.29
4496.00,1.29
4495.00,1.29
4494.00,1.28
4493.00,1.28
4492.00,1.28
4491.00,1.28
4490.00,1.28
4489.00,1.28
4488.00,1.28
4487.00,1.28
4486.00,1.28
4485.00,1.28
4484.00,1.27
4483.00,1.27
4482.00,1.27
4481.00,1.27
4480.00,1.27
4479.00,1.27
4478.00,1.27
4477.00,1.27
4476.00,1.27
4475.00,1.27
4474.00,1.26
4473.00,1.26
4472.00,1.26
4471.00,1.26
4470.00,1.26
4469.00,1.26
4468.00,1.25
4467.00,1.25
4466.00,1.25
4465.00,1.25
4464.00,1.24
4463.00,1.24
4462.00,1.24
4461.00,1.23
4460.00,1.23
4459.00,1.22
4458.00,1.22
4457.00,1.22
4456.00,1.21
4455.00,1.21
4454.00,1.20
4453.00,1.20
4452.00,1.19
4451.00,1.19
4450.00,1.19
4449.00,1.18
4448.00,1.18
4447.00,1.17
4446.00,1.17
4445.00,1.16
4444.00,1.16
4443.00,1.16
4442.00,1.15
4441.00,1.15
4440.00,1.14
4439.00,1.14
4438.00,1.14
4437.00,1.13
4436.00,1.13
4435.00,1.12
4434.00,1.12
4433.00,1.12
4432.00,1.11
4431.00,1.11
4430.00,1.10
4429.00,1.10
4428.00,1.10
4427.00,1.09
4426.00,1.09
4425.00,1.09
4424.00,1.09
4423.00,1.08
4422.00,1.08
4421.00,1.08
4420.00,1.08
4419.00,1.08
4418.00,1.08
4417.00,1.08
4416.00,1.08
4415.00,1.08
4414.00,1.08
4413.00,1.08
4412.00,1.08
4411.00,1.08
4410.00,1.08
4409.00,1.09
4408.00,1.09
4407.00,1.09
4406.00,1.09
4405.00,1.09
4404.00,1.09
4403.00,1.09
4402.00,1.09
4401.00,1.09
4400.00,1.09
4399.00,1.09
4398.00,1.09
4397.00,1.09
4396.00,1.09
4395.00,1.09
4394.00,1.09
4393.00,1.09
4392.00,1.10
4391.00,1.10
4390.00,1.10
4389.00,1.10
4388.00,1.10
4387.00,1.10
4386.00,1.10
4385.00,1.11
4384.00,1.11
4383.00,1.11
4382.00,1.11
4381.00,1.11
4380.00,1.11
4379.00,1.11
4378.00,1.11
4377.00,1.11
4376.00,1.12
4375.00,1.12
4374.00,1.12
4373.00,1.12
4372.00,1.12
4371.00,1.12
4370.00,1.12
4369.00,1.12
4368.00,1.12
4367.00,1.12
4366.00,1.12
4365.00,1.12
4364.00,1.12
4363.00,1.12
4362.00,1.12
4361.00,1.12
4360.00,1.12
4359.00,1.12
4358.00,1.12
4357.00,1.12
4356.00,1.12
4355.00,1.13
4354.00,1.13
4353.00,1.13
4352.00,1.13
4351.00,1.13
4350.00,1.13
4349.00,1.13
4348.00,1.13
4347.00,1.13
4346.00,1.13
4345.00,1.13
4344.00,1.13
4343.00,1.13
4342.00,1.13
4341.00,1.13
4340.00,1.13
4339.00,1.13
4338.00,1.13
4337.00,1.13
4336.00,1.13
4335.00,1.13
4334.00,1.13
4333.00,1.13
4332.00,1.13
4331.00,1.13
4330.00,1.13
4329.00,1.14
4328.00,1.14
4327.00,1.14
4326.00,1.14
4325.00,1.14
4324.00,1.14
4323.00,1.14
4322.00,1.15
4321.00,1.15
4320.00,1.15
4319.00,1.15
4318.00,1.16
4317.00,1.16
4316.00,1.16
4315.00,1.16
4314.00,1.17
4313.00,1.17
4312.00,1.17
4311.00,1.18
4310.00,1.18
4309.00,1.18
4308.00,1.19
4307.00,1.19
4306.00,1.19
4305.00,1.19
4304.00,1.19
4303.00,1.20
4302.00,1.20
4301.00,1.20
4300.00,1.20
4299.00,1.20
4298.00,1.20
4297.00,1.20
4296.00,1.20
4295.00,1.20
4294.00,1.21
4293.00,1.21
4292.00,1.21
4291.00,1.21
4290.00,1.21
4289.00,1.21
4288.00,1.21
4287.00,1.21
4286.00,1.21
4285.00,1.21
4284.00,1.21
4283.00,1.21
4282.00,1.22
4281.00,1.22
4280.00,1.22
4279.00,1.22
4278.00,1.22
4277.00,1.22
4276.00,1.22
4275.00,1.22
4274.00,1.22
4273.00,1.22
4272.00,1.22
4271.00,1.22
4270.00,1.22
4269.00,1.22
4268.00,1.22
4267.00,1.22
4266.00,1.21
4265.00,1.21
4264.00,1.21
4263.00,1.21
4262.00,1.22
4261.00,1.22
4260.00,1.22
4259.00,1.22
4258.00,1.22
4257.00,1.22
4256.00,1.22
4255.00,1.23
4254.00,1.23
4253.00,1.23
4252.00,1.23
4251.00,1.24
4250.00,1.24
4249.00,1.24
4248.00,1.24
4247.00,1.24
4246.00,1.25
4245.00,1.25
4244.00,1.25
4243.00,1.25
4242.00,1.25
4241.00,1.26
4240.00,1.26
4239.00,1.26
4238.00,1.26
4237.00,1.26
4236.00,1.26
4235.00,1.26
4234.00,1.26
4233.00,1.26
4232.00,1.27
4231.00,1.27
4230.00,1.27
4229.00,1.27
4228.00,1.27
4227.00,1.27
4226.00,1.27
4225.00,1.27
4224.00,1.27
4223.00,1.27
4222.00,1.27
4221.00,1.27
4220.00,1.27
4219.00,1.27
4218.00,1.27
4217.00,1.27
4216.00,1.27
4215.00,1.27
4214.00,1.27
4213.00,1.27
4212.00,1.27
4211.00,1.27
4210.00,1.27
4209.00,1.27
4208.00,1.27
4207.00,1.27
4206.00,1.27
4205.00,1.27
4204.00,1.27
4203.00,1.27
4202.00,1.27
4201.00,1.27
4200.00,1.27
4199.00,1.27
4198.00,1.27
4197.00,1.27
4196.00,1.27
4195.00,1.27
4194.00,1.27
4193.00,1.27
4192.00,1.27
4191.00,1.28
4190.00,1.28
4189.00,1.28
4188.00,1.28
4187.00,1.28
4186.00,1.28
4185.00,1.29
4184.00,1.29
4183.00,1.29
4182.00,1.29
4181.00,1.29
4180.00,1.29
4179.00,1.30
4178.00,1.30
4177.00,1.30
4176.00,1.30
4175.00,1.30
4174.00,1.30
4173.00,1.30
4172.00,1.30
4171.00,1.30
4170.00,1.30
4169.00,1.30
4168.00,1.30
4167.00,1.30
4166.00,1.30
4165.00,1.29
4164.00,1.29
4163.00,1.29
4162.00,1.29
4161.00,1.29
4160.00,1.29
4159.00,1.29
4158.00,1.28
4157.00,1.28
4156.00,1.28
4155.00,1.28
4154.00,1.28
4153.00,1.28
4152.00,1.28
4151.00,1.28
4150.00,1.28
4149.00,1.29
4148.00,1.29
4147.00,1.29
4146.00,1.29
4145.00,1.29
4144.00,1.29
4143.00,1.30
4142.00,1.30
4141.00,1.30
4140.00,1.30
4139.00,1.30
4138.00,1.30
4137.00,1.30
4136.00,1.31
4135.00,1.31
4134.00,1.31
4133.00,1.31
4132.00,1.31
4131.00,1.31
4130.00,1.31
4129.00,1.31
4128.00,1.30
4127.00,1.30
4126.00,1.30
4125.00,1.30
4124.00,1.30
4123.00,1.30
4122.00,1.30
4121.00,1.30
4120.00,1.30
4119.00,1.30
4118.00,1.30
4117.00,1.30
4116.00,1.30
4115.00,1.30
4114.00,1.31
4113.00,1.31
4112.00,1.31
4111.00,1.31
4110.00,1.31
4109.00,1.32
4108.00,1.32
4107.00,1.32
4106.00,1.32
4105.00,1.32
4104.00,1.33
4103.00,1.33
4102.00,1.33
4101.00,1.33
4100.00,1.33
4099.00,1.33
4098.00,1.33
4097.00,1.33
4096.00,1.33
4095.00,1.33
4094.00,1.34
4093.00,1.34
4092.00,1.34
4091.00,1.34
4090.00,1.34
4089.00,1.34
4088.00,1.34
4087.00,1.34
4086.00,1.34
4085.00,1.34
4084.00,1.34
4083.00,1.34
4082.00,1.34
4081.00,1.34
4080.00,1.34
4079.00,1.34
4078.00,1.34
4077.00,1.34
4076.00,1.34
4075.00,1.34
4074.00,1.34
4073.00,1.34
4072.00,1.34
4071.00,1.34
4070.00,1.34
4069.00,1.34
4068.00,1.34
4067.00,1.34
4066.00,1.34
4065.00,1.34
4064.00,1.34
4063.00,1.35
4062.00,1.35
4061.00,1.35
4060.00,1.35
4059.00,1.35
4058.00,1.35
4057.00,1.35
4056.00,1.35
4055.00,1.35
4054.00,1.35
4053.00,1.35
4052.00,1.35
4051.00,1.36
4050.00,1.36
4049.00,1.36
4048.00,1.36
4047.00,1.36
4046.00,1.36
4045.00,1.36
4044.00,1.36
4043.00,1.36
4042.00,1.36
4041.00,1.36
4040.00,1.36
4039.00,1.36
4038.00,1.36
4037.00,1.36
4036.00,1.36
4035.00,1.37
4034.00,1.37
4033.00,1.37
4032.00,1.37
4031.00,1.37
4030.00,1.37
4029.00,1.37
4028.00,1.37
4027.00,1.38
4026.00,1.38
4025.00,1.38
4024.00,1.38
4023.00,1.38
4022.00,1.38
4021.00,1.38
4020.00,1.38
4019.00,1.38
4018.00,1.38
4017.00,1.38
4016.00,1.38
4015.00,1.38
4014.00,1.38
4013.00,1.38
4012.00,1.38
4011.00,1.38
4010.00,1.38
4009.00,1.38
4008.00,1.38
4007.00,1.39
4006.00,1.39
4005.00,1.39
4004.00,1.40
4003.00,1.40
4002.00,1.41
4001.00,1.41
4000.00,1.42
