创建为新数据集,样品 315 用户 Administrator 日期 星期四, 三月 08 2018
cm-1,%T
10000.00,1.28
9999.00,1.28
9998.00,1.29
9997.00,1.29
9996.00,1.29
9995.00,1.29
9994.00,1.29
9993.00,1.29
9992.00,1.29
9991.00,1.29
9990.00,1.29
9989.00,1.29
9988.00,1.28
9987.00,1.28
9986.00,1.28
9985.00,1.28
9984.00,1.28
9983.00,1.28
9982.00,1.28
9981.00,1.28
9980.00,1.28
9979.00,1.28
9978.00,1.27
9977.00,1.27
9976.00,1.27
9975.00,1.27
9974.00,1.27
9973.00,1.27
9972.00,1.27
9971.00,1.27
9970.00,1.27
9969.00,1.27
9968.00,1.27
9967.00,1.27
9966.00,1.27
9965.00,1.27
9964.00,1.27
9963.00,1.28
9962.00,1.28
9961.00,1.28
9960.00,1.28
9959.00,1.28
9958.00,1.28
9957.00,1.28
9956.00,1.28
9955.00,1.28
9954.00,1.28
9953.00,1.27
9952.00,1.27
9951.00,1.27
9950.00,1.26
9949.00,1.26
9948.00,1.25
9947.00,1.25
9946.00,1.24
9945.00,1.23
9944.00,1.23
9943.00,1.22
9942.00,1.22
9941.00,1.21
9940.00,1.20
9939.00,1.20
9938.00,1.20
9937.00,1.19
9936.00,1.19
9935.00,1.19
9934.00,1.19
9933.00,1.19
9932.00,1.19
9931.00,1.19
9930.00,1.19
9929.00,1.19
9928.00,1.19
9927.00,1.19
9926.00,1.20
9925.00,1.20
9924.00,1.20
9923.00,1.20
9922.00,1.20
9921.00,1.20
9920.00,1.21
9919.00,1.21
9918.00,1.21
9917.00,1.22
9916.00,1.22
9915.00,1.23
9914.00,1.23
9913.00,1.24
9912.00,1.24
9911.00,1.25
9910.00,1.25
9909.00,1.26
9908.00,1.26
9907.00,1.27
9906.00,1.27
9905.00,1.27
9904.00,1.28
9903.00,1.28
9902.00,1.28
9901.00,1.28
9900.00,1.28
9899.00,1.28
9898.00,1.28
9897.00,1.28
9896.00,1.28
9895.00,1.28
9894.00,1.27
9893.00,1.27
9892.00,1.27
9891.00,1.26
9890.00,1.26
9889.00,1.26
9888.00,1.26
9887.00,1.25
9886.00,1.25
9885.00,1.25
9884.00,1.25
9883.00,1.25
9882.00,1.24
9881.00,1.24
9880.00,1.24
9879.00,1.24
9878.00,1.24
9877.00,1.24
9876.00,1.24
9875.00,1.24
9874.00,1.24
9873.00,1.24
9872.00,1.24
9871.00,1.24
9870.00,1.24
9869.00,1.24
9868.00,1.24
9867.00,1.24
9866.00,1.24
9865.00,1.24
9864.00,1.24
9863.00,1.24
9862.00,1.25
9861.00,1.25
9860.00,1.25
9859.00,1.25
9858.00,1.25
9857.00,1.25
9856.00,1.25
9855.00,1.25
9854.00,1.26
9853.00,1.26
9852.00,1.26
9851.00,1.26
9850.00,1.26
9849.00,1.27
9848.00,1.27
9847.00,1.27
9846.00,1.27
9845.00,1.27
9844.00,1.28
9843.00,1.28
9842.00,1.28
9841.00,1.28
9840.00,1.28
9839.00,1.28
9838.00,1.28
9837.00,1.28
9836.00,1.28
9835.00,1.27
9834.00,1.27
9833.00,1.27
9832.00,1.27
9831.00,1.26
9830.00,1.26
9829.00,1.26
9828.00,1.26
9827.00,1.25
9826.00,1.25
9825.00,1.25
9824.00,1.25
9823.00,1.24
9822.00,1.24
9821.00,1.24
9820.00,1.24
9819.00,1.24
9818.00,1.24
9817.00,1.24
9816.00,1.24
9815.00,1.24
9814.00,1.24
9813.00,1.24
9812.00,1.24
9811.00,1.24
9810.00,1.24
9809.00,1.24
9808.00,1.25
9807.00,1.25
9806.00,1.25
9805.00,1.25
9804.00,1.25
9803.00,1.26
9802.00,1.26
9801.00,1.26
9800.00,1.26
9799.00,1.25
9798.00,1.25
9797.00,1.25
9796.00,1.25
9795.00,1.25
9794.00,1.25
9793.00,1.25
9792.00,1.24
9791.00,1.24
9790.00,1.24
9789.00,1.24
9788.00,1.24
9787.00,1.24
9786.00,1.24
9785.00,1.24
9784.00,1.24
9783.00,1.24
9782.00,1.25
9781.00,1.25
9780.00,1.25
9779.00,1.25
9778.00,1.25
9777.00,1.25
9776.00,1.26
9775.00,1.26
9774.00,1.26
9773.00,1.26
9772.00,1.26
9771.00,1.26
9770.00,1.26
9769.00,1.27
9768.00,1.27
9767.00,1.27
9766.00,1.27
9765.00,1.27
9764.00,1.27
9763.00,1.27
9762.00,1.27
9761.00,1.27
9760.00,1.27
9759.00,1.27
9758.00,1.27
9757.00,1.27
9756.00,1.28
9755.00,1.28
9754.00,1.28
9753.00,1.28
9752.00,1.28
9751.00,1.28
9750.00,1.28
9749.00,1.28
9748.00,1.28
9747.00,1.28
9746.00,1.28
9745.00,1.28
9744.00,1.28
9743.00,1.27
9742.00,1.27
9741.00,1.27
9740.00,1.27
9739.00,1.26
9738.00,1.26
9737.00,1.26
9736.00,1.25
9735.00,1.25
9734.00,1.25
9733.00,1.25
9732.00,1.25
9731.00,1.24
9730.00,1.24
9729.00,1.24
9728.00,1.24
9727.00,1.24
9726.00,1.24
9725.00,1.24
9724.00,1.25
9723.00,1.25
9722.00,1.25
9721.00,1.25
9720.00,1.25
9719.00,1.25
9718.00,1.25
9717.00,1.25
9716.00,1.25
9715.00,1.25
9714.00,1.25
9713.00,1.25
9712.00,1.25
9711.00,1.25
9710.00,1.25
9709.00,1.25
9708.00,1.25
9707.00,1.25
9706.00,1.25
9705.00,1.25
9704.00,1.25
9703.00,1.25
9702.00,1.24
9701.00,1.24
9700.00,1.24
9699.00,1.24
9698.00,1.24
9697.00,1.24
9696.00,1.24
9695.00,1.24
9694.00,1.24
9693.00,1.24
9692.00,1.24
9691.00,1.24
9690.00,1.24
9689.00,1.24
9688.00,1.24
9687.00,1.25
9686.00,1.25
9685.00,1.25
9684.00,1.25
9683.00,1.25
9682.00,1.25
9681.00,1.25
9680.00,1.25
9679.00,1.25
9678.00,1.25
9677.00,1.25
9676.00,1.25
9675.00,1.25
9674.00,1.25
9673.00,1.25
9672.00,1.25
9671.00,1.24
9670.00,1.24
9669.00,1.24
9668.00,1.24
9667.00,1.24
9666.00,1.24
9665.00,1.23
9664.00,1.23
9663.00,1.23
9662.00,1.23
9661.00,1.23
9660.00,1.23
9659.00,1.23
9658.00,1.23
9657.00,1.23
9656.00,1.23
9655.00,1.23
9654.00,1.24
9653.00,1.24
9652.00,1.24
9651.00,1.24
9650.00,1.24
9649.00,1.24
9648.00,1.24
9647.00,1.24
9646.00,1.24
9645.00,1.24
9644.00,1.24
9643.00,1.24
9642.00,1.24
9641.00,1.24
9640.00,1.24
9639.00,1.24
9638.00,1.24
9637.00,1.24
9636.00,1.24
9635.00,1.24
9634.00,1.24
9633.00,1.24
9632.00,1.25
9631.00,1.25
9630.00,1.25
9629.00,1.25
9628.00,1.25
9627.00,1.25
9626.00,1.25
9625.00,1.25
9624.00,1.25
9623.00,1.26
9622.00,1.26
9621.00,1.26
9620.00,1.26
9619.00,1.26
9618.00,1.26
9617.00,1.26
9616.00,1.26
9615.00,1.26
9614.00,1.26
9613.00,1.26
9612.00,1.26
9611.00,1.26
9610.00,1.26
9609.00,1.26
9608.00,1.26
9607.00,1.26
9606.00,1.26
9605.00,1.26
9604.00,1.27
9603.00,1.27
9602.00,1.27
9601.00,1.27
9600.00,1.27
9599.00,1.27
9598.00,1.27
9597.00,1.27
9596.00,1.28
9595.00,1.28
9594.00,1.28
9593.00,1.28
9592.00,1.28
9591.00,1.28
9590.00,1.28
9589.00,1.28
9588.00,1.28
9587.00,1.27
9586.00,1.27
9585.00,1.27
9584.00,1.27
9583.00,1.27
9582.00,1.27
9581.00,1.26
9580.00,1.26
9579.00,1.26
9578.00,1.26
9577.00,1.26
9576.00,1.26
9575.00,1.26
9574.00,1.25
9573.00,1.25
9572.00,1.25
9571.00,1.25
9570.00,1.25
9569.00,1.25
9568.00,1.25
9567.00,1.25
9566.00,1.25
9565.00,1.25
9564.00,1.25
9563.00,1.25
9562.00,1.25
9561.00,1.25
9560.00,1.25
9559.00,1.24
9558.00,1.24
9557.00,1.24
9556.00,1.24
9555.00,1.24
9554.00,1.23
9553.00,1.23
9552.00,1.23
9551.00,1.23
9550.00,1.23
9549.00,1.23
9548.00,1.23
9547.00,1.23
9546.00,1.23
9545.00,1.23
9544.00,1.24
9543.00,1.24
9542.00,1.24
9541.00,1.24
9540.00,1.24
9539.00,1.24
9538.00,1.24
9537.00,1.25
9536.00,1.25
9535.00,1.25
9534.00,1.25
9533.00,1.25
9532.00,1.25
9531.00,1.25
9530.00,1.25
9529.00,1.25
9528.00,1.25
9527.00,1.25
9526.00,1.25
9525.00,1.25
9524.00,1.25
9523.00,1.26
9522.00,1.26
9521.00,1.26
9520.00,1.26
9519.00,1.26
9518.00,1.26
9517.00,1.26
9516.00,1.26
9515.00,1.26
9514.00,1.26
9513.00,1.26
9512.00,1.26
9511.00,1.26
9510.00,1.26
9509.00,1.26
9508.00,1.27
9507.00,1.27
9506.00,1.27
9505.00,1.27
9504.00,1.27
9503.00,1.27
9502.00,1.27
9501.00,1.27
9500.00,1.27
9499.00,1.27
9498.00,1.27
9497.00,1.27
9496.00,1.27
9495.00,1.27
9494.00,1.26
9493.00,1.26
9492.00,1.26
9491.00,1.26
9490.00,1.25
9489.00,1.25
9488.00,1.25
9487.00,1.24
9486.00,1.24
9485.00,1.24
9484.00,1.24
9483.00,1.24
9482.00,1.24
9481.00,1.24
9480.00,1.24
9479.00,1.24
9478.00,1.24
9477.00,1.24
9476.00,1.24
9475.00,1.25
9474.00,1.25
9473.00,1.25
9472.00,1.25
9471.00,1.25
9470.00,1.25
9469.00,1.26
9468.00,1.26
9467.00,1.26
9466.00,1.26
9465.00,1.26
9464.00,1.26
9463.00,1.25
9462.00,1.25
9461.00,1.25
9460.00,1.25
9459.00,1.25
9458.00,1.24
9457.00,1.24
9456.00,1.24
9455.00,1.24
9454.00,1.24
9453.00,1.23
9452.00,1.23
9451.00,1.23
9450.00,1.23
9449.00,1.23
9448.00,1.23
9447.00,1.23
9446.00,1.23
9445.00,1.23
9444.00,1.23
9443.00,1.23
9442.00,1.24
9441.00,1.24
9440.00,1.24
9439.00,1.24
9438.00,1.24
9437.00,1.24
9436.00,1.24
9435.00,1.24
9434.00,1.25
9433.00,1.25
9432.00,1.25
9431.00,1.25
9430.00,1.25
9429.00,1.26
9428.00,1.26
9427.00,1.26
9426.00,1.26
9425.00,1.27
9424.00,1.27
9423.00,1.27
9422.00,1.27
9421.00,1.28
9420.00,1.28
9419.00,1.28
9418.00,1.28
9417.00,1.28
9416.00,1.28
9415.00,1.28
9414.00,1.28
9413.00,1.28
9412.00,1.28
9411.00,1.28
9410.00,1.28
9409.00,1.28
9408.00,1.27
9407.00,1.27
9406.00,1.27
9405.00,1.27
9404.00,1.27
9403.00,1.26
9402.00,1.26
9401.00,1.26
9400.00,1.26
9399.00,1.26
9398.00,1.26
9397.00,1.26
9396.00,1.26
9395.00,1.26
9394.00,1.26
9393.00,1.26
9392.00,1.26
9391.00,1.26
9390.00,1.26
9389.00,1.26
9388.00,1.26
9387.00,1.26
9386.00,1.26
9385.00,1.26
9384.00,1.26
9383.00,1.26
9382.00,1.26
9381.00,1.25
9380.00,1.25
9379.00,1.25
9378.00,1.25
9377.00,1.25
9376.00,1.25
9375.00,1.25
9374.00,1.25
9373.00,1.25
9372.00,1.25
9371.00,1.25
9370.00,1.25
9369.00,1.25
9368.00,1.25
9367.00,1.25
9366.00,1.25
9365.00,1.26
9364.00,1.26
9363.00,1.26
9362.00,1.26
9361.00,1.26
9360.00,1.27
9359.00,1.27
9358.00,1.27
9357.00,1.27
9356.00,1.27
9355.00,1.27
9354.00,1.27
9353.00,1.27
9352.00,1.27
9351.00,1.27
9350.00,1.27
9349.00,1.27
9348.00,1.27
9347.00,1.27
9346.00,1.27
9345.00,1.27
9344.00,1.27
9343.00,1.27
9342.00,1.27
9341.00,1.27
9340.00,1.27
9339.00,1.27
9338.00,1.27
9337.00,1.27
9336.00,1.27
9335.00,1.27
9334.00,1.27
9333.00,1.27
9332.00,1.27
9331.00,1.27
9330.00,1.27
9329.00,1.27
9328.00,1.27
9327.00,1.27
9326.00,1.27
9325.00,1.27
9324.00,1.27
9323.00,1.27
9322.00,1.27
9321.00,1.27
9320.00,1.27
9319.00,1.27
9318.00,1.27
9317.00,1.27
9316.00,1.27
9315.00,1.27
9314.00,1.27
9313.00,1.27
9312.00,1.28
9311.00,1.28
9310.00,1.28
9309.00,1.28
9308.00,1.28
9307.00,1.28
9306.00,1.27
9305.00,1.27
9304.00,1.27
9303.00,1.27
9302.00,1.27
9301.00,1.27
9300.00,1.27
9299.00,1.27
9298.00,1.27
9297.00,1.27
9296.00,1.27
9295.00,1.27
9294.00,1.27
9293.00,1.27
9292.00,1.27
9291.00,1.27
9290.00,1.27
9289.00,1.27
9288.00,1.28
9287.00,1.28
9286.00,1.28
9285.00,1.28
9284.00,1.28
9283.00,1.28
9282.00,1.28
9281.00,1.28
9280.00,1.28
9279.00,1.27
9278.00,1.27
9277.00,1.27
9276.00,1.27
9275.00,1.27
9274.00,1.27
9273.00,1.27
9272.00,1.27
9271.00,1.27
9270.00,1.26
9269.00,1.26
9268.00,1.26
9267.00,1.26
9266.00,1.26
9265.00,1.26
9264.00,1.26
9263.00,1.26
9262.00,1.26
9261.00,1.26
9260.00,1.26
9259.00,1.26
9258.00,1.26
9257.00,1.26
9256.00,1.26
9255.00,1.26
9254.00,1.27
9253.00,1.27
9252.00,1.27
9251.00,1.27
9250.00,1.27
9249.00,1.27
9248.00,1.27
9247.00,1.27
9246.00,1.27
9245.00,1.27
9244.00,1.27
9243.00,1.27
9242.00,1.27
9241.00,1.27
9240.00,1.27
9239.00,1.27
9238.00,1.27
9237.00,1.27
9236.00,1.26
9235.00,1.26
9234.00,1.26
9233.00,1.26
9232.00,1.26
9231.00,1.26
9230.00,1.27
9229.00,1.27
9228.00,1.27
9227.00,1.27
9226.00,1.27
9225.00,1.27
9224.00,1.27
9223.00,1.27
9222.00,1.27
9221.00,1.27
9220.00,1.27
9219.00,1.27
9218.00,1.27
9217.00,1.27
9216.00,1.27
9215.00,1.27
9214.00,1.27
9213.00,1.27
9212.00,1.27
9211.00,1.27
9210.00,1.27
9209.00,1.27
9208.00,1.27
9207.00,1.27
9206.00,1.27
9205.00,1.27
9204.00,1.27
9203.00,1.27
9202.00,1.27
9201.00,1.27
9200.00,1.27
9199.00,1.27
9198.00,1.27
9197.00,1.27
9196.00,1.26
9195.00,1.26
9194.00,1.26
9193.00,1.26
9192.00,1.26
9191.00,1.26
9190.00,1.26
9189.00,1.26
9188.00,1.25
9187.00,1.25
9186.00,1.25
9185.00,1.25
9184.00,1.25
9183.00,1.25
9182.00,1.25
9181.00,1.25
9180.00,1.25
9179.00,1.25
9178.00,1.25
9177.00,1.25
9176.00,1.25
9175.00,1.25
9174.00,1.25
9173.00,1.25
9172.00,1.26
9171.00,1.26
9170.00,1.26
9169.00,1.26
9168.00,1.26
9167.00,1.27
9166.00,1.27
9165.00,1.27
9164.00,1.27
9163.00,1.27
9162.00,1.27
9161.00,1.27
9160.00,1.27
9159.00,1.27
9158.00,1.27
9157.00,1.27
9156.00,1.26
9155.00,1.26
9154.00,1.26
9153.00,1.26
9152.00,1.26
9151.00,1.26
9150.00,1.26
9149.00,1.25
9148.00,1.25
9147.00,1.25
9146.00,1.25
9145.00,1.25
9144.00,1.25
9143.00,1.25
9142.00,1.25
9141.00,1.25
9140.00,1.25
9139.00,1.25
9138.00,1.25
9137.00,1.25
9136.00,1.26
9135.00,1.26
9134.00,1.26
9133.00,1.26
9132.00,1.26
9131.00,1.26
9130.00,1.26
9129.00,1.26
9128.00,1.27
9127.00,1.27
9126.00,1.27
9125.00,1.27
9124.00,1.27
9123.00,1.27
9122.00,1.27
9121.00,1.27
9120.00,1.27
9119.00,1.27
9118.00,1.27
9117.00,1.27
9116.00,1.27
9115.00,1.27
9114.00,1.26
9113.00,1.26
9112.00,1.26
9111.00,1.26
9110.00,1.26
9109.00,1.26
9108.00,1.26
9107.00,1.26
9106.00,1.25
9105.00,1.25
9104.00,1.25
9103.00,1.25
9102.00,1.25
9101.00,1.25
9100.00,1.25
9099.00,1.25
9098.00,1.25
9097.00,1.25
9096.00,1.25
9095.00,1.25
9094.00,1.25
9093.00,1.25
9092.00,1.25
9091.00,1.25
9090.00,1.25
9089.00,1.26
9088.00,1.26
9087.00,1.26
9086.00,1.26
9085.00,1.26
9084.00,1.26
9083.00,1.26
9082.00,1.26
9081.00,1.27
9080.00,1.27
9079.00,1.27
9078.00,1.27
9077.00,1.27
9076.00,1.26
9075.00,1.26
9074.00,1.26
9073.00,1.26
9072.00,1.26
9071.00,1.26
9070.00,1.26
9069.00,1.26
9068.00,1.26
9067.00,1.26
9066.00,1.25
9065.00,1.25
9064.00,1.26
9063.00,1.26
9062.00,1.26
9061.00,1.26
9060.00,1.26
9059.00,1.26
9058.00,1.26
9057.00,1.27
9056.00,1.27
9055.00,1.27
9054.00,1.27
9053.00,1.27
9052.00,1.27
9051.00,1.28
9050.00,1.28
9049.00,1.28
9048.00,1.28
9047.00,1.28
9046.00,1.28
9045.00,1.28
9044.00,1.28
9043.00,1.28
9042.00,1.28
9041.00,1.28
9040.00,1.27
9039.00,1.27
9038.00,1.27
9037.00,1.27
9036.00,1.27
9035.00,1.27
9034.00,1.27
9033.00,1.27
9032.00,1.27
9031.00,1.27
9030.00,1.27
9029.00,1.27
9028.00,1.27
9027.00,1.27
9026.00,1.27
9025.00,1.27
9024.00,1.27
9023.00,1.26
9022.00,1.26
9021.00,1.26
9020.00,1.26
9019.00,1.26
9018.00,1.26
9017.00,1.26
9016.00,1.26
9015.00,1.26
9014.00,1.26
9013.00,1.26
9012.00,1.26
9011.00,1.26
9010.00,1.26
9009.00,1.26
9008.00,1.26
9007.00,1.25
9006.00,1.25
9005.00,1.25
9004.00,1.25
9003.00,1.25
9002.00,1.25
9001.00,1.25
9000.00,1.25
8999.00,1.25
8998.00,1.25
8997.00,1.25
8996.00,1.25
8995.00,1.25
8994.00,1.25
8993.00,1.25
8992.00,1.26
8991.00,1.26
8990.00,1.26
8989.00,1.26
8988.00,1.26
8987.00,1.26
8986.00,1.27
8985.00,1.27
8984.00,1.27
8983.00,1.27
8982.00,1.27
8981.00,1.28
8980.00,1.28
8979.00,1.28
8978.00,1.28
8977.00,1.28
8976.00,1.28
8975.00,1.28
8974.00,1.28
8973.00,1.29
8972.00,1.29
8971.00,1.29
8970.00,1.29
8969.00,1.29
8968.00,1.29
8967.00,1.28
8966.00,1.28
8965.00,1.28
8964.00,1.28
8963.00,1.28
8962.00,1.28
8961.00,1.28
8960.00,1.28
8959.00,1.28
8958.00,1.28
8957.00,1.27
8956.00,1.27
8955.00,1.27
8954.00,1.27
8953.00,1.27
8952.00,1.27
8951.00,1.27
8950.00,1.27
8949.00,1.27
8948.00,1.27
8947.00,1.27
8946.00,1.27
8945.00,1.27
8944.00,1.27
8943.00,1.27
8942.00,1.27
8941.00,1.27
8940.00,1.27
8939.00,1.27
8938.00,1.27
8937.00,1.27
8936.00,1.27
8935.00,1.27
8934.00,1.27
8933.00,1.27
8932.00,1.27
8931.00,1.27
8930.00,1.27
8929.00,1.27
8928.00,1.27
8927.00,1.27
8926.00,1.27
8925.00,1.27
8924.00,1.27
8923.00,1.26
8922.00,1.26
8921.00,1.26
8920.00,1.26
8919.00,1.26
8918.00,1.26
8917.00,1.26
8916.00,1.26
8915.00,1.26
8914.00,1.26
8913.00,1.26
8912.00,1.26
8911.00,1.26
8910.00,1.26
8909.00,1.27
8908.00,1.27
8907.00,1.27
8906.00,1.27
8905.00,1.27
8904.00,1.27
8903.00,1.27
8902.00,1.27
8901.00,1.27
8900.00,1.27
8899.00,1.27
8898.00,1.27
8897.00,1.27
8896.00,1.27
8895.00,1.27
8894.00,1.27
8893.00,1.27
8892.00,1.27
8891.00,1.27
8890.00,1.27
8889.00,1.27
8888.00,1.26
8887.00,1.26
8886.00,1.26
8885.00,1.26
8884.00,1.26
8883.00,1.26
8882.00,1.26
8881.00,1.26
8880.00,1.26
8879.00,1.26
8878.00,1.26
8877.00,1.26
8876.00,1.26
8875.00,1.26
8874.00,1.26
8873.00,1.26
8872.00,1.26
8871.00,1.27
8870.00,1.27
8869.00,1.27
8868.00,1.27
8867.00,1.27
8866.00,1.27
8865.00,1.27
8864.00,1.27
8863.00,1.27
8862.00,1.27
8861.00,1.27
8860.00,1.27
8859.00,1.27
8858.00,1.27
8857.00,1.27
8856.00,1.27
8855.00,1.27
8854.00,1.27
8853.00,1.27
8852.00,1.27
8851.00,1.27
8850.00,1.27
8849.00,1.27
8848.00,1.27
8847.00,1.27
8846.00,1.27
8845.00,1.27
8844.00,1.27
8843.00,1.27
8842.00,1.27
8841.00,1.26
8840.00,1.26
8839.00,1.26
8838.00,1.26
8837.00,1.26
8836.00,1.26
8835.00,1.26
8834.00,1.26
8833.00,1.25
8832.00,1.25
8831.00,1.25
8830.00,1.25
8829.00,1.25
8828.00,1.25
8827.00,1.25
8826.00,1.25
8825.00,1.25
8824.00,1.25
8823.00,1.25
8822.00,1.25
8821.00,1.25
8820.00,1.25
8819.00,1.25
8818.00,1.25
8817.00,1.25
8816.00,1.25
8815.00,1.25
8814.00,1.25
8813.00,1.25
8812.00,1.25
8811.00,1.25
8810.00,1.25
8809.00,1.25
8808.00,1.25
8807.00,1.24
8806.00,1.24
8805.00,1.24
8804.00,1.24
8803.00,1.24
8802.00,1.24
8801.00,1.24
8800.00,1.24
8799.00,1.24
8798.00,1.24
8797.00,1.23
8796.00,1.23
8795.00,1.23
8794.00,1.23
8793.00,1.23
8792.00,1.23
8791.00,1.23
8790.00,1.23
8789.00,1.23
8788.00,1.23
8787.00,1.23
8786.00,1.23
8785.00,1.23
8784.00,1.22
8783.00,1.22
8782.00,1.22
8781.00,1.22
8780.00,1.22
8779.00,1.22
8778.00,1.22
8777.00,1.22
8776.00,1.22
8775.00,1.22
8774.00,1.23
8773.00,1.23
8772.00,1.23
8771.00,1.23
8770.00,1.23
8769.00,1.23
8768.00,1.23
8767.00,1.23
8766.00,1.23
8765.00,1.23
8764.00,1.23
8763.00,1.23
8762.00,1.23
8761.00,1.23
8760.00,1.23
8759.00,1.23
8758.00,1.23
8757.00,1.23
8756.00,1.23
8755.00,1.23
8754.00,1.23
8753.00,1.23
8752.00,1.23
8751.00,1.23
8750.00,1.22
8749.00,1.22
8748.00,1.22
8747.00,1.22
8746.00,1.22
8745.00,1.22
8744.00,1.22
8743.00,1.22
8742.00,1.22
8741.00,1.22
8740.00,1.22
8739.00,1.22
8738.00,1.22
8737.00,1.22
8736.00,1.22
8735.00,1.22
8734.00,1.22
8733.00,1.22
8732.00,1.23
8731.00,1.23
8730.00,1.23
8729.00,1.23
8728.00,1.23
8727.00,1.22
8726.00,1.22
8725.00,1.22
8724.00,1.22
8723.00,1.22
8722.00,1.22
8721.00,1.22
8720.00,1.22
8719.00,1.21
8718.00,1.21
8717.00,1.21
8716.00,1.21
8715.00,1.21
8714.00,1.20
8713.00,1.20
8712.00,1.20
8711.00,1.20
8710.00,1.20
8709.00,1.20
8708.00,1.20
8707.00,1.19
8706.00,1.19
8705.00,1.19
8704.00,1.19
8703.00,1.19
8702.00,1.20
8701.00,1.20
8700.00,1.20
8699.00,1.20
8698.00,1.20
8697.00,1.20
8696.00,1.20
8695.00,1.20
8694.00,1.20
8693.00,1.20
8692.00,1.21
8691.00,1.21
8690.00,1.21
8689.00,1.21
8688.00,1.21
8687.00,1.21
8686.00,1.21
8685.00,1.21
8684.00,1.21
8683.00,1.21
8682.00,1.21
8681.00,1.21
8680.00,1.21
8679.00,1.21
8678.00,1.21
8677.00,1.21
8676.00,1.21
8675.00,1.21
8674.00,1.21
8673.00,1.21
8672.00,1.21
8671.00,1.21
8670.00,1.20
8669.00,1.20
8668.00,1.20
8667.00,1.20
8666.00,1.20
8665.00,1.20
8664.00,1.20
8663.00,1.20
8662.00,1.20
8661.00,1.20
8660.00,1.20
8659.00,1.20
8658.00,1.20
8657.00,1.20
8656.00,1.20
8655.00,1.20
8654.00,1.21
8653.00,1.21
8652.00,1.21
8651.00,1.21
8650.00,1.21
8649.00,1.21
8648.00,1.21
8647.00,1.21
8646.00,1.21
8645.00,1.21
8644.00,1.21
8643.00,1.21
8642.00,1.21
8641.00,1.21
8640.00,1.21
8639.00,1.21
8638.00,1.21
8637.00,1.21
8636.00,1.21
8635.00,1.21
8634.00,1.21
8633.00,1.21
8632.00,1.21
8631.00,1.21
8630.00,1.21
8629.00,1.21
8628.00,1.21
8627.00,1.20
8626.00,1.20
8625.00,1.20
8624.00,1.20
8623.00,1.20
8622.00,1.20
8621.00,1.20
8620.00,1.20
8619.00,1.19
8618.00,1.19
8617.00,1.19
8616.00,1.19
8615.00,1.19
8614.00,1.19
8613.00,1.19
8612.00,1.19
8611.00,1.19
8610.00,1.19
8609.00,1.19
8608.00,1.19
8607.00,1.19
8606.00,1.19
8605.00,1.19
8604.00,1.19
8603.00,1.19
8602.00,1.19
8601.00,1.19
8600.00,1.19
8599.00,1.19
8598.00,1.18
8597.00,1.18
8596.00,1.18
8595.00,1.18
8594.00,1.18
8593.00,1.18
8592.00,1.18
8591.00,1.18
8590.00,1.18
8589.00,1.17
8588.00,1.17
8587.00,1.17
8586.00,1.17
8585.00,1.17
8584.00,1.17
8583.00,1.17
8582.00,1.17
8581.00,1.17
8580.00,1.17
8579.00,1.17
8578.00,1.17
8577.00,1.17
8576.00,1.17
8575.00,1.17
8574.00,1.17
8573.00,1.17
8572.00,1.17
8571.00,1.17
8570.00,1.17
8569.00,1.17
8568.00,1.17
8567.00,1.17
8566.00,1.17
8565.00,1.17
8564.00,1.17
8563.00,1.17
8562.00,1.17
8561.00,1.17
8560.00,1.17
8559.00,1.16
8558.00,1.16
8557.00,1.16
8556.00,1.16
8555.00,1.16
8554.00,1.16
8553.00,1.16
8552.00,1.16
8551.00,1.16
8550.00,1.16
8549.00,1.16
8548.00,1.16
8547.00,1.16
8546.00,1.16
8545.00,1.16
8544.00,1.16
8543.00,1.16
8542.00,1.16
8541.00,1.16
8540.00,1.16
8539.00,1.16
8538.00,1.16
8537.00,1.16
8536.00,1.16
8535.00,1.16
8534.00,1.16
8533.00,1.16
8532.00,1.16
8531.00,1.16
8530.00,1.15
8529.00,1.15
8528.00,1.15
8527.00,1.15
8526.00,1.15
8525.00,1.15
8524.00,1.15
8523.00,1.15
8522.00,1.15
8521.00,1.15
8520.00,1.15
8519.00,1.15
8518.00,1.15
8517.00,1.15
8516.00,1.15
8515.00,1.15
8514.00,1.15
8513.00,1.15
8512.00,1.15
8511.00,1.15
8510.00,1.15
8509.00,1.15
8508.00,1.15
8507.00,1.15
8506.00,1.15
8505.00,1.14
8504.00,1.14
8503.00,1.14
8502.00,1.14
8501.00,1.14
8500.00,1.14
8499.00,1.14
8498.00,1.13
8497.00,1.13
8496.00,1.13
8495.00,1.13
8494.00,1.13
8493.00,1.13
8492.00,1.13
8491.00,1.13
8490.00,1.12
8489.00,1.12
8488.00,1.12
8487.00,1.12
8486.00,1.12
8485.00,1.12
8484.00,1.12
8483.00,1.12
8482.00,1.12
8481.00,1.12
8480.00,1.12
8479.00,1.12
8478.00,1.11
8477.00,1.11
8476.00,1.11
8475.00,1.11
8474.00,1.11
8473.00,1.11
8472.00,1.11
8471.00,1.11
8470.00,1.11
8469.00,1.11
8468.00,1.10
8467.00,1.10
8466.00,1.10
8465.00,1.10
8464.00,1.10
8463.00,1.10
8462.00,1.10
8461.00,1.10
8460.00,1.10
8459.00,1.10
8458.00,1.10
8457.00,1.10
8456.00,1.10
8455.00,1.10
8454.00,1.10
8453.00,1.10
8452.00,1.10
8451.00,1.10
8450.00,1.10
8449.00,1.10
8448.00,1.10
8447.00,1.10
8446.00,1.10
8445.00,1.10
8444.00,1.10
8443.00,1.10
8442.00,1.10
8441.00,1.10
8440.00,1.10
8439.00,1.10
8438.00,1.10
8437.00,1.10
8436.00,1.10
8435.00,1.10
8434.00,1.10
8433.00,1.10
8432.00,1.10
8431.00,1.10
8430.00,1.10
8429.00,1.10
8428.00,1.10
8427.00,1.10
8426.00,1.10
8425.00,1.10
8424.00,1.10
8423.00,1.10
8422.00,1.10
8421.00,1.10
8420.00,1.10
8419.00,1.10
8418.00,1.10
8417.00,1.10
8416.00,1.10
8415.00,1.10
8414.00,1.10
8413.00,1.10
8412.00,1.10
8411.00,1.11
8410.00,1.11
8409.00,1.11
8408.00,1.11
8407.00,1.11
8406.00,1.11
8405.00,1.11
8404.00,1.11
8403.00,1.11
8402.00,1.12
8401.00,1.12
8400.00,1.12
8399.00,1.12
8398.00,1.12
8397.00,1.12
8396.00,1.12
8395.00,1.12
8394.00,1.12
8393.00,1.12
8392.00,1.12
8391.00,1.12
8390.00,1.12
8389.00,1.12
8388.00,1.12
8387.00,1.12
8386.00,1.12
8385.00,1.12
8384.00,1.12
8383.00,1.13
8382.00,1.13
8381.00,1.13
8380.00,1.13
8379.00,1.13
8378.00,1.13
8377.00,1.13
8376.00,1.13
8375.00,1.13
8374.00,1.13
8373.00,1.13
8372.00,1.13
8371.00,1.13
8370.00,1.13
8369.00,1.13
8368.00,1.13
8367.00,1.13
8366.00,1.13
8365.00,1.13
8364.00,1.13
8363.00,1.13
8362.00,1.13
8361.00,1.13
8360.00,1.13
8359.00,1.13
8358.00,1.13
8357.00,1.13
8356.00,1.13
8355.00,1.13
8354.00,1.13
8353.00,1.13
8352.00,1.13
8351.00,1.13
8350.00,1.13
8349.00,1.13
8348.00,1.13
8347.00,1.13
8346.00,1.13
8345.00,1.13
8344.00,1.13
8343.00,1.13
8342.00,1.13
8341.00,1.13
8340.00,1.13
8339.00,1.13
8338.00,1.13
8337.00,1.13
8336.00,1.13
8335.00,1.13
8334.00,1.13
8333.00,1.13
8332.00,1.13
8331.00,1.13
8330.00,1.13
8329.00,1.13
8328.00,1.13
8327.00,1.13
8326.00,1.13
8325.00,1.13
8324.00,1.13
8323.00,1.14
8322.00,1.14
8321.00,1.14
8320.00,1.14
8319.00,1.14
8318.00,1.14
8317.00,1.14
8316.00,1.14
8315.00,1.14
8314.00,1.14
8313.00,1.14
8312.00,1.15
8311.00,1.15
8310.00,1.15
8309.00,1.15
8308.00,1.15
8307.00,1.15
8306.00,1.15
8305.00,1.15
8304.00,1.15
8303.00,1.14
8302.00,1.14
8301.00,1.14
8300.00,1.14
8299.00,1.14
8298.00,1.14
8297.00,1.14
8296.00,1.14
8295.00,1.14
8294.00,1.14
8293.00,1.14
8292.00,1.14
8291.00,1.14
8290.00,1.14
8289.00,1.14
8288.00,1.14
8287.00,1.14
8286.00,1.14
8285.00,1.14
8284.00,1.14
8283.00,1.14
8282.00,1.14
8281.00,1.14
8280.00,1.14
8279.00,1.14
8278.00,1.14
8277.00,1.15
8276.00,1.15
8275.00,1.15
8274.00,1.15
8273.00,1.15
8272.00,1.15
8271.00,1.15
8270.00,1.15
8269.00,1.15
8268.00,1.15
8267.00,1.15
8266.00,1.15
8265.00,1.15
8264.00,1.15
8263.00,1.16
8262.00,1.16
8261.00,1.16
8260.00,1.16
8259.00,1.16
8258.00,1.16
8257.00,1.16
8256.00,1.16
8255.00,1.17
8254.00,1.17
8253.00,1.17
8252.00,1.17
8251.00,1.17
8250.00,1.17
8249.00,1.17
8248.00,1.17
8247.00,1.17
8246.00,1.17
8245.00,1.17
8244.00,1.17
8243.00,1.17
8242.00,1.17
8241.00,1.17
8240.00,1.17
8239.00,1.17
8238.00,1.17
8237.00,1.17
8236.00,1.17
8235.00,1.17
8234.00,1.17
8233.00,1.17
8232.00,1.17
8231.00,1.17
8230.00,1.17
8229.00,1.17
8228.00,1.17
8227.00,1.18
8226.00,1.18
8225.00,1.18
8224.00,1.18
8223.00,1.18
8222.00,1.18
8221.00,1.18
8220.00,1.18
8219.00,1.18
8218.00,1.18
8217.00,1.18
8216.00,1.18
8215.00,1.18
8214.00,1.18
8213.00,1.18
8212.00,1.18
8211.00,1.18
8210.00,1.18
8209.00,1.18
8208.00,1.18
8207.00,1.18
8206.00,1.18
8205.00,1.18
8204.00,1.18
8203.00,1.18
8202.00,1.18
8201.00,1.18
8200.00,1.18
8199.00,1.18
8198.00,1.18
8197.00,1.18
8196.00,1.18
8195.00,1.18
8194.00,1.18
8193.00,1.18
8192.00,1.18
8191.00,1.18
8190.00,1.18
8189.00,1.18
8188.00,1.18
8187.00,1.18
8186.00,1.18
8185.00,1.18
8184.00,1.19
8183.00,1.19
8182.00,1.19
8181.00,1.19
8180.00,1.19
8179.00,1.19
8178.00,1.19
8177.00,1.19
8176.00,1.19
8175.00,1.19
8174.00,1.19
8173.00,1.19
8172.00,1.19
8171.00,1.19
8170.00,1.19
8169.00,1.19
8168.00,1.19
8167.00,1.19
8166.00,1.19
8165.00,1.19
8164.00,1.19
8163.00,1.19
8162.00,1.19
8161.00,1.19
8160.00,1.19
8159.00,1.19
8158.00,1.19
8157.00,1.19
8156.00,1.19
8155.00,1.19
8154.00,1.19
8153.00,1.19
8152.00,1.19
8151.00,1.19
8150.00,1.19
8149.00,1.20
8148.00,1.20
8147.00,1.20
8146.00,1.20
8145.00,1.20
8144.00,1.20
8143.00,1.21
8142.00,1.21
8141.00,1.21
8140.00,1.21
8139.00,1.21
8138.00,1.21
8137.00,1.21
8136.00,1.21
8135.00,1.21
8134.00,1.21
8133.00,1.21
8132.00,1.21
8131.00,1.21
8130.00,1.21
8129.00,1.21
8128.00,1.21
8127.00,1.21
8126.00,1.21
8125.00,1.21
8124.00,1.21
8123.00,1.21
8122.00,1.21
8121.00,1.21
8120.00,1.21
8119.00,1.21
8118.00,1.21
8117.00,1.21
8116.00,1.21
8115.00,1.21
8114.00,1.21
8113.00,1.21
8112.00,1.21
8111.00,1.21
8110.00,1.21
8109.00,1.21
8108.00,1.21
8107.00,1.21
8106.00,1.21
8105.00,1.21
8104.00,1.21
8103.00,1.21
8102.00,1.21
8101.00,1.21
8100.00,1.21
8099.00,1.21
8098.00,1.21
8097.00,1.21
8096.00,1.22
8095.00,1.22
8094.00,1.22
8093.00,1.22
8092.00,1.22
8091.00,1.22
8090.00,1.22
8089.00,1.22
8088.00,1.22
8087.00,1.22
8086.00,1.23
8085.00,1.23
8084.00,1.23
8083.00,1.23
8082.00,1.23
8081.00,1.23
8080.00,1.23
8079.00,1.23
8078.00,1.23
8077.00,1.23
8076.00,1.23
8075.00,1.23
8074.00,1.23
8073.00,1.23
8072.00,1.23
8071.00,1.23
8070.00,1.23
8069.00,1.23
8068.00,1.23
8067.00,1.22
8066.00,1.22
8065.00,1.22
8064.00,1.22
8063.00,1.22
8062.00,1.22
8061.00,1.22
8060.00,1.22
8059.00,1.22
8058.00,1.22
8057.00,1.22
8056.00,1.22
8055.00,1.22
8054.00,1.22
8053.00,1.22
8052.00,1.22
8051.00,1.22
8050.00,1.22
8049.00,1.22
8048.00,1.22
8047.00,1.22
8046.00,1.22
8045.00,1.22
8044.00,1.22
8043.00,1.22
8042.00,1.22
8041.00,1.22
8040.00,1.22
8039.00,1.22
8038.00,1.22
8037.00,1.22
8036.00,1.23
8035.00,1.23
8034.00,1.23
8033.00,1.23
8032.00,1.23
8031.00,1.23
8030.00,1.23
8029.00,1.23
8028.00,1.23
8027.00,1.24
8026.00,1.24
8025.00,1.24
8024.00,1.24
8023.00,1.24
8022.00,1.24
8021.00,1.24
8020.00,1.24
8019.00,1.24
8018.00,1.24
8017.00,1.24
8016.00,1.24
8015.00,1.24
8014.00,1.24
8013.00,1.24
8012.00,1.24
8011.00,1.24
8010.00,1.24
8009.00,1.24
8008.00,1.24
8007.00,1.24
8006.00,1.24
8005.00,1.24
8004.00,1.24
8003.00,1.24
8002.00,1.24
8001.00,1.24
8000.00,1.24
7999.00,1.24
7998.00,1.24
7997.00,1.24
7996.00,1.24
7995.00,1.24
7994.00,1.24
7993.00,1.24
7992.00,1.24
7991.00,1.24
7990.00,1.24
7989.00,1.24
7988.00,1.24
7987.00,1.24
7986.00,1.24
7985.00,1.24
7984.00,1.24
7983.00,1.24
7982.00,1.24
7981.00,1.24
7980.00,1.24
7979.00,1.24
7978.00,1.24
7977.00,1.24
7976.00,1.24
7975.00,1.24
7974.00,1.24
7973.00,1.24
7972.00,1.24
7971.00,1.25
7970.00,1.25
7969.00,1.25
7968.00,1.25
7967.00,1.25
7966.00,1.25
7965.00,1.25
7964.00,1.25
7963.00,1.25
7962.00,1.25
7961.00,1.25
7960.00,1.25
7959.00,1.25
7958.00,1.25
7957.00,1.25
7956.00,1.25
7955.00,1.25
7954.00,1.25
7953.00,1.25
7952.00,1.25
7951.00,1.25
7950.00,1.25
7949.00,1.25
7948.00,1.24
7947.00,1.24
7946.00,1.24
7945.00,1.24
7944.00,1.24
7943.00,1.24
7942.00,1.24
7941.00,1.24
7940.00,1.24
7939.00,1.24
7938.00,1.24
7937.00,1.24
7936.00,1.24
7935.00,1.24
7934.00,1.24
7933.00,1.25
7932.00,1.25
7931.00,1.25
7930.00,1.25
7929.00,1.25
7928.00,1.25
7927.00,1.25
7926.00,1.25
7925.00,1.25
7924.00,1.25
7923.00,1.25
7922.00,1.25
7921.00,1.25
7920.00,1.25
7919.00,1.25
7918.00,1.25
7917.00,1.25
7916.00,1.25
7915.00,1.25
7914.00,1.25
7913.00,1.25
7912.00,1.25
7911.00,1.25
7910.00,1.25
7909.00,1.25
7908.00,1.25
7907.00,1.25
7906.00,1.25
7905.00,1.25
7904.00,1.25
7903.00,1.25
7902.00,1.26
7901.00,1.26
7900.00,1.26
7899.00,1.26
7898.00,1.26
7897.00,1.26
7896.00,1.26
7895.00,1.26
7894.00,1.26
7893.00,1.26
7892.00,1.26
7891.00,1.26
7890.00,1.26
7889.00,1.26
7888.00,1.26
7887.00,1.26
7886.00,1.26
7885.00,1.26
7884.00,1.26
7883.00,1.26
7882.00,1.26
7881.00,1.26
7880.00,1.26
7879.00,1.26
7878.00,1.26
7877.00,1.26
7876.00,1.26
7875.00,1.25
7874.00,1.25
7873.00,1.25
7872.00,1.25
7871.00,1.25
7870.00,1.25
7869.00,1.25
7868.00,1.25
7867.00,1.25
7866.00,1.25
7865.00,1.25
7864.00,1.25
7863.00,1.25
7862.00,1.25
7861.00,1.25
7860.00,1.25
7859.00,1.25
7858.00,1.25
7857.00,1.25
7856.00,1.25
7855.00,1.25
7854.00,1.25
7853.00,1.26
7852.00,1.26
7851.00,1.26
7850.00,1.26
7849.00,1.26
7848.00,1.26
7847.00,1.26
7846.00,1.26
7845.00,1.26
7844.00,1.26
7843.00,1.26
7842.00,1.26
7841.00,1.26
7840.00,1.26
7839.00,1.26
7838.00,1.26
7837.00,1.26
7836.00,1.26
7835.00,1.26
7834.00,1.26
7833.00,1.26
7832.00,1.26
7831.00,1.27
7830.00,1.27
7829.00,1.27
7828.00,1.27
7827.00,1.27
7826.00,1.27
7825.00,1.27
7824.00,1.27
7823.00,1.27
7822.00,1.27
7821.00,1.27
7820.00,1.27
7819.00,1.27
7818.00,1.27
7817.00,1.27
7816.00,1.27
7815.00,1.27
7814.00,1.27
7813.00,1.27
7812.00,1.27
7811.00,1.27
7810.00,1.27
7809.00,1.27
7808.00,1.27
7807.00,1.27
7806.00,1.27
7805.00,1.27
7804.00,1.27
7803.00,1.27
7802.00,1.27
7801.00,1.27
7800.00,1.27
7799.00,1.27
7798.00,1.27
7797.00,1.27
7796.00,1.27
7795.00,1.27
7794.00,1.27
7793.00,1.27
7792.00,1.27
7791.00,1.27
7790.00,1.27
7789.00,1.27
7788.00,1.27
7787.00,1.27
7786.00,1.27
7785.00,1.27
7784.00,1.27
7783.00,1.27
7782.00,1.27
7781.00,1.27
7780.00,1.27
7779.00,1.27
7778.00,1.27
7777.00,1.27
7776.00,1.27
7775.00,1.27
7774.00,1.27
7773.00,1.27
7772.00,1.27
7771.00,1.27
7770.00,1.28
7769.00,1.28
7768.00,1.28
7767.00,1.28
7766.00,1.28
7765.00,1.28
7764.00,1.28
7763.00,1.28
7762.00,1.28
7761.00,1.28
7760.00,1.28
7759.00,1.28
7758.00,1.28
7757.00,1.28
7756.00,1.28
7755.00,1.28
7754.00,1.28
7753.00,1.28
7752.00,1.28
7751.00,1.28
7750.00,1.28
7749.00,1.28
7748.00,1.28
7747.00,1.28
7746.00,1.28
7745.00,1.28
7744.00,1.28
7743.00,1.28
7742.00,1.28
7741.00,1.28
7740.00,1.28
7739.00,1.28
7738.00,1.28
7737.00,1.28
7736.00,1.28
7735.00,1.28
7734.00,1.28
7733.00,1.28
7732.00,1.28
7731.00,1.28
7730.00,1.28
7729.00,1.28
7728.00,1.28
7727.00,1.28
7726.00,1.28
7725.00,1.28
7724.00,1.28
7723.00,1.28
7722.00,1.28
7721.00,1.28
7720.00,1.28
7719.00,1.28
7718.00,1.28
7717.00,1.28
7716.00,1.28
7715.00,1.28
7714.00,1.28
7713.00,1.28
7712.00,1.28
7711.00,1.28
7710.00,1.28
7709.00,1.28
7708.00,1.28
7707.00,1.28
7706.00,1.28
7705.00,1.28
7704.00,1.28
7703.00,1.28
7702.00,1.28
7701.00,1.28
7700.00,1.28
7699.00,1.28
7698.00,1.28
7697.00,1.28
7696.00,1.28
7695.00,1.28
7694.00,1.28
7693.00,1.28
7692.00,1.28
7691.00,1.28
7690.00,1.28
7689.00,1.28
7688.00,1.28
7687.00,1.28
7686.00,1.28
7685.00,1.28
7684.00,1.28
7683.00,1.28
7682.00,1.28
7681.00,1.28
7680.00,1.28
7679.00,1.28
7678.00,1.29
7677.00,1.29
7676.00,1.29
7675.00,1.29
7674.00,1.29
7673.00,1.29
7672.00,1.28
7671.00,1.28
7670.00,1.28
7669.00,1.28
7668.00,1.28
7667.00,1.28
7666.00,1.28
7665.00,1.28
7664.00,1.28
7663.00,1.28
7662.00,1.28
7661.00,1.27
7660.00,1.27
7659.00,1.27
7658.00,1.27
7657.00,1.27
7656.00,1.27
7655.00,1.27
7654.00,1.27
7653.00,1.27
7652.00,1.27
7651.00,1.27
7650.00,1.27
7649.00,1.27
7648.00,1.28
7647.00,1.28
7646.00,1.28
7645.00,1.28
7644.00,1.28
7643.00,1.28
7642.00,1.28
7641.00,1.28
7640.00,1.28
7639.00,1.28
7638.00,1.28
7637.00,1.28
7636.00,1.28
7635.00,1.28
7634.00,1.28
7633.00,1.28
7632.00,1.28
7631.00,1.28
7630.00,1.28
7629.00,1.28
7628.00,1.28
7627.00,1.28
7626.00,1.28
7625.00,1.28
7624.00,1.28
7623.00,1.28
7622.00,1.28
7621.00,1.28
7620.00,1.28
7619.00,1.28
7618.00,1.28
7617.00,1.28
7616.00,1.28
7615.00,1.28
7614.00,1.28
7613.00,1.28
7612.00,1.28
7611.00,1.28
7610.00,1.28
7609.00,1.28
7608.00,1.29
7607.00,1.29
7606.00,1.29
7605.00,1.29
7604.00,1.29
7603.00,1.29
7602.00,1.29
7601.00,1.29
7600.00,1.28
7599.00,1.28
7598.00,1.28
7597.00,1.28
7596.00,1.28
7595.00,1.28
7594.00,1.28
7593.00,1.28
7592.00,1.28
7591.00,1.28
7590.00,1.28
7589.00,1.28
7588.00,1.28
7587.00,1.28
7586.00,1.28
7585.00,1.28
7584.00,1.28
7583.00,1.28
7582.00,1.28
7581.00,1.28
7580.00,1.28
7579.00,1.28
7578.00,1.28
7577.00,1.28
7576.00,1.28
7575.00,1.28
7574.00,1.28
7573.00,1.28
7572.00,1.28
7571.00,1.28
7570.00,1.28
7569.00,1.28
7568.00,1.28
7567.00,1.28
7566.00,1.28
7565.00,1.28
7564.00,1.28
7563.00,1.27
7562.00,1.27
7561.00,1.27
7560.00,1.27
7559.00,1.27
7558.00,1.27
7557.00,1.27
7556.00,1.27
7555.00,1.27
7554.00,1.27
7553.00,1.27
7552.00,1.27
7551.00,1.28
7550.00,1.28
7549.00,1.28
7548.00,1.28
7547.00,1.28
7546.00,1.28
7545.00,1.28
7544.00,1.28
7543.00,1.28
7542.00,1.28
7541.00,1.28
7540.00,1.28
7539.00,1.27
7538.00,1.27
7537.00,1.27
7536.00,1.27
7535.00,1.27
7534.00,1.27
7533.00,1.27
7532.00,1.27
7531.00,1.27
7530.00,1.27
7529.00,1.27
7528.00,1.27
7527.00,1.27
7526.00,1.27
7525.00,1.27
7524.00,1.27
7523.00,1.27
7522.00,1.27
7521.00,1.27
7520.00,1.27
7519.00,1.27
7518.00,1.27
7517.00,1.27
7516.00,1.27
7515.00,1.27
7514.00,1.27
7513.00,1.27
7512.00,1.27
7511.00,1.27
7510.00,1.27
7509.00,1.27
7508.00,1.27
7507.00,1.27
7506.00,1.27
7505.00,1.27
7504.00,1.27
7503.00,1.27
7502.00,1.27
7501.00,1.27
7500.00,1.27
7499.00,1.27
7498.00,1.27
7497.00,1.27
7496.00,1.27
7495.00,1.27
7494.00,1.27
7493.00,1.27
7492.00,1.27
7491.00,1.27
7490.00,1.27
7489.00,1.27
7488.00,1.27
7487.00,1.27
7486.00,1.27
7485.00,1.27
7484.00,1.27
7483.00,1.27
7482.00,1.26
7481.00,1.26
7480.00,1.26
7479.00,1.26
7478.00,1.26
7477.00,1.26
7476.00,1.26
7475.00,1.26
7474.00,1.25
7473.00,1.25
7472.00,1.25
7471.00,1.25
7470.00,1.25
7469.00,1.25
7468.00,1.25
7467.00,1.25
7466.00,1.25
7465.00,1.24
7464.00,1.24
7463.00,1.24
7462.00,1.24
7461.00,1.24
7460.00,1.24
7459.00,1.24
7458.00,1.24
7457.00,1.24
7456.00,1.24
7455.00,1.24
7454.00,1.24
7453.00,1.24
7452.00,1.24
7451.00,1.24
7450.00,1.24
7449.00,1.24
7448.00,1.24
7447.00,1.24
7446.00,1.24
7445.00,1.24
7444.00,1.24
7443.00,1.24
7442.00,1.24
7441.00,1.23
7440.00,1.23
7439.00,1.23
7438.00,1.23
7437.00,1.23
7436.00,1.23
7435.00,1.23
7434.00,1.23
7433.00,1.23
7432.00,1.23
7431.00,1.23
7430.00,1.23
7429.00,1.23
7428.00,1.23
7427.00,1.23
7426.00,1.23
7425.00,1.23
7424.00,1.23
7423.00,1.23
7422.00,1.23
7421.00,1.23
7420.00,1.23
7419.00,1.23
7418.00,1.23
7417.00,1.23
7416.00,1.23
7415.00,1.23
7414.00,1.23
7413.00,1.23
7412.00,1.23
7411.00,1.23
7410.00,1.23
7409.00,1.23
7408.00,1.23
7407.00,1.23
7406.00,1.23
7405.00,1.23
7404.00,1.23
7403.00,1.23
7402.00,1.22
7401.00,1.22
7400.00,1.22
7399.00,1.22
7398.00,1.22
7397.00,1.22
7396.00,1.22
7395.00,1.22
7394.00,1.21
7393.00,1.21
7392.00,1.21
7391.00,1.21
7390.00,1.21
7389.00,1.20
7388.00,1.20
7387.00,1.20
7386.00,1.20
7385.00,1.19
7384.00,1.19
7383.00,1.19
7382.00,1.19
7381.00,1.19
7380.00,1.19
7379.00,1.18
7378.00,1.18
7377.00,1.18
7376.00,1.18
7375.00,1.18
7374.00,1.18
7373.00,1.18
7372.00,1.18
7371.00,1.18
7370.00,1.18
7369.00,1.18
7368.00,1.18
7367.00,1.17
7366.00,1.17
7365.00,1.17
7364.00,1.17
7363.00,1.17
7362.00,1.17
7361.00,1.17
7360.00,1.17
7359.00,1.17
7358.00,1.17
7357.00,1.17
7356.00,1.17
7355.00,1.17
7354.00,1.17
7353.00,1.17
7352.00,1.17
7351.00,1.17
7350.00,1.17
7349.00,1.17
7348.00,1.17
7347.00,1.17
7346.00,1.17
7345.00,1.17
7344.00,1.17
7343.00,1.17
7342.00,1.17
7341.00,1.17
7340.00,1.17
7339.00,1.17
7338.00,1.17
7337.00,1.17
7336.00,1.17
7335.00,1.17
7334.00,1.17
7333.00,1.17
7332.00,1.17
7331.00,1.17
7330.00,1.17
7329.00,1.17
7328.00,1.17
7327.00,1.17
7326.00,1.17
7325.00,1.17
7324.00,1.17
7323.00,1.17
7322.00,1.17
7321.00,1.17
7320.00,1.17
7319.00,1.17
7318.00,1.16
7317.00,1.16
7316.00,1.16
7315.00,1.16
7314.00,1.16
7313.00,1.16
7312.00,1.16
7311.00,1.16
7310.00,1.15
7309.00,1.15
7308.00,1.15
7307.00,1.15
7306.00,1.15
7305.00,1.15
7304.00,1.15
7303.00,1.15
7302.00,1.14
7301.00,1.14
7300.00,1.14
7299.00,1.14
7298.00,1.14
7297.00,1.14
7296.00,1.14
7295.00,1.14
7294.00,1.14
7293.00,1.14
7292.00,1.14
7291.00,1.14
7290.00,1.14
7289.00,1.14
7288.00,1.14
7287.00,1.14
7286.00,1.14
7285.00,1.14
7284.00,1.14
7283.00,1.13
7282.00,1.13
7281.00,1.13
7280.00,1.13
7279.00,1.13
7278.00,1.13
7277.00,1.13
7276.00,1.13
7275.00,1.13
7274.00,1.13
7273.00,1.13
7272.00,1.13
7271.00,1.13
7270.00,1.12
7269.00,1.12
7268.00,1.12
7267.00,1.12
7266.00,1.12
7265.00,1.12
7264.00,1.12
7263.00,1.12
7262.00,1.12
7261.00,1.11
7260.00,1.11
7259.00,1.11
7258.00,1.11
7257.00,1.11
7256.00,1.11
7255.00,1.11
7254.00,1.11
7253.00,1.11
7252.00,1.10
7251.00,1.10
7250.00,1.10
7249.00,1.10
7248.00,1.10
7247.00,1.10
7246.00,1.09
7245.00,1.09
7244.00,1.09
7243.00,1.08
7242.00,1.08
7241.00,1.08
7240.00,1.07
7239.00,1.07
7238.00,1.07
7237.00,1.06
7236.00,1.06
7235.00,1.06
7234.00,1.05
7233.00,1.05
7232.00,1.05
7231.00,1.04
7230.00,1.04
7229.00,1.04
7228.00,1.04
7227.00,1.03
7226.00,1.03
7225.00,1.03
7224.00,1.02
7223.00,1.02
7222.00,1.02
7221.00,1.02
7220.00,1.01
7219.00,1.01
7218.00,1.01
7217.00,1.00
7216.00,1.00
7215.00,1.00
7214.00,1.00
7213.00,0.99
7212.00,0.99
7211.00,0.99
7210.00,0.98
7209.00,0.98
7208.00,0.98
7207.00,0.98
7206.00,0.97
7205.00,0.97
7204.00,0.97
7203.00,0.96
7202.00,0.96
7201.00,0.96
7200.00,0.96
7199.00,0.95
7198.00,0.95
7197.00,0.95
7196.00,0.94
7195.00,0.94
7194.00,0.94
7193.00,0.93
7192.00,0.93
7191.00,0.93
7190.00,0.92
7189.00,0.92
7188.00,0.92
7187.00,0.91
7186.00,0.91
7185.00,0.91
7184.00,0.90
7183.00,0.90
7182.00,0.90
7181.00,0.89
7180.00,0.89
7179.00,0.89
7178.00,0.89
7177.00,0.88
7176.00,0.88
7175.00,0.88
7174.00,0.88
7173.00,0.88
7172.00,0.87
7171.00,0.87
7170.00,0.87
7169.00,0.87
7168.00,0.87
7167.00,0.87
7166.00,0.86
7165.00,0.86
7164.00,0.86
7163.00,0.86
7162.00,0.86
7161.00,0.86
7160.00,0.85
7159.00,0.85
7158.00,0.85
7157.00,0.85
7156.00,0.85
7155.00,0.84
7154.00,0.84
7153.00,0.84
7152.00,0.84
7151.00,0.83
7150.00,0.83
7149.00,0.83
7148.00,0.83
7147.00,0.82
7146.00,0.82
7145.00,0.82
7144.00,0.81
7143.00,0.81
7142.00,0.81
7141.00,0.81
7140.00,0.80
7139.00,0.80
7138.00,0.80
7137.00,0.79
7136.00,0.79
7135.00,0.79
7134.00,0.78
7133.00,0.78
7132.00,0.78
7131.00,0.78
7130.00,0.77
7129.00,0.77
7128.00,0.77
7127.00,0.76
7126.00,0.76
7125.00,0.76
7124.00,0.75
7123.00,0.75
7122.00,0.75
7121.00,0.75
7120.00,0.74
7119.00,0.74
7118.00,0.74
7117.00,0.74
7116.00,0.74
7115.00,0.73
7114.00,0.73
7113.00,0.73
7112.00,0.73
7111.00,0.72
7110.00,0.72
7109.00,0.72
7108.00,0.72
7107.00,0.72
7106.00,0.71
7105.00,0.71
7104.00,0.71
7103.00,0.71
7102.00,0.71
7101.00,0.70
7100.00,0.70
7099.00,0.70
7098.00,0.70
7097.00,0.70
7096.00,0.69
7095.00,0.69
7094.00,0.69
7093.00,0.69
7092.00,0.69
7091.00,0.68
7090.00,0.68
7089.00,0.68
7088.00,0.68
7087.00,0.67
7086.00,0.67
7085.00,0.67
7084.00,0.67
7083.00,0.66
7082.00,0.66
7081.00,0.66
7080.00,0.66
7079.00,0.65
7078.00,0.65
7077.00,0.65
7076.00,0.65
7075.00,0.64
7074.00,0.64
7073.00,0.64
7072.00,0.64
7071.00,0.64
7070.00,0.63
7069.00,0.63
7068.00,0.63
7067.00,0.63
7066.00,0.63
7065.00,0.63
7064.00,0.63
7063.00,0.63
7062.00,0.63
7061.00,0.62
7060.00,0.62
7059.00,0.62
7058.00,0.62
7057.00,0.62
7056.00,0.62
7055.00,0.62
7054.00,0.62
7053.00,0.62
7052.00,0.62
7051.00,0.62
7050.00,0.61
7049.00,0.61
7048.00,0.61
7047.00,0.61
7046.00,0.61
7045.00,0.61
7044.00,0.61
7043.00,0.61
7042.00,0.60
7041.00,0.60
7040.00,0.60
7039.00,0.60
7038.00,0.60
7037.00,0.60
7036.00,0.60
7035.00,0.60
7034.00,0.60
7033.00,0.60
7032.00,0.59
7031.00,0.59
7030.00,0.59
7029.00,0.59
7028.00,0.59
7027.00,0.59
7026.00,0.59
7025.00,0.59
7024.00,0.59
7023.00,0.58
7022.00,0.58
7021.00,0.58
7020.00,0.58
7019.00,0.58
7018.00,0.58
7017.00,0.57
7016.00,0.57
7015.00,0.57
7014.00,0.57
7013.00,0.57
7012.00,0.57
7011.00,0.56
7010.00,0.56
7009.00,0.56
7008.00,0.56
7007.00,0.56
7006.00,0.56
7005.00,0.55
7004.00,0.55
7003.00,0.55
7002.00,0.55
7001.00,0.55
7000.00,0.55
6999.00,0.55
6998.00,0.55
6997.00,0.54
6996.00,0.54
6995.00,0.54
6994.00,0.54
6993.00,0.54
6992.00,0.54
6991.00,0.54
6990.00,0.54
6989.00,0.54
6988.00,0.54
6987.00,0.54
6986.00,0.54
6985.00,0.53
6984.00,0.53
6983.00,0.53
6982.00,0.53
6981.00,0.53
6980.00,0.53
6979.00,0.53
6978.00,0.53
6977.00,0.53
6976.00,0.53
6975.00,0.53
6974.00,0.53
6973.00,0.53
6972.00,0.53
6971.00,0.53
6970.00,0.53
6969.00,0.53
6968.00,0.53
6967.00,0.53
6966.00,0.53
6965.00,0.52
6964.00,0.52
6963.00,0.52
6962.00,0.52
6961.00,0.52
6960.00,0.52
6959.00,0.52
6958.00,0.52
6957.00,0.52
6956.00,0.52
6955.00,0.52
6954.00,0.52
6953.00,0.52
6952.00,0.51
6951.00,0.51
6950.00,0.51
6949.00,0.51
6948.00,0.51
6947.00,0.51
6946.00,0.51
6945.00,0.51
6944.00,0.51
6943.00,0.51
6942.00,0.51
6941.00,0.51
6940.00,0.51
6939.00,0.51
6938.00,0.51
6937.00,0.51
6936.00,0.51
6935.00,0.51
6934.00,0.51
6933.00,0.51
6932.00,0.51
6931.00,0.51
6930.00,0.51
6929.00,0.51
6928.00,0.51
6927.00,0.51
6926.00,0.51
6925.00,0.51
6924.00,0.51
6923.00,0.51
6922.00,0.51
6921.00,0.51
6920.00,0.51
6919.00,0.51
6918.00,0.51
6917.00,0.51
6916.00,0.51
6915.00,0.51
6914.00,0.51
6913.00,0.50
6912.00,0.50
6911.00,0.50
6910.00,0.50
6909.00,0.50
6908.00,0.50
6907.00,0.50
6906.00,0.50
6905.00,0.50
6904.00,0.50
6903.00,0.50
6902.00,0.50
6901.00,0.50
6900.00,0.50
6899.00,0.50
6898.00,0.50
6897.00,0.50
6896.00,0.50
6895.00,0.49
6894.00,0.49
6893.00,0.49
6892.00,0.49
6891.00,0.49
6890.00,0.49
6889.00,0.49
6888.00,0.49
6887.00,0.49
6886.00,0.49
6885.00,0.49
6884.00,0.49
6883.00,0.49
6882.00,0.49
6881.00,0.49
6880.00,0.49
6879.00,0.49
6878.00,0.49
6877.00,0.49
6876.00,0.49
6875.00,0.49
6874.00,0.49
6873.00,0.49
6872.00,0.49
6871.00,0.49
6870.00,0.49
6869.00,0.49
6868.00,0.49
6867.00,0.49
6866.00,0.49
6865.00,0.49
6864.00,0.49
6863.00,0.49
6862.00,0.49
6861.00,0.49
6860.00,0.49
6859.00,0.49
6858.00,0.49
6857.00,0.49
6856.00,0.49
6855.00,0.49
6854.00,0.49
6853.00,0.49
6852.00,0.49
6851.00,0.49
6850.00,0.49
6849.00,0.49
6848.00,0.49
6847.00,0.49
6846.00,0.49
6845.00,0.49
6844.00,0.49
6843.00,0.49
6842.00,0.49
6841.00,0.49
6840.00,0.49
6839.00,0.49
6838.00,0.49
6837.00,0.49
6836.00,0.49
6835.00,0.49
6834.00,0.49
6833.00,0.49
6832.00,0.49
6831.00,0.49
6830.00,0.49
6829.00,0.49
6828.00,0.49
6827.00,0.49
6826.00,0.49
6825.00,0.49
6824.00,0.49
6823.00,0.49
6822.00,0.49
6821.00,0.49
6820.00,0.49
6819.00,0.49
6818.00,0.49
6817.00,0.49
6816.00,0.49
6815.00,0.50
6814.00,0.50
6813.00,0.50
6812.00,0.50
6811.00,0.50
6810.00,0.50
6809.00,0.50
6808.00,0.50
6807.00,0.50
6806.00,0.50
6805.00,0.50
6804.00,0.50
6803.00,0.50
6802.00,0.50
6801.00,0.50
6800.00,0.50
6799.00,0.50
6798.00,0.50
6797.00,0.50
6796.00,0.50
6795.00,0.50
6794.00,0.50
6793.00,0.51
6792.00,0.51
6791.00,0.51
6790.00,0.51
6789.00,0.51
6788.00,0.51
6787.00,0.51
6786.00,0.51
6785.00,0.51
6784.00,0.51
6783.00,0.51
6782.00,0.51
6781.00,0.51
6780.00,0.51
6779.00,0.51
6778.00,0.51
6777.00,0.51
6776.00,0.51
6775.00,0.51
6774.00,0.51
6773.00,0.51
6772.00,0.51
6771.00,0.51
6770.00,0.51
6769.00,0.51
6768.00,0.51
6767.00,0.51
6766.00,0.52
6765.00,0.52
6764.00,0.52
6763.00,0.52
6762.00,0.52
6761.00,0.52
6760.00,0.52
6759.00,0.52
6758.00,0.52
6757.00,0.52
6756.00,0.52
6755.00,0.52
6754.00,0.52
6753.00,0.52
6752.00,0.52
6751.00,0.52
6750.00,0.52
6749.00,0.52
6748.00,0.52
6747.00,0.52
6746.00,0.52
6745.00,0.52
6744.00,0.52
6743.00,0.53
6742.00,0.53
6741.00,0.53
6740.00,0.53
6739.00,0.53
6738.00,0.53
6737.00,0.53
6736.00,0.53
6735.00,0.53
6734.00,0.54
6733.00,0.54
6732.00,0.54
6731.00,0.54
6730.00,0.54
6729.00,0.54
6728.00,0.54
6727.00,0.54
6726.00,0.54
6725.00,0.54
6724.00,0.54
6723.00,0.54
6722.00,0.54
6721.00,0.54
6720.00,0.54
6719.00,0.55
6718.00,0.55
6717.00,0.55
6716.00,0.55
6715.00,0.55
6714.00,0.55
6713.00,0.55
6712.00,0.55
6711.00,0.55
6710.00,0.55
6709.00,0.55
6708.00,0.55
6707.00,0.55
6706.00,0.55
6705.00,0.56
6704.00,0.56
6703.00,0.56
6702.00,0.56
6701.00,0.56
6700.00,0.56
6699.00,0.56
6698.00,0.56
6697.00,0.56
6696.00,0.56
6695.00,0.57
6694.00,0.57
6693.00,0.57
6692.00,0.57
6691.00,0.57
6690.00,0.57
6689.00,0.57
6688.00,0.57
6687.00,0.57
6686.00,0.57
6685.00,0.57
6684.00,0.58
6683.00,0.58
6682.00,0.58
6681.00,0.58
6680.00,0.58
6679.00,0.58
6678.00,0.58
6677.00,0.58
6676.00,0.58
6675.00,0.58
6674.00,0.58
6673.00,0.58
6672.00,0.58
6671.00,0.58
6670.00,0.58
6669.00,0.58
6668.00,0.59
6667.00,0.59
6666.00,0.59
6665.00,0.59
6664.00,0.59
6663.00,0.59
6662.00,0.59
6661.00,0.60
6660.00,0.60
6659.00,0.60
6658.00,0.60
6657.00,0.60
6656.00,0.60
6655.00,0.60
6654.00,0.60
6653.00,0.61
6652.00,0.61
6651.00,0.61
6650.00,0.61
6649.00,0.61
6648.00,0.61
6647.00,0.61
6646.00,0.61
6645.00,0.61
6644.00,0.61
6643.00,0.61
6642.00,0.61
6641.00,0.62
6640.00,0.62
6639.00,0.62
6638.00,0.62
6637.00,0.62
6636.00,0.62
6635.00,0.62
6634.00,0.62
6633.00,0.63
6632.00,0.63
6631.00,0.63
6630.00,0.63
6629.00,0.63
6628.00,0.63
6627.00,0.63
6626.00,0.63
6625.00,0.64
6624.00,0.64
6623.00,0.64
6622.00,0.64
6621.00,0.64
6620.00,0.64
6619.00,0.64
6618.00,0.64
6617.00,0.64
6616.00,0.64
6615.00,0.65
6614.00,0.65
6613.00,0.65
6612.00,0.65
6611.00,0.65
6610.00,0.65
6609.00,0.65
6608.00,0.65
6607.00,0.65
6606.00,0.65
6605.00,0.65
6604.00,0.65
6603.00,0.66
6602.00,0.66
6601.00,0.66
6600.00,0.66
6599.00,0.66
6598.00,0.66
6597.00,0.66
6596.00,0.66
6595.00,0.66
6594.00,0.66
6593.00,0.66
6592.00,0.66
6591.00,0.66
6590.00,0.67
6589.00,0.67
6588.00,0.67
6587.00,0.67
6586.00,0.67
6585.00,0.67
6584.00,0.67
6583.00,0.67
6582.00,0.67
6581.00,0.67
6580.00,0.68
6579.00,0.68
6578.00,0.68
6577.00,0.68
6576.00,0.68
6575.00,0.68
6574.00,0.68
6573.00,0.68
6572.00,0.68
6571.00,0.68
6570.00,0.68
6569.00,0.68
6568.00,0.68
6567.00,0.69
6566.00,0.69
6565.00,0.69
6564.00,0.69
6563.00,0.69
6562.00,0.69
6561.00,0.69
6560.00,0.69
6559.00,0.69
6558.00,0.69
6557.00,0.69
6556.00,0.69
6555.00,0.70
6554.00,0.70
6553.00,0.70
6552.00,0.70
6551.00,0.70
6550.00,0.70
6549.00,0.70
6548.00,0.70
6547.00,0.70
6546.00,0.70
6545.00,0.70
6544.00,0.70
6543.00,0.71
6542.00,0.71
6541.00,0.71
6540.00,0.71
6539.00,0.71
6538.00,0.71
6537.00,0.71
6536.00,0.71
6535.00,0.71
6534.00,0.71
6533.00,0.71
6532.00,0.71
6531.00,0.71
6530.00,0.71
6529.00,0.71
6528.00,0.71
6527.00,0.71
6526.00,0.71
6525.00,0.71
6524.00,0.71
6523.00,0.71
6522.00,0.71
6521.00,0.71
6520.00,0.71
6519.00,0.72
6518.00,0.72
6517.00,0.72
6516.00,0.72
6515.00,0.72
6514.00,0.72
6513.00,0.72
6512.00,0.72
6511.00,0.72
6510.00,0.72
6509.00,0.72
6508.00,0.73
6507.00,0.73
6506.00,0.73
6505.00,0.73
6504.00,0.73
6503.00,0.73
6502.00,0.73
6501.00,0.73
6500.00,0.73
6499.00,0.73
6498.00,0.73
6497.00,0.73
6496.00,0.74
6495.00,0.74
6494.00,0.74
6493.00,0.74
6492.00,0.74
6491.00,0.74
6490.00,0.74
6489.00,0.74
6488.00,0.74
6487.00,0.74
6486.00,0.74
6485.00,0.74
6484.00,0.74
6483.00,0.74
6482.00,0.74
6481.00,0.74
6480.00,0.74
6479.00,0.74
6478.00,0.74
6477.00,0.74
6476.00,0.75
6475.00,0.75
6474.00,0.75
6473.00,0.75
6472.00,0.75
6471.00,0.75
6470.00,0.75
6469.00,0.75
6468.00,0.75
6467.00,0.75
6466.00,0.75
6465.00,0.75
6464.00,0.75
6463.00,0.76
6462.00,0.76
6461.00,0.76
6460.00,0.76
6459.00,0.76
6458.00,0.76
6457.00,0.76
6456.00,0.76
6455.00,0.76
6454.00,0.76
6453.00,0.76
6452.00,0.76
6451.00,0.76
6450.00,0.76
6449.00,0.76
6448.00,0.76
6447.00,0.76
6446.00,0.76
6445.00,0.76
6444.00,0.76
6443.00,0.76
6442.00,0.76
6441.00,0.76
6440.00,0.76
6439.00,0.76
6438.00,0.76
6437.00,0.77
6436.00,0.77
6435.00,0.77
6434.00,0.77
6433.00,0.77
6432.00,0.77
6431.00,0.77
6430.00,0.77
6429.00,0.77
6428.00,0.77
6427.00,0.78
6426.00,0.78
6425.00,0.78
6424.00,0.78
6423.00,0.78
6422.00,0.78
6421.00,0.78
6420.00,0.78
6419.00,0.78
6418.00,0.78
6417.00,0.78
6416.00,0.78
6415.00,0.78
6414.00,0.78
6413.00,0.78
6412.00,0.78
6411.00,0.78
6410.00,0.78
6409.00,0.79
6408.00,0.79
6407.00,0.79
6406.00,0.79
6405.00,0.78
6404.00,0.78
6403.00,0.78
6402.00,0.78
6401.00,0.78
6400.00,0.78
6399.00,0.78
6398.00,0.78
6397.00,0.78
6396.00,0.78
6395.00,0.78
6394.00,0.78
6393.00,0.78
6392.00,0.78
6391.00,0.78
6390.00,0.78
6389.00,0.78
6388.00,0.78
6387.00,0.78
6386.00,0.79
6385.00,0.79
6384.00,0.79
6383.00,0.79
6382.00,0.79
6381.00,0.79
6380.00,0.79
6379.00,0.79
6378.00,0.79
6377.00,0.79
6376.00,0.79
6375.00,0.80
6374.00,0.80
6373.00,0.80
6372.00,0.80
6371.00,0.80
6370.00,0.80
6369.00,0.80
6368.00,0.80
6367.00,0.80
6366.00,0.80
6365.00,0.80
6364.00,0.80
6363.00,0.80
6362.00,0.80
6361.00,0.80
6360.00,0.81
6359.00,0.81
6358.00,0.81
6357.00,0.81
6356.00,0.81
6355.00,0.81
6354.00,0.81
6353.00,0.81
6352.00,0.81
6351.00,0.82
6350.00,0.82
6349.00,0.82
6348.00,0.82
6347.00,0.82
6346.00,0.82
6345.00,0.82
6344.00,0.82
6343.00,0.82
6342.00,0.83
6341.00,0.83
6340.00,0.83
6339.00,0.83
6338.00,0.83
6337.00,0.83
6336.00,0.83
6335.00,0.83
6334.00,0.83
6333.00,0.83
6332.00,0.83
6331.00,0.83
6330.00,0.83
6329.00,0.83
6328.00,0.83
6327.00,0.84
6326.00,0.84
6325.00,0.84
6324.00,0.84
6323.00,0.84
6322.00,0.84
6321.00,0.84
6320.00,0.84
6319.00,0.84
6318.00,0.84
6317.00,0.84
6316.00,0.84
6315.00,0.84
6314.00,0.84
6313.00,0.85
6312.00,0.85
6311.00,0.85
6310.00,0.85
6309.00,0.85
6308.00,0.85
6307.00,0.85
6306.00,0.85
6305.00,0.85
6304.00,0.85
6303.00,0.85
6302.00,0.86
6301.00,0.86
6300.00,0.86
6299.00,0.86
6298.00,0.86
6297.00,0.86
6296.00,0.86
6295.00,0.87
6294.00,0.87
6293.00,0.87
6292.00,0.87
6291.00,0.87
6290.00,0.87
6289.00,0.87
6288.00,0.87
6287.00,0.87
6286.00,0.87
6285.00,0.87
6284.00,0.87
6283.00,0.87
6282.00,0.87
6281.00,0.87
6280.00,0.88
6279.00,0.88
6278.00,0.88
6277.00,0.88
6276.00,0.88
6275.00,0.88
6274.00,0.88
6273.00,0.88
6272.00,0.88
6271.00,0.88
6270.00,0.88
6269.00,0.88
6268.00,0.89
6267.00,0.89
6266.00,0.89
6265.00,0.89
6264.00,0.89
6263.00,0.89
6262.00,0.89
6261.00,0.89
6260.00,0.90
6259.00,0.90
6258.00,0.90
6257.00,0.90
6256.00,0.90
6255.00,0.90
6254.00,0.90
6253.00,0.90
6252.00,0.91
6251.00,0.91
6250.00,0.91
6249.00,0.91
6248.00,0.91
6247.00,0.91
6246.00,0.91
6245.00,0.91
6244.00,0.92
6243.00,0.92
6242.00,0.92
6241.00,0.92
6240.00,0.92
6239.00,0.92
6238.00,0.92
6237.00,0.93
6236.00,0.93
6235.00,0.93
6234.00,0.93
6233.00,0.93
6232.00,0.93
6231.00,0.93
6230.00,0.93
6229.00,0.94
6228.00,0.94
6227.00,0.94
6226.00,0.94
6225.00,0.94
6224.00,0.94
6223.00,0.94
6222.00,0.94
6221.00,0.95
6220.00,0.95
6219.00,0.95
6218.00,0.95
6217.00,0.95
6216.00,0.95
6215.00,0.95
6214.00,0.95
6213.00,0.95
6212.00,0.96
6211.00,0.96
6210.00,0.96
6209.00,0.96
6208.00,0.96
6207.00,0.96
6206.00,0.96
6205.00,0.96
6204.00,0.97
6203.00,0.97
6202.00,0.97
6201.00,0.97
6200.00,0.97
6199.00,0.97
6198.00,0.97
6197.00,0.98
6196.00,0.98
6195.00,0.98
6194.00,0.98
6193.00,0.98
6192.00,0.98
6191.00,0.99
6190.00,0.99
6189.00,0.99
6188.00,0.99
6187.00,0.99
6186.00,0.99
6185.00,0.99
6184.00,1.00
6183.00,1.00
6182.00,1.00
6181.00,1.00
6180.00,1.00
6179.00,1.00
6178.00,1.00
6177.00,1.01
6176.00,1.01
6175.00,1.01
6174.00,1.01
6173.00,1.01
6172.00,1.01
6171.00,1.01
6170.00,1.02
6169.00,1.02
6168.00,1.02
6167.00,1.02
6166.00,1.02
6165.00,1.02
6164.00,1.03
6163.00,1.03
6162.00,1.03
6161.00,1.03
6160.00,1.03
6159.00,1.03
6158.00,1.04
6157.00,1.04
6156.00,1.04
6155.00,1.04
6154.00,1.04
6153.00,1.04
6152.00,1.04
6151.00,1.05
6150.00,1.05
6149.00,1.05
6148.00,1.05
6147.00,1.05
6146.00,1.05
6145.00,1.05
6144.00,1.05
6143.00,1.06
6142.00,1.06
6141.00,1.06
6140.00,1.06
6139.00,1.06
6138.00,1.06
6137.00,1.06
6136.00,1.06
6135.00,1.07
6134.00,1.07
6133.00,1.07
6132.00,1.07
6131.00,1.07
6130.00,1.07
6129.00,1.08
6128.00,1.08
6127.00,1.08
6126.00,1.08
6125.00,1.08
6124.00,1.08
6123.00,1.09
6122.00,1.09
6121.00,1.09
6120.00,1.09
6119.00,1.09
6118.00,1.09
6117.00,1.09
6116.00,1.10
6115.00,1.10
6114.00,1.10
6113.00,1.10
6112.00,1.10
6111.00,1.10
6110.00,1.10
6109.00,1.10
6108.00,1.10
6107.00,1.10
6106.00,1.10
6105.00,1.10
6104.00,1.10
6103.00,1.10
6102.00,1.11
6101.00,1.11
6100.00,1.11
6099.00,1.11
6098.00,1.11
6097.00,1.11
6096.00,1.11
6095.00,1.11
6094.00,1.12
6093.00,1.12
6092.00,1.12
6091.00,1.12
6090.00,1.12
6089.00,1.12
6088.00,1.12
6087.00,1.13
6086.00,1.13
6085.00,1.13
6084.00,1.13
6083.00,1.13
6082.00,1.13
6081.00,1.13
6080.00,1.13
6079.00,1.13
6078.00,1.14
6077.00,1.14
6076.00,1.14
6075.00,1.14
6074.00,1.14
6073.00,1.14
6072.00,1.14
6071.00,1.14
6070.00,1.14
6069.00,1.14
6068.00,1.14
6067.00,1.15
6066.00,1.15
6065.00,1.15
6064.00,1.15
6063.00,1.15
6062.00,1.15
6061.00,1.15
6060.00,1.15
6059.00,1.15
6058.00,1.15
6057.00,1.16
6056.00,1.16
6055.00,1.16
6054.00,1.16
6053.00,1.16
6052.00,1.16
6051.00,1.16
6050.00,1.16
6049.00,1.17
6048.00,1.17
6047.00,1.17
6046.00,1.17
6045.00,1.17
6044.00,1.17
6043.00,1.17
6042.00,1.17
6041.00,1.17
6040.00,1.17
6039.00,1.17
6038.00,1.17
6037.00,1.18
6036.00,1.18
6035.00,1.18
6034.00,1.18
6033.00,1.18
6032.00,1.18
6031.00,1.18
6030.00,1.18
6029.00,1.18
6028.00,1.18
6027.00,1.18
6026.00,1.18
6025.00,1.18
6024.00,1.18
6023.00,1.18
6022.00,1.18
6021.00,1.18
6020.00,1.19
6019.00,1.19
6018.00,1.19
6017.00,1.19
6016.00,1.19
6015.00,1.19
6014.00,1.19
6013.00,1.19
6012.00,1.19
6011.00,1.19
6010.00,1.19
6009.00,1.19
6008.00,1.19
6007.00,1.19
6006.00,1.19
6005.00,1.18
6004.00,1.18
6003.00,1.18
6002.00,1.18
6001.00,1.18
6000.00,1.18
5999.00,1.18
5998.00,1.18
5997.00,1.18
5996.00,1.18
5995.00,1.17
5994.00,1.17
5993.00,1.17
5992.00,1.17
5991.00,1.17
5990.00,1.16
5989.00,1.16
5988.00,1.16
5987.00,1.16
5986.00,1.15
5985.00,1.15
5984.00,1.15
5983.00,1.15
5982.00,1.14
5981.00,1.14
5980.00,1.14
5979.00,1.13
5978.00,1.13
5977.00,1.12
5976.00,1.12
5975.00,1.12
5974.00,1.11
5973.00,1.11
5972.00,1.10
5971.00,1.10
5970.00,1.09
5969.00,1.09
5968.00,1.08
5967.00,1.07
5966.00,1.07
5965.00,1.06
5964.00,1.05
5963.00,1.05
5962.00,1.04
5961.00,1.03
5960.00,1.03
5959.00,1.02
5958.00,1.01
5957.00,1.00
5956.00,1.00
5955.00,0.99
5954.00,0.98
5953.00,0.98
5952.00,0.97
5951.00,0.96
5950.00,0.96
5949.00,0.95
5948.00,0.95
5947.00,0.94
5946.00,0.94
5945.00,0.94
5944.00,0.93
5943.00,0.93
5942.00,0.93
5941.00,0.93
5940.00,0.92
5939.00,0.92
5938.00,0.92
5937.00,0.92
5936.00,0.92
5935.00,0.92
5934.00,0.92
5933.00,0.92
5932.00,0.92
5931.00,0.92
5930.00,0.92
5929.00,0.91
5928.00,0.91
5927.00,0.91
5926.00,0.91
5925.00,0.91
5924.00,0.91
5923.00,0.90
5922.00,0.90
5921.00,0.90
5920.00,0.89
5919.00,0.89
5918.00,0.89
5917.00,0.89
5916.00,0.88
5915.00,0.88
5914.00,0.88
5913.00,0.87
5912.00,0.87
5911.00,0.87
5910.00,0.86
5909.00,0.86
5908.00,0.86
5907.00,0.86
5906.00,0.85
5905.00,0.85
5904.00,0.85
5903.00,0.85
5902.00,0.85
5901.00,0.85
5900.00,0.85
5899.00,0.85
5898.00,0.85
5897.00,0.85
5896.00,0.85
5895.00,0.86
5894.00,0.86
5893.00,0.86
5892.00,0.86
5891.00,0.86
5890.00,0.87
5889.00,0.87
5888.00,0.87
5887.00,0.88
5886.00,0.88
5885.00,0.88
5884.00,0.88
5883.00,0.89
5882.00,0.89
5881.00,0.89
5880.00,0.89
5879.00,0.90
5878.00,0.90
5877.00,0.90
5876.00,0.90
5875.00,0.91
5874.00,0.91
5873.00,0.91
5872.00,0.91
5871.00,0.91
5870.00,0.92
5869.00,0.92
5868.00,0.92
5867.00,0.92
5866.00,0.92
5865.00,0.93
5864.00,0.93
5863.00,0.93
5862.00,0.93
5861.00,0.93
5860.00,0.93
5859.00,0.93
5858.00,0.94
5857.00,0.94
5856.00,0.94
5855.00,0.94
5854.00,0.94
5853.00,0.94
5852.00,0.94
5851.00,0.94
5850.00,0.95
5849.00,0.95
5848.00,0.95
5847.00,0.95
5846.00,0.95
5845.00,0.95
5844.00,0.95
5843.00,0.95
5842.00,0.95
5841.00,0.95
5840.00,0.95
5839.00,0.95
5838.00,0.95
5837.00,0.95
5836.00,0.95
5835.00,0.95
5834.00,0.95
5833.00,0.95
5832.00,0.95
5831.00,0.95
5830.00,0.95
5829.00,0.95
5828.00,0.95
5827.00,0.95
5826.00,0.95
5825.00,0.95
5824.00,0.95
5823.00,0.95
5822.00,0.95
5821.00,0.95
5820.00,0.95
5819.00,0.95
5818.00,0.95
5817.00,0.95
5816.00,0.95
5815.00,0.95
5814.00,0.95
5813.00,0.95
5812.00,0.95
5811.00,0.95
5810.00,0.95
5809.00,0.95
5808.00,0.95
5807.00,0.95
5806.00,0.95
5805.00,0.95
5804.00,0.95
5803.00,0.95
5802.00,0.95
5801.00,0.94
5800.00,0.94
5799.00,0.94
5798.00,0.94
5797.00,0.94
5796.00,0.94
5795.00,0.93
5794.00,0.93
5793.00,0.93
5792.00,0.93
5791.00,0.92
5790.00,0.92
5789.00,0.92
5788.00,0.92
5787.00,0.92
5786.00,0.91
5785.00,0.91
5784.00,0.91
5783.00,0.91
5782.00,0.91
5781.00,0.90
5780.00,0.90
5779.00,0.90
5778.00,0.90
5777.00,0.90
5776.00,0.90
5775.00,0.90
5774.00,0.90
5773.00,0.90
5772.00,0.90
5771.00,0.90
5770.00,0.90
5769.00,0.90
5768.00,0.90
5767.00,0.90
5766.00,0.90
5765.00,0.90
5764.00,0.91
5763.00,0.91
5762.00,0.91
5761.00,0.91
5760.00,0.92
5759.00,0.92
5758.00,0.92
5757.00,0.93
5756.00,0.93
5755.00,0.93
5754.00,0.94
5753.00,0.94
5752.00,0.94
5751.00,0.95
5750.00,0.95
5749.00,0.95
5748.00,0.96
5747.00,0.96
5746.00,0.96
5745.00,0.97
5744.00,0.97
5743.00,0.97
5742.00,0.97
5741.00,0.98
5740.00,0.98
5739.00,0.98
5738.00,0.98
5737.00,0.99
5736.00,0.99
5735.00,0.99
5734.00,0.99
5733.00,0.99
5732.00,1.00
5731.00,1.00
5730.00,1.00
5729.00,1.00
5728.00,1.00
5727.00,1.01
5726.00,1.01
5725.00,1.01
5724.00,1.01
5723.00,1.01
5722.00,1.01
5721.00,1.01
5720.00,1.01
5719.00,1.01
5718.00,1.01
5717.00,1.01
5716.00,1.01
5715.00,1.01
5714.00,1.01
5713.00,1.01
5712.00,1.01
5711.00,1.01
5710.00,1.01
5709.00,1.01
5708.00,1.01
5707.00,1.01
5706.00,1.01
5705.00,1.01
5704.00,1.01
5703.00,1.01
5702.00,1.01
5701.00,1.01
5700.00,1.01
5699.00,1.01
5698.00,1.00
5697.00,1.00
5696.00,1.00
5695.00,1.00
5694.00,1.00
5693.00,1.00
5692.00,1.00
5691.00,1.00
5690.00,1.00
5689.00,0.99
5688.00,0.99
5687.00,0.99
5686.00,0.99
5685.00,0.99
5684.00,0.99
5683.00,0.99
5682.00,0.99
5681.00,0.99
5680.00,0.99
5679.00,0.99
5678.00,0.99
5677.00,0.98
5676.00,0.98
5675.00,0.98
5674.00,0.98
5673.00,0.98
5672.00,0.98
5671.00,0.99
5670.00,0.99
5669.00,0.99
5668.00,0.99
5667.00,0.99
5666.00,0.99
5665.00,0.99
5664.00,0.99
5663.00,0.99
5662.00,0.99
5661.00,0.99
5660.00,1.00
5659.00,1.00
5658.00,1.00
5657.00,1.00
5656.00,1.00
5655.00,1.00
5654.00,1.01
5653.00,1.01
5652.00,1.01
5651.00,1.01
5650.00,1.01
5649.00,1.02
5648.00,1.02
5647.00,1.02
5646.00,1.02
5645.00,1.02
5644.00,1.03
5643.00,1.03
5642.00,1.03
5641.00,1.03
5640.00,1.03
5639.00,1.03
5638.00,1.04
5637.00,1.04
5636.00,1.04
5635.00,1.04
5634.00,1.04
5633.00,1.04
5632.00,1.05
5631.00,1.05
5630.00,1.05
5629.00,1.05
5628.00,1.05
5627.00,1.05
5626.00,1.06
5625.00,1.06
5624.00,1.06
5623.00,1.06
5622.00,1.06
5621.00,1.07
5620.00,1.07
5619.00,1.07
5618.00,1.07
5617.00,1.07
5616.00,1.07
5615.00,1.08
5614.00,1.08
5613.00,1.08
5612.00,1.08
5611.00,1.08
5610.00,1.08
5609.00,1.08
5608.00,1.09
5607.00,1.09
5606.00,1.09
5605.00,1.09
5604.00,1.09
5603.00,1.09
5602.00,1.10
5601.00,1.10
5600.00,1.10
5599.00,1.10
5598.00,1.10
5597.00,1.11
5596.00,1.11
5595.00,1.11
5594.00,1.11
5593.00,1.11
5592.00,1.12
5591.00,1.12
5590.00,1.12
5589.00,1.12
5588.00,1.12
5587.00,1.12
5586.00,1.13
5585.00,1.13
5584.00,1.13
5583.00,1.13
5582.00,1.13
5581.00,1.13
5580.00,1.13
5579.00,1.14
5578.00,1.14
5577.00,1.14
5576.00,1.14
5575.00,1.14
5574.00,1.14
5573.00,1.15
5572.00,1.15
5571.00,1.15
5570.00,1.15
5569.00,1.15
5568.00,1.15
5567.00,1.15
5566.00,1.16
5565.00,1.16
5564.00,1.16
5563.00,1.16
5562.00,1.16
5561.00,1.16
5560.00,1.16
5559.00,1.17
5558.00,1.17
5557.00,1.17
5556.00,1.17
5555.00,1.17
5554.00,1.17
5553.00,1.17
5552.00,1.18
5551.00,1.18
5550.00,1.18
5549.00,1.18
5548.00,1.18
5547.00,1.18
5546.00,1.18
5545.00,1.18
5544.00,1.19
5543.00,1.19
5542.00,1.19
5541.00,1.19
5540.00,1.19
5539.00,1.19
5538.00,1.19
5537.00,1.19
5536.00,1.19
5535.00,1.20
5534.00,1.20
5533.00,1.20
5532.00,1.20
5531.00,1.20
5530.00,1.20
5529.00,1.20
5528.00,1.20
5527.00,1.20
5526.00,1.20
5525.00,1.20
5524.00,1.21
5523.00,1.21
5522.00,1.21
5521.00,1.21
5520.00,1.21
5519.00,1.21
5518.00,1.21
5517.00,1.21
5516.00,1.21
5515.00,1.21
5514.00,1.21
5513.00,1.21
5512.00,1.21
5511.00,1.21
5510.00,1.22
5509.00,1.22
5508.00,1.22
5507.00,1.22
5506.00,1.22
5505.00,1.22
5504.00,1.22
5503.00,1.22
5502.00,1.22
5501.00,1.22
5500.00,1.22
5499.00,1.22
5498.00,1.22
5497.00,1.23
5496.00,1.23
5495.00,1.23
5494.00,1.23
5493.00,1.23
5492.00,1.23
5491.00,1.23
5490.00,1.23
5489.00,1.23
5488.00,1.23
5487.00,1.23
5486.00,1.23
5485.00,1.23
5484.00,1.23
5483.00,1.23
5482.00,1.23
5481.00,1.24
5480.00,1.24
5479.00,1.24
5478.00,1.24
5477.00,1.24
5476.00,1.24
5475.00,1.24
5474.00,1.24
5473.00,1.25
5472.00,1.25
5471.00,1.25
5470.00,1.25
5469.00,1.25
5468.00,1.25
5467.00,1.25
5466.00,1.25
5465.00,1.26
5464.00,1.26
5463.00,1.26
5462.00,1.26
5461.00,1.26
5460.00,1.26
5459.00,1.26
5458.00,1.27
5457.00,1.27
5456.00,1.27
5455.00,1.27
5454.00,1.27
5453.00,1.27
5452.00,1.27
5451.00,1.27
5450.00,1.27
5449.00,1.27
5448.00,1.28
5447.00,1.28
5446.00,1.28
5445.00,1.28
5444.00,1.28
5443.00,1.28
5442.00,1.28
5441.00,1.28
5440.00,1.28
5439.00,1.28
5438.00,1.28
5437.00,1.28
5436.00,1.28
5435.00,1.28
5434.00,1.28
5433.00,1.28
5432.00,1.28
5431.00,1.28
5430.00,1.28
5429.00,1.28
5428.00,1.28
5427.00,1.28
5426.00,1.28
5425.00,1.28
5424.00,1.28
5423.00,1.28
5422.00,1.28
5421.00,1.28
5420.00,1.29
5419.00,1.29
5418.00,1.29
5417.00,1.29
5416.00,1.29
5415.00,1.29
5414.00,1.29
5413.00,1.29
5412.00,1.29
5411.00,1.29
5410.00,1.29
5409.00,1.29
5408.00,1.29
5407.00,1.29
5406.00,1.29
5405.00,1.29
5404.00,1.29
5403.00,1.29
5402.00,1.29
5401.00,1.29
5400.00,1.29
5399.00,1.29
5398.00,1.29
5397.00,1.29
5396.00,1.28
5395.00,1.28
5394.00,1.28
5393.00,1.28
5392.00,1.28
5391.00,1.28
5390.00,1.28
5389.00,1.28
5388.00,1.28
5387.00,1.28
5386.00,1.28
5385.00,1.27
5384.00,1.27
5383.00,1.27
5382.00,1.27
5381.00,1.27
5380.00,1.27
5379.00,1.26
5378.00,1.26
5377.00,1.26
5376.00,1.26
5375.00,1.25
5374.00,1.25
5373.00,1.25
5372.00,1.24
5371.00,1.24
5370.00,1.24
5369.00,1.23
5368.00,1.23
5367.00,1.22
5366.00,1.22
5365.00,1.21
5364.00,1.21
5363.00,1.20
5362.00,1.20
5361.00,1.19
5360.00,1.19
5359.00,1.18
5358.00,1.17
5357.00,1.17
5356.00,1.16
5355.00,1.15
5354.00,1.15
5353.00,1.14
5352.00,1.13
5351.00,1.12
5350.00,1.12
5349.00,1.11
5348.00,1.10
5347.00,1.09
5346.00,1.08
5345.00,1.08
5344.00,1.07
5343.00,1.06
5342.00,1.05
5341.00,1.04
5340.00,1.03
5339.00,1.02
5338.00,1.01
5337.00,1.00
5336.00,0.99
5335.00,0.98
5334.00,0.97
5333.00,0.96
5332.00,0.95
5331.00,0.94
5330.00,0.93
5329.00,0.92
5328.00,0.91
5327.00,0.90
5326.00,0.89
5325.00,0.88
5324.00,0.87
5323.00,0.86
5322.00,0.84
5321.00,0.83
5320.00,0.82
5319.00,0.81
5318.00,0.80
5317.00,0.79
5316.00,0.78
5315.00,0.77
5314.00,0.76
5313.00,0.75
5312.00,0.74
5311.00,0.73
5310.00,0.72
5309.00,0.71
5308.00,0.70
5307.00,0.69
5306.00,0.68
5305.00,0.67
5304.00,0.66
5303.00,0.65
5302.00,0.64
5301.00,0.64
5300.00,0.63
5299.00,0.62
5298.00,0.62
5297.00,0.61
5296.00,0.60
5295.00,0.60
5294.00,0.59
5293.00,0.59
5292.00,0.58
5291.00,0.58
5290.00,0.57
5289.00,0.57
5288.00,0.57
5287.00,0.56
5286.00,0.56
5285.00,0.55
5284.00,0.55
5283.00,0.55
5282.00,0.54
5281.00,0.54
5280.00,0.54
5279.00,0.54
5278.00,0.53
5277.00,0.53
5276.00,0.53
5275.00,0.53
5274.00,0.53
5273.00,0.52
5272.00,0.52
5271.00,0.52
5270.00,0.52
5269.00,0.52
5268.00,0.52
5267.00,0.51
5266.00,0.51
5265.00,0.51
5264.00,0.51
5263.00,0.51
5262.00,0.51
5261.00,0.51
5260.00,0.50
5259.00,0.50
5258.00,0.50
5257.00,0.50
5256.00,0.50
5255.00,0.50
5254.00,0.50
5253.00,0.50
5252.00,0.49
5251.00,0.49
5250.00,0.49
5249.00,0.49
5248.00,0.49
5247.00,0.49
5246.00,0.49
5245.00,0.49
5244.00,0.49
5243.00,0.49
5242.00,0.49
5241.00,0.49
5240.00,0.49
5239.00,0.49
5238.00,0.49
5237.00,0.49
5236.00,0.49
5235.00,0.49
5234.00,0.49
5233.00,0.50
5232.00,0.50
5231.00,0.50
5230.00,0.50
5229.00,0.50
5228.00,0.50
5227.00,0.50
5226.00,0.50
5225.00,0.50
5224.00,0.50
5223.00,0.50
5222.00,0.50
5221.00,0.50
5220.00,0.50
5219.00,0.50
5218.00,0.50
5217.00,0.50
5216.00,0.50
5215.00,0.50
5214.00,0.50
5213.00,0.50
5212.00,0.50
5211.00,0.50
5210.00,0.50
5209.00,0.50
5208.00,0.50
5207.00,0.50
5206.00,0.50
5205.00,0.50
5204.00,0.50
5203.00,0.50
5202.00,0.50
5201.00,0.50
5200.00,0.50
5199.00,0.50
5198.00,0.50
5197.00,0.50
5196.00,0.50
5195.00,0.50
5194.00,0.50
5193.00,0.50
5192.00,0.50
5191.00,0.50
5190.00,0.50
5189.00,0.50
5188.00,0.50
5187.00,0.50
5186.00,0.50
5185.00,0.50
5184.00,0.50
5183.00,0.50
5182.00,0.50
5181.00,0.50
5180.00,0.50
5179.00,0.50
5178.00,0.50
5177.00,0.50
5176.00,0.50
5175.00,0.50
5174.00,0.50
5173.00,0.50
5172.00,0.50
5171.00,0.50
5170.00,0.50
5169.00,0.50
5168.00,0.50
5167.00,0.50
5166.00,0.50
5165.00,0.50
5164.00,0.50
5163.00,0.50
5162.00,0.50
5161.00,0.50
5160.00,0.50
5159.00,0.50
5158.00,0.50
5157.00,0.51
5156.00,0.51
5155.00,0.51
5154.00,0.51
5153.00,0.51
5152.00,0.51
5151.00,0.51
5150.00,0.51
5149.00,0.51
5148.00,0.51
5147.00,0.51
5146.00,0.51
5145.00,0.51
5144.00,0.51
5143.00,0.51
5142.00,0.51
5141.00,0.51
5140.00,0.51
5139.00,0.51
5138.00,0.51
5137.00,0.52
5136.00,0.52
5135.00,0.52
5134.00,0.52
5133.00,0.52
5132.00,0.52
5131.00,0.52
5130.00,0.52
5129.00,0.52
5128.00,0.52
5127.00,0.52
5126.00,0.52
5125.00,0.52
5124.00,0.52
5123.00,0.52
5122.00,0.52
5121.00,0.52
5120.00,0.52
5119.00,0.52
5118.00,0.52
5117.00,0.52
5116.00,0.52
5115.00,0.53
5114.00,0.53
5113.00,0.53
5112.00,0.53
5111.00,0.53
5110.00,0.53
5109.00,0.53
5108.00,0.53
5107.00,0.54
5106.00,0.54
5105.00,0.54
5104.00,0.54
5103.00,0.54
5102.00,0.54
5101.00,0.54
5100.00,0.54
5099.00,0.54
5098.00,0.54
5097.00,0.54
5096.00,0.54
5095.00,0.54
5094.00,0.54
5093.00,0.54
5092.00,0.54
5091.00,0.54
5090.00,0.54
5089.00,0.55
5088.00,0.55
5087.00,0.55
5086.00,0.55
5085.00,0.55
5084.00,0.55
5083.00,0.55
5082.00,0.55
5081.00,0.55
5080.00,0.55
5079.00,0.55
5078.00,0.55
5077.00,0.56
5076.00,0.56
5075.00,0.56
5074.00,0.56
5073.00,0.56
5072.00,0.56
5071.00,0.56
5070.00,0.56
5069.00,0.56
5068.00,0.56
5067.00,0.56
5066.00,0.56
5065.00,0.57
5064.00,0.57
5063.00,0.57
5062.00,0.57
5061.00,0.57
5060.00,0.57
5059.00,0.57
5058.00,0.57
5057.00,0.57
5056.00,0.58
5055.00,0.58
5054.00,0.58
5053.00,0.58
5052.00,0.58
5051.00,0.58
5050.00,0.58
5049.00,0.58
5048.00,0.59
5047.00,0.59
5046.00,0.59
5045.00,0.59
5044.00,0.59
5043.00,0.59
5042.00,0.59
5041.00,0.59
5040.00,0.59
5039.00,0.59
5038.00,0.59
5037.00,0.59
5036.00,0.60
5035.00,0.60
5034.00,0.60
5033.00,0.60
5032.00,0.60
5031.00,0.60
5030.00,0.60
5029.00,0.60
5028.00,0.60
5027.00,0.60
5026.00,0.60
5025.00,0.61
5024.00,0.61
5023.00,0.61
5022.00,0.61
5021.00,0.61
5020.00,0.61
5019.00,0.61
5018.00,0.61
5017.00,0.61
5016.00,0.62
5015.00,0.62
5014.00,0.62
5013.00,0.62
5012.00,0.62
5011.00,0.62
5010.00,0.62
5009.00,0.62
5008.00,0.63
5007.00,0.63
5006.00,0.63
5005.00,0.63
5004.00,0.63
5003.00,0.63
5002.00,0.63
5001.00,0.64
5000.00,0.64
4999.00,0.64
4998.00,0.64
4997.00,0.64
4996.00,0.64
4995.00,0.64
4994.00,0.65
4993.00,0.65
4992.00,0.65
4991.00,0.65
4990.00,0.65
4989.00,0.65
4988.00,0.65
4987.00,0.65
4986.00,0.65
4985.00,0.65
4984.00,0.65
4983.00,0.65
4982.00,0.66
4981.00,0.66
4980.00,0.66
4979.00,0.66
4978.00,0.66
4977.00,0.66
4976.00,0.66
4975.00,0.66
4974.00,0.66
4973.00,0.66
4972.00,0.66
4971.00,0.67
4970.00,0.67
4969.00,0.67
4968.00,0.67
4967.00,0.67
4966.00,0.67
4965.00,0.67
4964.00,0.67
4963.00,0.67
4962.00,0.67
4961.00,0.68
4960.00,0.68
4959.00,0.68
4958.00,0.68
4957.00,0.68
4956.00,0.68
4955.00,0.68
4954.00,0.68
4953.00,0.68
4952.00,0.68
4951.00,0.69
4950.00,0.69
4949.00,0.69
4948.00,0.69
4947.00,0.69
4946.00,0.69
4945.00,0.69
4944.00,0.69
4943.00,0.69
4942.00,0.70
4941.00,0.70
4940.00,0.70
4939.00,0.70
4938.00,0.70
4937.00,0.70
4936.00,0.70
4935.00,0.70
4934.00,0.70
4933.00,0.70
4932.00,0.70
4931.00,0.70
4930.00,0.70
4929.00,0.70
4928.00,0.70
4927.00,0.71
4926.00,0.71
4925.00,0.71
4924.00,0.71
4923.00,0.71
4922.00,0.71
4921.00,0.71
4920.00,0.71
4919.00,0.71
4918.00,0.72
4917.00,0.72
4916.00,0.72
4915.00,0.72
4914.00,0.72
4913.00,0.72
4912.00,0.73
4911.00,0.73
4910.00,0.73
4909.00,0.73
4908.00,0.73
4907.00,0.73
4906.00,0.73
4905.00,0.73
4904.00,0.73
4903.00,0.73
4902.00,0.73
4901.00,0.73
4900.00,0.74
4899.00,0.74
4898.00,0.74
4897.00,0.74
4896.00,0.74
4895.00,0.74
4894.00,0.74
4893.00,0.74
4892.00,0.74
4891.00,0.74
4890.00,0.74
4889.00,0.74
4888.00,0.74
4887.00,0.74
4886.00,0.74
4885.00,0.74
4884.00,0.74
4883.00,0.74
4882.00,0.74
4881.00,0.74
4880.00,0.74
4879.00,0.74
4878.00,0.75
4877.00,0.75
4876.00,0.75
4875.00,0.75
4874.00,0.75
4873.00,0.75
4872.00,0.75
4871.00,0.75
4870.00,0.75
4869.00,0.75
4868.00,0.75
4867.00,0.75
4866.00,0.75
4865.00,0.75
4864.00,0.75
4863.00,0.75
4862.00,0.75
4861.00,0.75
4860.00,0.75
4859.00,0.75
4858.00,0.75
4857.00,0.76
4856.00,0.76
4855.00,0.76
4854.00,0.76
4853.00,0.76
4852.00,0.76
4851.00,0.76
4850.00,0.76
4849.00,0.76
4848.00,0.76
4847.00,0.76
4846.00,0.76
4845.00,0.76
4844.00,0.77
4843.00,0.77
4842.00,0.77
4841.00,0.77
4840.00,0.77
4839.00,0.77
4838.00,0.77
4837.00,0.77
4836.00,0.77
4835.00,0.77
4834.00,0.77
4833.00,0.77
4832.00,0.77
4831.00,0.77
4830.00,0.78
4829.00,0.78
4828.00,0.78
4827.00,0.78
4826.00,0.78
4825.00,0.78
4824.00,0.78
4823.00,0.78
4822.00,0.78
4821.00,0.78
4820.00,0.78
4819.00,0.78
4818.00,0.79
4817.00,0.79
4816.00,0.79
4815.00,0.79
4814.00,0.79
4813.00,0.79
4812.00,0.79
4811.00,0.79
4810.00,0.80
4809.00,0.80
4808.00,0.80
4807.00,0.80
4806.00,0.80
4805.00,0.80
4804.00,0.80
4803.00,0.80
4802.00,0.81
4801.00,0.81
4800.00,0.81
4799.00,0.81
4798.00,0.81
4797.00,0.81
4796.00,0.81
4795.00,0.81
4794.00,0.82
4793.00,0.82
4792.00,0.82
4791.00,0.82
4790.00,0.82
4789.00,0.82
4788.00,0.82
4787.00,0.82
4786.00,0.83
4785.00,0.83
4784.00,0.83
4783.00,0.83
4782.00,0.83
4781.00,0.83
4780.00,0.84
4779.00,0.84
4778.00,0.84
4777.00,0.84
4776.00,0.84
4775.00,0.84
4774.00,0.85
4773.00,0.85
4772.00,0.85
4771.00,0.85
4770.00,0.85
4769.00,0.85
4768.00,0.86
4767.00,0.86
4766.00,0.86
4765.00,0.86
4764.00,0.86
4763.00,0.86
4762.00,0.87
4761.00,0.87
4760.00,0.87
4759.00,0.87
4758.00,0.87
4757.00,0.87
4756.00,0.88
4755.00,0.88
4754.00,0.88
4753.00,0.88
4752.00,0.88
4751.00,0.88
4750.00,0.89
4749.00,0.89
4748.00,0.89
4747.00,0.89
4746.00,0.89
4745.00,0.89
4744.00,0.89
4743.00,0.90
4742.00,0.90
4741.00,0.90
4740.00,0.90
4739.00,0.90
4738.00,0.90
4737.00,0.91
4736.00,0.91
4735.00,0.91
4734.00,0.91
4733.00,0.92
4732.00,0.92
4731.00,0.92
4730.00,0.92
4729.00,0.93
4728.00,0.93
4727.00,0.93
4726.00,0.93
4725.00,0.94
4724.00,0.94
4723.00,0.94
4722.00,0.94
4721.00,0.95
4720.00,0.95
4719.00,0.95
4718.00,0.95
4717.00,0.96
4716.00,0.96
4715.00,0.96
4714.00,0.96
4713.00,0.96
4712.00,0.97
4711.00,0.97
4710.00,0.97
4709.00,0.97
4708.00,0.97
4707.00,0.97
4706.00,0.98
4705.00,0.98
4704.00,0.98
4703.00,0.98
4702.00,0.98
4701.00,0.98
4700.00,0.98
4699.00,0.99
4698.00,0.99
4697.00,0.99
4696.00,0.99
4695.00,0.99
4694.00,0.99
4693.00,0.99
4692.00,1.00
4691.00,1.00
4690.00,1.00
4689.00,1.00
4688.00,1.00
4687.00,1.00
4686.00,1.00
4685.00,1.01
4684.00,1.01
4683.00,1.01
4682.00,1.01
4681.00,1.01
4680.00,1.01
4679.00,1.02
4678.00,1.02
4677.00,1.02
4676.00,1.02
4675.00,1.02
4674.00,1.03
4673.00,1.03
4672.00,1.03
4671.00,1.03
4670.00,1.04
4669.00,1.04
4668.00,1.04
4667.00,1.04
4666.00,1.04
4665.00,1.05
4664.00,1.05
4663.00,1.05
4662.00,1.05
4661.00,1.05
4660.00,1.05
4659.00,1.05
4658.00,1.05
4657.00,1.06
4656.00,1.06
4655.00,1.06
4654.00,1.06
4653.00,1.06
4652.00,1.06
4651.00,1.06
4650.00,1.06
4649.00,1.06
4648.00,1.07
4647.00,1.07
4646.00,1.07
4645.00,1.07
4644.00,1.07
4643.00,1.07
4642.00,1.07
4641.00,1.08
4640.00,1.08
4639.00,1.08
4638.00,1.08
4637.00,1.08
4636.00,1.08
4635.00,1.09
4634.00,1.09
4633.00,1.09
4632.00,1.09
4631.00,1.09
4630.00,1.09
4629.00,1.09
4628.00,1.10
4627.00,1.10
4626.00,1.10
4625.00,1.10
4624.00,1.10
4623.00,1.10
4622.00,1.10
4621.00,1.11
4620.00,1.11
4619.00,1.11
4618.00,1.11
4617.00,1.11
4616.00,1.11
4615.00,1.12
4614.00,1.12
4613.00,1.12
4612.00,1.12
4611.00,1.12
4610.00,1.12
4609.00,1.13
4608.00,1.13
4607.00,1.13
4606.00,1.13
4605.00,1.13
4604.00,1.13
4603.00,1.13
4602.00,1.13
4601.00,1.13
4600.00,1.14
4599.00,1.14
4598.00,1.14
4597.00,1.14
4596.00,1.14
4595.00,1.14
4594.00,1.14
4593.00,1.14
4592.00,1.14
4591.00,1.14
4590.00,1.15
4589.00,1.15
4588.00,1.15
4587.00,1.15
4586.00,1.15
4585.00,1.15
4584.00,1.15
4583.00,1.16
4582.00,1.16
4581.00,1.16
4580.00,1.16
4579.00,1.16
4578.00,1.16
4577.00,1.17
4576.00,1.17
4575.00,1.17
4574.00,1.17
4573.00,1.17
4572.00,1.17
4571.00,1.17
4570.00,1.18
4569.00,1.18
4568.00,1.18
4567.00,1.18
4566.00,1.18
4565.00,1.18
4564.00,1.18
4563.00,1.18
4562.00,1.19
4561.00,1.19
4560.00,1.19
4559.00,1.19
4558.00,1.19
4557.00,1.19
4556.00,1.19
4555.00,1.20
4554.00,1.20
4553.00,1.20
4552.00,1.20
4551.00,1.20
4550.00,1.20
4549.00,1.20
4548.00,1.21
4547.00,1.21
4546.00,1.21
4545.00,1.21
4544.00,1.21
4543.00,1.21
4542.00,1.21
4541.00,1.22
4540.00,1.22
4539.00,1.22
4538.00,1.22
4537.00,1.22
4536.00,1.22
4535.00,1.22
4534.00,1.22
4533.00,1.22
4532.00,1.22
4531.00,1.22
4530.00,1.22
4529.00,1.22
4528.00,1.22
4527.00,1.22
4526.00,1.23
4525.00,1.23
4524.00,1.23
4523.00,1.23
4522.00,1.23
4521.00,1.23
4520.00,1.23
4519.00,1.23
4518.00,1.23
4517.00,1.23
4516.00,1.23
4515.00,1.23
4514.00,1.23
4513.00,1.23
4512.00,1.23
4511.00,1.23
4510.00,1.23
4509.00,1.23
4508.00,1.23
4507.00,1.23
4506.00,1.23
4505.00,1.23
4504.00,1.23
4503.00,1.23
4502.00,1.23
4501.00,1.23
4500.00,1.23
4499.00,1.23
4498.00,1.23
4497.00,1.23
4496.00,1.23
4495.00,1.23
4494.00,1.23
4493.00,1.23
4492.00,1.22
4491.00,1.22
4490.00,1.22
4489.00,1.22
4488.00,1.22
4487.00,1.22
4486.00,1.22
4485.00,1.21
4484.00,1.21
4483.00,1.21
4482.00,1.21
4481.00,1.21
4480.00,1.20
4479.00,1.20
4478.00,1.20
4477.00,1.19
4476.00,1.19
4475.00,1.19
4474.00,1.19
4473.00,1.18
4472.00,1.18
4471.00,1.18
4470.00,1.17
4469.00,1.17
4468.00,1.17
4467.00,1.16
4466.00,1.16
4465.00,1.16
4464.00,1.15
4463.00,1.15
4462.00,1.15
4461.00,1.14
4460.00,1.14
4459.00,1.14
4458.00,1.13
4457.00,1.13
4456.00,1.13
4455.00,1.12
4454.00,1.12
4453.00,1.12
4452.00,1.11
4451.00,1.11
4450.00,1.10
4449.00,1.10
4448.00,1.09
4447.00,1.09
4446.00,1.08
4445.00,1.08
4444.00,1.07
4443.00,1.07
4442.00,1.06
4441.00,1.05
4440.00,1.05
4439.00,1.04
4438.00,1.04
4437.00,1.03
4436.00,1.02
4435.00,1.02
4434.00,1.01
4433.00,1.01
4432.00,1.00
4431.00,1.00
4430.00,1.00
4429.00,0.99
4428.00,0.99
4427.00,0.99
4426.00,0.98
4425.00,0.98
4424.00,0.98
4423.00,0.98
4422.00,0.97
4421.00,0.97
4420.00,0.97
4419.00,0.97
4418.00,0.97
4417.00,0.97
4416.00,0.97
4415.00,0.97
4414.00,0.96
4413.00,0.96
4412.00,0.96
4411.00,0.96
4410.00,0.96
4409.00,0.96
4408.00,0.96
4407.00,0.96
4406.00,0.96
4405.00,0.96
4404.00,0.96
4403.00,0.96
4402.00,0.97
4401.00,0.97
4400.00,0.97
4399.00,0.97
4398.00,0.97
4397.00,0.97
4396.00,0.97
4395.00,0.97
4394.00,0.97
4393.00,0.97
4392.00,0.97
4391.00,0.97
4390.00,0.98
4389.00,0.98
4388.00,0.98
4387.00,0.98
4386.00,0.98
4385.00,0.98
4384.00,0.99
4383.00,0.99
4382.00,0.99
4381.00,0.99
4380.00,0.99
4379.00,1.00
4378.00,1.00
4377.00,1.00
4376.00,1.00
4375.00,1.00
4374.00,1.01
4373.00,1.01
4372.00,1.01
4371.00,1.01
4370.00,1.01
4369.00,1.01
4368.00,1.01
4367.00,1.01
4366.00,1.01
4365.00,1.01
4364.00,1.01
4363.00,1.01
4362.00,1.01
4361.00,1.01
4360.00,1.01
4359.00,1.01
4358.00,1.01
4357.00,1.01
4356.00,1.01
4355.00,1.01
4354.00,1.01
4353.00,1.01
4352.00,1.01
4351.00,1.01
4350.00,1.01
4349.00,1.01
4348.00,1.01
4347.00,1.01
4346.00,1.01
4345.00,1.01
4344.00,1.01
4343.00,1.01
4342.00,1.01
4341.00,1.01
4340.00,1.01
4339.00,1.01
4338.00,1.01
4337.00,1.01
4336.00,1.01
4335.00,1.01
4334.00,1.01
4333.00,1.01
4332.00,1.01
4331.00,1.02
4330.00,1.02
4329.00,1.02
4328.00,1.02
4327.00,1.02
4326.00,1.02
4325.00,1.02
4324.00,1.03
4323.00,1.03
4322.00,1.03
4321.00,1.03
4320.00,1.04
4319.00,1.04
4318.00,1.04
4317.00,1.04
4316.00,1.05
4315.00,1.05
4314.00,1.05
4313.00,1.05
4312.00,1.06
4311.00,1.06
4310.00,1.06
4309.00,1.06
4308.00,1.07
4307.00,1.07
4306.00,1.07
4305.00,1.07
4304.00,1.08
4303.00,1.08
4302.00,1.08
4301.00,1.08
4300.00,1.09
4299.00,1.09
4298.00,1.09
4297.00,1.09
4296.00,1.10
4295.00,1.10
4294.00,1.10
4293.00,1.10
4292.00,1.10
4291.00,1.11
4290.00,1.11
4289.00,1.11
4288.00,1.11
4287.00,1.11
4286.00,1.11
4285.00,1.11
4284.00,1.11
4283.00,1.12
4282.00,1.12
4281.00,1.12
4280.00,1.12
4279.00,1.12
4278.00,1.12
4277.00,1.12
4276.00,1.12
4275.00,1.12
4274.00,1.12
4273.00,1.12
4272.00,1.11
4271.00,1.11
4270.00,1.11
4269.00,1.11
4268.00,1.11
4267.00,1.11
4266.00,1.11
4265.00,1.11
4264.00,1.11
4263.00,1.11
4262.00,1.11
4261.00,1.11
4260.00,1.11
4259.00,1.11
4258.00,1.11
4257.00,1.11
4256.00,1.11
4255.00,1.11
4254.00,1.11
4253.00,1.11
4252.00,1.11
4251.00,1.11
4250.00,1.11
4249.00,1.12
4248.00,1.12
4247.00,1.12
4246.00,1.12
4245.00,1.12
4244.00,1.12
4243.00,1.12
4242.00,1.13
4241.00,1.13
4240.00,1.13
4239.00,1.13
4238.00,1.13
4237.00,1.14
4236.00,1.14
4235.00,1.14
4234.00,1.14
4233.00,1.15
4232.00,1.15
4231.00,1.15
4230.00,1.15
4229.00,1.16
4228.00,1.16
4227.00,1.16
4226.00,1.16
4225.00,1.16
4224.00,1.16
4223.00,1.16
4222.00,1.17
4221.00,1.17
4220.00,1.17
4219.00,1.17
4218.00,1.17
4217.00,1.17
4216.00,1.17
4215.00,1.17
4214.00,1.17
4213.00,1.17
4212.00,1.17
4211.00,1.17
4210.00,1.17
4209.00,1.17
4208.00,1.17
4207.00,1.17
4206.00,1.17
4205.00,1.17
4204.00,1.17
4203.00,1.17
4202.00,1.18
4201.00,1.18
4200.00,1.18
4199.00,1.18
4198.00,1.18
4197.00,1.18
4196.00,1.18
4195.00,1.18
4194.00,1.19
4193.00,1.19
4192.00,1.19
4191.00,1.19
4190.00,1.19
4189.00,1.19
4188.00,1.19
4187.00,1.19
4186.00,1.19
4185.00,1.19
4184.00,1.19
4183.00,1.19
4182.00,1.19
4181.00,1.19
4180.00,1.19
4179.00,1.19
4178.00,1.19
4177.00,1.19
4176.00,1.19
4175.00,1.19
4174.00,1.19
4173.00,1.19
4172.00,1.19
4171.00,1.19
4170.00,1.19
4169.00,1.19
4168.00,1.19
4167.00,1.19
4166.00,1.19
4165.00,1.19
4164.00,1.19
4163.00,1.19
4162.00,1.19
4161.00,1.19
4160.00,1.19
4159.00,1.19
4158.00,1.19
4157.00,1.19
4156.00,1.19
4155.00,1.19
4154.00,1.19
4153.00,1.19
4152.00,1.19
4151.00,1.19
4150.00,1.19
4149.00,1.19
4148.00,1.19
4147.00,1.19
4146.00,1.19
4145.00,1.19
4144.00,1.19
4143.00,1.19
4142.00,1.19
4141.00,1.20
4140.00,1.20
4139.00,1.20
4138.00,1.20
4137.00,1.20
4136.00,1.20
4135.00,1.20
4134.00,1.21
4133.00,1.21
4132.00,1.21
4131.00,1.21
4130.00,1.21
4129.00,1.21
4128.00,1.21
4127.00,1.21
4126.00,1.21
4125.00,1.22
4124.00,1.22
4123.00,1.22
4122.00,1.22
4121.00,1.22
4120.00,1.22
4119.00,1.22
4118.00,1.22
4117.00,1.22
4116.00,1.22
4115.00,1.22
4114.00,1.22
4113.00,1.22
4112.00,1.23
4111.00,1.23
4110.00,1.23
4109.00,1.23
4108.00,1.23
4107.00,1.23
4106.00,1.23
4105.00,1.23
4104.00,1.23
4103.00,1.23
4102.00,1.23
4101.00,1.23
4100.00,1.23
4099.00,1.23
4098.00,1.23
4097.00,1.23
4096.00,1.23
4095.00,1.23
4094.00,1.23
4093.00,1.24
4092.00,1.24
4091.00,1.24
4090.00,1.24
4089.00,1.24
4088.00,1.24
4087.00,1.24
4086.00,1.24
4085.00,1.25
4084.00,1.25
4083.00,1.25
4082.00,1.25
4081.00,1.25
4080.00,1.25
4079.00,1.25
4078.00,1.25
4077.00,1.25
4076.00,1.25
4075.00,1.25
4074.00,1.25
4073.00,1.25
4072.00,1.25
4071.00,1.25
4070.00,1.25
4069.00,1.25
4068.00,1.25
4067.00,1.25
4066.00,1.25
4065.00,1.25
4064.00,1.25
4063.00,1.25
4062.00,1.25
4061.00,1.25
4060.00,1.25
4059.00,1.25
4058.00,1.25
4057.00,1.25
4056.00,1.25
4055.00,1.25
4054.00,1.25
4053.00,1.25
4052.00,1.25
4051.00,1.25
4050.00,1.26
4049.00,1.26
4048.00,1.26
4047.00,1.26
4046.00,1.26
4045.00,1.26
4044.00,1.27
4043.00,1.27
4042.00,1.27
4041.00,1.27
4040.00,1.27
4039.00,1.27
4038.00,1.27
4037.00,1.27
4036.00,1.27
4035.00,1.27
4034.00,1.27
4033.00,1.27
4032.00,1.27
4031.00,1.27
4030.00,1.27
4029.00,1.27
4028.00,1.27
4027.00,1.27
4026.00,1.27
4025.00,1.27
4024.00,1.27
4023.00,1.27
4022.00,1.27
4021.00,1.27
4020.00,1.27
4019.00,1.27
4018.00,1.27
4017.00,1.27
4016.00,1.27
4015.00,1.27
4014.00,1.27
4013.00,1.27
4012.00,1.28
4011.00,1.28
4010.00,1.28
4009.00,1.28
4008.00,1.28
4007.00,1.28
4006.00,1.28
4005.00,1.28
4004.00,1.28
4003.00,1.28
4002.00,1.28
4001.00,1.29
4000.00,1.29
