创建为新数据集,样品 282 用户 Administrator 日期 星期三, 三月 07 2018
cm-1,%T
10000.00,1.18
9999.00,1.18
9998.00,1.18
9997.00,1.18
9996.00,1.18
9995.00,1.17
9994.00,1.17
9993.00,1.17
9992.00,1.17
9991.00,1.17
9990.00,1.17
9989.00,1.17
9988.00,1.17
9987.00,1.17
9986.00,1.17
9985.00,1.17
9984.00,1.17
9983.00,1.17
9982.00,1.16
9981.00,1.16
9980.00,1.16
9979.00,1.16
9978.00,1.16
9977.00,1.16
9976.00,1.16
9975.00,1.16
9974.00,1.16
9973.00,1.16
9972.00,1.16
9971.00,1.16
9970.00,1.16
9969.00,1.16
9968.00,1.16
9967.00,1.15
9966.00,1.15
9965.00,1.15
9964.00,1.15
9963.00,1.15
9962.00,1.15
9961.00,1.15
9960.00,1.15
9959.00,1.15
9958.00,1.15
9957.00,1.15
9956.00,1.15
9955.00,1.15
9954.00,1.15
9953.00,1.14
9952.00,1.14
9951.00,1.14
9950.00,1.14
9949.00,1.14
9948.00,1.13
9947.00,1.13
9946.00,1.13
9945.00,1.13
9944.00,1.13
9943.00,1.13
9942.00,1.13
9941.00,1.13
9940.00,1.13
9939.00,1.13
9938.00,1.13
9937.00,1.13
9936.00,1.14
9935.00,1.14
9934.00,1.14
9933.00,1.15
9932.00,1.15
9931.00,1.15
9930.00,1.15
9929.00,1.16
9928.00,1.16
9927.00,1.16
9926.00,1.16
9925.00,1.16
9924.00,1.16
9923.00,1.16
9922.00,1.16
9921.00,1.16
9920.00,1.16
9919.00,1.16
9918.00,1.16
9917.00,1.16
9916.00,1.16
9915.00,1.16
9914.00,1.16
9913.00,1.16
9912.00,1.16
9911.00,1.16
9910.00,1.16
9909.00,1.17
9908.00,1.17
9907.00,1.17
9906.00,1.17
9905.00,1.17
9904.00,1.17
9903.00,1.17
9902.00,1.17
9901.00,1.17
9900.00,1.17
9899.00,1.16
9898.00,1.16
9897.00,1.16
9896.00,1.16
9895.00,1.16
9894.00,1.15
9893.00,1.15
9892.00,1.15
9891.00,1.15
9890.00,1.14
9889.00,1.14
9888.00,1.14
9887.00,1.14
9886.00,1.14
9885.00,1.14
9884.00,1.14
9883.00,1.14
9882.00,1.14
9881.00,1.14
9880.00,1.14
9879.00,1.14
9878.00,1.13
9877.00,1.13
9876.00,1.13
9875.00,1.13
9874.00,1.13
9873.00,1.13
9872.00,1.13
9871.00,1.13
9870.00,1.13
9869.00,1.13
9868.00,1.13
9867.00,1.13
9866.00,1.13
9865.00,1.13
9864.00,1.13
9863.00,1.13
9862.00,1.14
9861.00,1.14
9860.00,1.14
9859.00,1.14
9858.00,1.14
9857.00,1.14
9856.00,1.14
9855.00,1.15
9854.00,1.15
9853.00,1.15
9852.00,1.15
9851.00,1.15
9850.00,1.15
9849.00,1.14
9848.00,1.14
9847.00,1.14
9846.00,1.14
9845.00,1.14
9844.00,1.14
9843.00,1.14
9842.00,1.14
9841.00,1.14
9840.00,1.13
9839.00,1.13
9838.00,1.13
9837.00,1.13
9836.00,1.13
9835.00,1.13
9834.00,1.13
9833.00,1.13
9832.00,1.13
9831.00,1.13
9830.00,1.14
9829.00,1.14
9828.00,1.14
9827.00,1.14
9826.00,1.14
9825.00,1.14
9824.00,1.14
9823.00,1.14
9822.00,1.14
9821.00,1.14
9820.00,1.14
9819.00,1.14
9818.00,1.14
9817.00,1.14
9816.00,1.14
9815.00,1.14
9814.00,1.14
9813.00,1.13
9812.00,1.13
9811.00,1.13
9810.00,1.13
9809.00,1.13
9808.00,1.13
9807.00,1.12
9806.00,1.12
9805.00,1.12
9804.00,1.12
9803.00,1.11
9802.00,1.11
9801.00,1.11
9800.00,1.11
9799.00,1.11
9798.00,1.10
9797.00,1.10
9796.00,1.10
9795.00,1.10
9794.00,1.10
9793.00,1.11
9792.00,1.11
9791.00,1.11
9790.00,1.11
9789.00,1.11
9788.00,1.12
9787.00,1.12
9786.00,1.13
9785.00,1.13
9784.00,1.13
9783.00,1.14
9782.00,1.14
9781.00,1.14
9780.00,1.15
9779.00,1.15
9778.00,1.16
9777.00,1.16
9776.00,1.16
9775.00,1.16
9774.00,1.17
9773.00,1.17
9772.00,1.17
9771.00,1.17
9770.00,1.18
9769.00,1.18
9768.00,1.18
9767.00,1.18
9766.00,1.18
9765.00,1.18
9764.00,1.18
9763.00,1.18
9762.00,1.18
9761.00,1.18
9760.00,1.17
9759.00,1.17
9758.00,1.17
9757.00,1.17
9756.00,1.16
9755.00,1.16
9754.00,1.15
9753.00,1.15
9752.00,1.15
9751.00,1.14
9750.00,1.14
9749.00,1.14
9748.00,1.13
9747.00,1.13
9746.00,1.13
9745.00,1.12
9744.00,1.12
9743.00,1.12
9742.00,1.12
9741.00,1.12
9740.00,1.11
9739.00,1.11
9738.00,1.11
9737.00,1.11
9736.00,1.11
9735.00,1.11
9734.00,1.11
9733.00,1.11
9732.00,1.11
9731.00,1.11
9730.00,1.11
9729.00,1.11
9728.00,1.11
9727.00,1.11
9726.00,1.11
9725.00,1.11
9724.00,1.12
9723.00,1.12
9722.00,1.12
9721.00,1.12
9720.00,1.13
9719.00,1.13
9718.00,1.13
9717.00,1.14
9716.00,1.14
9715.00,1.14
9714.00,1.15
9713.00,1.15
9712.00,1.15
9711.00,1.15
9710.00,1.15
9709.00,1.16
9708.00,1.16
9707.00,1.16
9706.00,1.16
9705.00,1.16
9704.00,1.16
9703.00,1.15
9702.00,1.15
9701.00,1.15
9700.00,1.15
9699.00,1.15
9698.00,1.14
9697.00,1.14
9696.00,1.14
9695.00,1.13
9694.00,1.13
9693.00,1.13
9692.00,1.13
9691.00,1.12
9690.00,1.12
9689.00,1.12
9688.00,1.12
9687.00,1.12
9686.00,1.12
9685.00,1.12
9684.00,1.12
9683.00,1.12
9682.00,1.12
9681.00,1.12
9680.00,1.12
9679.00,1.12
9678.00,1.12
9677.00,1.12
9676.00,1.12
9675.00,1.12
9674.00,1.12
9673.00,1.12
9672.00,1.11
9671.00,1.11
9670.00,1.11
9669.00,1.11
9668.00,1.10
9667.00,1.10
9666.00,1.10
9665.00,1.10
9664.00,1.10
9663.00,1.09
9662.00,1.09
9661.00,1.09
9660.00,1.09
9659.00,1.09
9658.00,1.10
9657.00,1.10
9656.00,1.10
9655.00,1.10
9654.00,1.10
9653.00,1.11
9652.00,1.11
9651.00,1.11
9650.00,1.11
9649.00,1.12
9648.00,1.12
9647.00,1.12
9646.00,1.12
9645.00,1.12
9644.00,1.13
9643.00,1.13
9642.00,1.13
9641.00,1.13
9640.00,1.13
9639.00,1.13
9638.00,1.13
9637.00,1.14
9636.00,1.14
9635.00,1.14
9634.00,1.14
9633.00,1.14
9632.00,1.15
9631.00,1.15
9630.00,1.15
9629.00,1.15
9628.00,1.15
9627.00,1.16
9626.00,1.16
9625.00,1.16
9624.00,1.16
9623.00,1.16
9622.00,1.16
9621.00,1.16
9620.00,1.16
9619.00,1.16
9618.00,1.16
9617.00,1.16
9616.00,1.16
9615.00,1.16
9614.00,1.16
9613.00,1.15
9612.00,1.15
9611.00,1.15
9610.00,1.15
9609.00,1.15
9608.00,1.15
9607.00,1.15
9606.00,1.15
9605.00,1.15
9604.00,1.15
9603.00,1.15
9602.00,1.15
9601.00,1.15
9600.00,1.15
9599.00,1.15
9598.00,1.14
9597.00,1.14
9596.00,1.14
9595.00,1.14
9594.00,1.14
9593.00,1.14
9592.00,1.14
9591.00,1.14
9590.00,1.14
9589.00,1.14
9588.00,1.13
9587.00,1.13
9586.00,1.13
9585.00,1.13
9584.00,1.13
9583.00,1.13
9582.00,1.13
9581.00,1.13
9580.00,1.13
9579.00,1.12
9578.00,1.12
9577.00,1.12
9576.00,1.12
9575.00,1.12
9574.00,1.12
9573.00,1.12
9572.00,1.12
9571.00,1.12
9570.00,1.12
9569.00,1.12
9568.00,1.13
9567.00,1.13
9566.00,1.13
9565.00,1.13
9564.00,1.13
9563.00,1.13
9562.00,1.13
9561.00,1.13
9560.00,1.13
9559.00,1.13
9558.00,1.13
9557.00,1.13
9556.00,1.13
9555.00,1.13
9554.00,1.13
9553.00,1.12
9552.00,1.12
9551.00,1.12
9550.00,1.12
9549.00,1.12
9548.00,1.12
9547.00,1.12
9546.00,1.12
9545.00,1.12
9544.00,1.12
9543.00,1.12
9542.00,1.12
9541.00,1.12
9540.00,1.13
9539.00,1.13
9538.00,1.13
9537.00,1.13
9536.00,1.14
9535.00,1.14
9534.00,1.14
9533.00,1.14
9532.00,1.15
9531.00,1.15
9530.00,1.15
9529.00,1.16
9528.00,1.16
9527.00,1.16
9526.00,1.16
9525.00,1.16
9524.00,1.16
9523.00,1.17
9522.00,1.17
9521.00,1.17
9520.00,1.17
9519.00,1.17
9518.00,1.17
9517.00,1.17
9516.00,1.16
9515.00,1.16
9514.00,1.16
9513.00,1.16
9512.00,1.16
9511.00,1.16
9510.00,1.16
9509.00,1.16
9508.00,1.16
9507.00,1.16
9506.00,1.16
9505.00,1.16
9504.00,1.16
9503.00,1.16
9502.00,1.16
9501.00,1.16
9500.00,1.15
9499.00,1.15
9498.00,1.15
9497.00,1.15
9496.00,1.15
9495.00,1.15
9494.00,1.15
9493.00,1.15
9492.00,1.15
9491.00,1.15
9490.00,1.15
9489.00,1.15
9488.00,1.15
9487.00,1.15
9486.00,1.15
9485.00,1.15
9484.00,1.15
9483.00,1.15
9482.00,1.15
9481.00,1.15
9480.00,1.15
9479.00,1.15
9478.00,1.15
9477.00,1.15
9476.00,1.15
9475.00,1.15
9474.00,1.15
9473.00,1.15
9472.00,1.15
9471.00,1.15
9470.00,1.15
9469.00,1.15
9468.00,1.15
9467.00,1.15
9466.00,1.15
9465.00,1.14
9464.00,1.14
9463.00,1.14
9462.00,1.14
9461.00,1.14
9460.00,1.14
9459.00,1.13
9458.00,1.13
9457.00,1.13
9456.00,1.13
9455.00,1.13
9454.00,1.13
9453.00,1.13
9452.00,1.13
9451.00,1.13
9450.00,1.14
9449.00,1.14
9448.00,1.14
9447.00,1.14
9446.00,1.14
9445.00,1.14
9444.00,1.14
9443.00,1.14
9442.00,1.14
9441.00,1.14
9440.00,1.14
9439.00,1.14
9438.00,1.14
9437.00,1.14
9436.00,1.14
9435.00,1.14
9434.00,1.14
9433.00,1.14
9432.00,1.14
9431.00,1.14
9430.00,1.14
9429.00,1.14
9428.00,1.14
9427.00,1.14
9426.00,1.15
9425.00,1.15
9424.00,1.15
9423.00,1.15
9422.00,1.15
9421.00,1.15
9420.00,1.15
9419.00,1.15
9418.00,1.15
9417.00,1.15
9416.00,1.15
9415.00,1.15
9414.00,1.15
9413.00,1.15
9412.00,1.15
9411.00,1.15
9410.00,1.15
9409.00,1.15
9408.00,1.15
9407.00,1.15
9406.00,1.15
9405.00,1.15
9404.00,1.15
9403.00,1.15
9402.00,1.15
9401.00,1.15
9400.00,1.15
9399.00,1.15
9398.00,1.15
9397.00,1.15
9396.00,1.14
9395.00,1.14
9394.00,1.14
9393.00,1.14
9392.00,1.14
9391.00,1.14
9390.00,1.13
9389.00,1.13
9388.00,1.13
9387.00,1.13
9386.00,1.13
9385.00,1.13
9384.00,1.13
9383.00,1.13
9382.00,1.13
9381.00,1.13
9380.00,1.13
9379.00,1.13
9378.00,1.13
9377.00,1.13
9376.00,1.13
9375.00,1.13
9374.00,1.13
9373.00,1.14
9372.00,1.14
9371.00,1.14
9370.00,1.14
9369.00,1.15
9368.00,1.15
9367.00,1.15
9366.00,1.16
9365.00,1.16
9364.00,1.16
9363.00,1.17
9362.00,1.17
9361.00,1.17
9360.00,1.17
9359.00,1.18
9358.00,1.18
9357.00,1.18
9356.00,1.18
9355.00,1.18
9354.00,1.18
9353.00,1.18
9352.00,1.18
9351.00,1.17
9350.00,1.17
9349.00,1.17
9348.00,1.17
9347.00,1.16
9346.00,1.16
9345.00,1.16
9344.00,1.16
9343.00,1.16
9342.00,1.15
9341.00,1.15
9340.00,1.15
9339.00,1.15
9338.00,1.15
9337.00,1.15
9336.00,1.15
9335.00,1.15
9334.00,1.15
9333.00,1.15
9332.00,1.14
9331.00,1.14
9330.00,1.14
9329.00,1.14
9328.00,1.14
9327.00,1.14
9326.00,1.14
9325.00,1.14
9324.00,1.13
9323.00,1.13
9322.00,1.13
9321.00,1.13
9320.00,1.13
9319.00,1.13
9318.00,1.13
9317.00,1.13
9316.00,1.13
9315.00,1.13
9314.00,1.13
9313.00,1.13
9312.00,1.13
9311.00,1.13
9310.00,1.13
9309.00,1.13
9308.00,1.13
9307.00,1.14
9306.00,1.14
9305.00,1.14
9304.00,1.14
9303.00,1.14
9302.00,1.14
9301.00,1.14
9300.00,1.14
9299.00,1.14
9298.00,1.14
9297.00,1.14
9296.00,1.14
9295.00,1.14
9294.00,1.14
9293.00,1.14
9292.00,1.14
9291.00,1.14
9290.00,1.14
9289.00,1.14
9288.00,1.14
9287.00,1.14
9286.00,1.14
9285.00,1.14
9284.00,1.14
9283.00,1.14
9282.00,1.14
9281.00,1.14
9280.00,1.14
9279.00,1.14
9278.00,1.14
9277.00,1.14
9276.00,1.14
9275.00,1.14
9274.00,1.14
9273.00,1.14
9272.00,1.14
9271.00,1.14
9270.00,1.14
9269.00,1.14
9268.00,1.14
9267.00,1.14
9266.00,1.14
9265.00,1.14
9264.00,1.14
9263.00,1.14
9262.00,1.14
9261.00,1.14
9260.00,1.14
9259.00,1.14
9258.00,1.14
9257.00,1.14
9256.00,1.14
9255.00,1.14
9254.00,1.14
9253.00,1.14
9252.00,1.14
9251.00,1.14
9250.00,1.14
9249.00,1.14
9248.00,1.14
9247.00,1.14
9246.00,1.14
9245.00,1.14
9244.00,1.14
9243.00,1.14
9242.00,1.14
9241.00,1.14
9240.00,1.14
9239.00,1.14
9238.00,1.14
9237.00,1.13
9236.00,1.13
9235.00,1.13
9234.00,1.13
9233.00,1.13
9232.00,1.13
9231.00,1.13
9230.00,1.13
9229.00,1.13
9228.00,1.13
9227.00,1.13
9226.00,1.13
9225.00,1.13
9224.00,1.13
9223.00,1.13
9222.00,1.13
9221.00,1.13
9220.00,1.13
9219.00,1.13
9218.00,1.13
9217.00,1.13
9216.00,1.13
9215.00,1.13
9214.00,1.13
9213.00,1.13
9212.00,1.13
9211.00,1.13
9210.00,1.13
9209.00,1.13
9208.00,1.13
9207.00,1.13
9206.00,1.14
9205.00,1.14
9204.00,1.14
9203.00,1.14
9202.00,1.14
9201.00,1.14
9200.00,1.14
9199.00,1.14
9198.00,1.14
9197.00,1.14
9196.00,1.14
9195.00,1.14
9194.00,1.14
9193.00,1.14
9192.00,1.14
9191.00,1.14
9190.00,1.14
9189.00,1.14
9188.00,1.15
9187.00,1.15
9186.00,1.15
9185.00,1.15
9184.00,1.15
9183.00,1.15
9182.00,1.16
9181.00,1.16
9180.00,1.16
9179.00,1.16
9178.00,1.16
9177.00,1.16
9176.00,1.16
9175.00,1.16
9174.00,1.16
9173.00,1.16
9172.00,1.16
9171.00,1.16
9170.00,1.15
9169.00,1.15
9168.00,1.15
9167.00,1.15
9166.00,1.14
9165.00,1.14
9164.00,1.14
9163.00,1.13
9162.00,1.13
9161.00,1.13
9160.00,1.13
9159.00,1.13
9158.00,1.13
9157.00,1.13
9156.00,1.13
9155.00,1.13
9154.00,1.14
9153.00,1.14
9152.00,1.14
9151.00,1.15
9150.00,1.15
9149.00,1.15
9148.00,1.16
9147.00,1.16
9146.00,1.16
9145.00,1.16
9144.00,1.16
9143.00,1.16
9142.00,1.16
9141.00,1.16
9140.00,1.16
9139.00,1.16
9138.00,1.16
9137.00,1.16
9136.00,1.15
9135.00,1.15
9134.00,1.15
9133.00,1.15
9132.00,1.15
9131.00,1.14
9130.00,1.14
9129.00,1.14
9128.00,1.14
9127.00,1.14
9126.00,1.14
9125.00,1.14
9124.00,1.14
9123.00,1.15
9122.00,1.15
9121.00,1.15
9120.00,1.15
9119.00,1.15
9118.00,1.15
9117.00,1.15
9116.00,1.15
9115.00,1.16
9114.00,1.16
9113.00,1.16
9112.00,1.16
9111.00,1.16
9110.00,1.16
9109.00,1.16
9108.00,1.16
9107.00,1.16
9106.00,1.16
9105.00,1.17
9104.00,1.17
9103.00,1.17
9102.00,1.17
9101.00,1.17
9100.00,1.17
9099.00,1.17
9098.00,1.17
9097.00,1.17
9096.00,1.17
9095.00,1.17
9094.00,1.17
9093.00,1.17
9092.00,1.17
9091.00,1.17
9090.00,1.17
9089.00,1.17
9088.00,1.17
9087.00,1.17
9086.00,1.17
9085.00,1.17
9084.00,1.17
9083.00,1.17
9082.00,1.17
9081.00,1.17
9080.00,1.17
9079.00,1.16
9078.00,1.16
9077.00,1.16
9076.00,1.16
9075.00,1.16
9074.00,1.16
9073.00,1.15
9072.00,1.15
9071.00,1.15
9070.00,1.15
9069.00,1.14
9068.00,1.14
9067.00,1.14
9066.00,1.14
9065.00,1.13
9064.00,1.13
9063.00,1.13
9062.00,1.13
9061.00,1.13
9060.00,1.13
9059.00,1.12
9058.00,1.12
9057.00,1.12
9056.00,1.12
9055.00,1.12
9054.00,1.12
9053.00,1.12
9052.00,1.13
9051.00,1.13
9050.00,1.13
9049.00,1.13
9048.00,1.13
9047.00,1.14
9046.00,1.14
9045.00,1.14
9044.00,1.15
9043.00,1.15
9042.00,1.15
9041.00,1.15
9040.00,1.16
9039.00,1.16
9038.00,1.16
9037.00,1.16
9036.00,1.17
9035.00,1.17
9034.00,1.17
9033.00,1.17
9032.00,1.17
9031.00,1.17
9030.00,1.17
9029.00,1.17
9028.00,1.17
9027.00,1.17
9026.00,1.17
9025.00,1.17
9024.00,1.17
9023.00,1.17
9022.00,1.17
9021.00,1.17
9020.00,1.17
9019.00,1.17
9018.00,1.17
9017.00,1.17
9016.00,1.17
9015.00,1.18
9014.00,1.18
9013.00,1.18
9012.00,1.18
9011.00,1.18
9010.00,1.18
9009.00,1.18
9008.00,1.18
9007.00,1.18
9006.00,1.18
9005.00,1.18
9004.00,1.18
9003.00,1.18
9002.00,1.18
9001.00,1.18
9000.00,1.18
8999.00,1.18
8998.00,1.18
8997.00,1.18
8996.00,1.18
8995.00,1.18
8994.00,1.17
8993.00,1.17
8992.00,1.17
8991.00,1.17
8990.00,1.17
8989.00,1.17
8988.00,1.17
8987.00,1.17
8986.00,1.17
8985.00,1.17
8984.00,1.17
8983.00,1.17
8982.00,1.17
8981.00,1.16
8980.00,1.16
8979.00,1.16
8978.00,1.16
8977.00,1.16
8976.00,1.16
8975.00,1.16
8974.00,1.16
8973.00,1.16
8972.00,1.16
8971.00,1.16
8970.00,1.16
8969.00,1.16
8968.00,1.16
8967.00,1.16
8966.00,1.16
8965.00,1.16
8964.00,1.16
8963.00,1.16
8962.00,1.16
8961.00,1.15
8960.00,1.15
8959.00,1.15
8958.00,1.15
8957.00,1.15
8956.00,1.14
8955.00,1.14
8954.00,1.14
8953.00,1.14
8952.00,1.14
8951.00,1.14
8950.00,1.14
8949.00,1.14
8948.00,1.14
8947.00,1.15
8946.00,1.15
8945.00,1.15
8944.00,1.15
8943.00,1.16
8942.00,1.16
8941.00,1.16
8940.00,1.16
8939.00,1.16
8938.00,1.16
8937.00,1.16
8936.00,1.16
8935.00,1.16
8934.00,1.16
8933.00,1.16
8932.00,1.16
8931.00,1.15
8930.00,1.15
8929.00,1.15
8928.00,1.15
8927.00,1.15
8926.00,1.14
8925.00,1.14
8924.00,1.14
8923.00,1.14
8922.00,1.14
8921.00,1.14
8920.00,1.14
8919.00,1.15
8918.00,1.15
8917.00,1.15
8916.00,1.15
8915.00,1.15
8914.00,1.15
8913.00,1.15
8912.00,1.16
8911.00,1.16
8910.00,1.16
8909.00,1.16
8908.00,1.16
8907.00,1.16
8906.00,1.16
8905.00,1.16
8904.00,1.16
8903.00,1.16
8902.00,1.15
8901.00,1.15
8900.00,1.15
8899.00,1.15
8898.00,1.15
8897.00,1.15
8896.00,1.15
8895.00,1.15
8894.00,1.15
8893.00,1.15
8892.00,1.15
8891.00,1.15
8890.00,1.15
8889.00,1.15
8888.00,1.15
8887.00,1.15
8886.00,1.15
8885.00,1.15
8884.00,1.15
8883.00,1.15
8882.00,1.16
8881.00,1.16
8880.00,1.16
8879.00,1.16
8878.00,1.16
8877.00,1.17
8876.00,1.17
8875.00,1.17
8874.00,1.17
8873.00,1.17
8872.00,1.18
8871.00,1.18
8870.00,1.18
8869.00,1.18
8868.00,1.18
8867.00,1.18
8866.00,1.18
8865.00,1.18
8864.00,1.18
8863.00,1.18
8862.00,1.18
8861.00,1.18
8860.00,1.17
8859.00,1.17
8858.00,1.17
8857.00,1.17
8856.00,1.17
8855.00,1.17
8854.00,1.16
8853.00,1.16
8852.00,1.16
8851.00,1.16
8850.00,1.16
8849.00,1.16
8848.00,1.16
8847.00,1.15
8846.00,1.15
8845.00,1.15
8844.00,1.15
8843.00,1.15
8842.00,1.15
8841.00,1.15
8840.00,1.15
8839.00,1.15
8838.00,1.15
8837.00,1.15
8836.00,1.15
8835.00,1.15
8834.00,1.15
8833.00,1.15
8832.00,1.15
8831.00,1.16
8830.00,1.16
8829.00,1.16
8828.00,1.16
8827.00,1.16
8826.00,1.16
8825.00,1.16
8824.00,1.16
8823.00,1.16
8822.00,1.16
8821.00,1.16
8820.00,1.16
8819.00,1.15
8818.00,1.15
8817.00,1.15
8816.00,1.15
8815.00,1.15
8814.00,1.15
8813.00,1.15
8812.00,1.15
8811.00,1.14
8810.00,1.14
8809.00,1.14
8808.00,1.14
8807.00,1.14
8806.00,1.15
8805.00,1.15
8804.00,1.15
8803.00,1.15
8802.00,1.15
8801.00,1.15
8800.00,1.15
8799.00,1.15
8798.00,1.15
8797.00,1.15
8796.00,1.14
8795.00,1.14
8794.00,1.14
8793.00,1.14
8792.00,1.14
8791.00,1.14
8790.00,1.14
8789.00,1.13
8788.00,1.13
8787.00,1.13
8786.00,1.13
8785.00,1.13
8784.00,1.13
8783.00,1.13
8782.00,1.12
8781.00,1.12
8780.00,1.12
8779.00,1.12
8778.00,1.12
8777.00,1.12
8776.00,1.11
8775.00,1.11
8774.00,1.11
8773.00,1.10
8772.00,1.10
8771.00,1.10
8770.00,1.10
8769.00,1.09
8768.00,1.09
8767.00,1.09
8766.00,1.09
8765.00,1.09
8764.00,1.09
8763.00,1.09
8762.00,1.09
8761.00,1.09
8760.00,1.09
8759.00,1.09
8758.00,1.09
8757.00,1.10
8756.00,1.10
8755.00,1.10
8754.00,1.10
8753.00,1.10
8752.00,1.11
8751.00,1.11
8750.00,1.11
8749.00,1.11
8748.00,1.11
8747.00,1.11
8746.00,1.11
8745.00,1.11
8744.00,1.11
8743.00,1.11
8742.00,1.11
8741.00,1.11
8740.00,1.11
8739.00,1.11
8738.00,1.11
8737.00,1.11
8736.00,1.11
8735.00,1.11
8734.00,1.11
8733.00,1.11
8732.00,1.11
8731.00,1.11
8730.00,1.11
8729.00,1.11
8728.00,1.11
8727.00,1.11
8726.00,1.11
8725.00,1.11
8724.00,1.11
8723.00,1.11
8722.00,1.11
8721.00,1.11
8720.00,1.11
8719.00,1.11
8718.00,1.11
8717.00,1.11
8716.00,1.11
8715.00,1.11
8714.00,1.11
8713.00,1.11
8712.00,1.11
8711.00,1.10
8710.00,1.10
8709.00,1.10
8708.00,1.10
8707.00,1.10
8706.00,1.10
8705.00,1.10
8704.00,1.10
8703.00,1.10
8702.00,1.10
8701.00,1.10
8700.00,1.10
8699.00,1.10
8698.00,1.10
8697.00,1.10
8696.00,1.10
8695.00,1.09
8694.00,1.09
8693.00,1.09
8692.00,1.09
8691.00,1.09
8690.00,1.09
8689.00,1.09
8688.00,1.09
8687.00,1.09
8686.00,1.09
8685.00,1.09
8684.00,1.09
8683.00,1.09
8682.00,1.09
8681.00,1.09
8680.00,1.09
8679.00,1.10
8678.00,1.10
8677.00,1.10
8676.00,1.10
8675.00,1.10
8674.00,1.10
8673.00,1.10
8672.00,1.10
8671.00,1.10
8670.00,1.10
8669.00,1.11
8668.00,1.11
8667.00,1.11
8666.00,1.11
8665.00,1.11
8664.00,1.11
8663.00,1.10
8662.00,1.10
8661.00,1.10
8660.00,1.10
8659.00,1.10
8658.00,1.10
8657.00,1.10
8656.00,1.10
8655.00,1.10
8654.00,1.10
8653.00,1.10
8652.00,1.10
8651.00,1.09
8650.00,1.09
8649.00,1.09
8648.00,1.09
8647.00,1.09
8646.00,1.09
8645.00,1.09
8644.00,1.09
8643.00,1.09
8642.00,1.09
8641.00,1.09
8640.00,1.09
8639.00,1.09
8638.00,1.09
8637.00,1.09
8636.00,1.09
8635.00,1.09
8634.00,1.09
8633.00,1.09
8632.00,1.09
8631.00,1.09
8630.00,1.08
8629.00,1.08
8628.00,1.08
8627.00,1.08
8626.00,1.08
8625.00,1.08
8624.00,1.07
8623.00,1.07
8622.00,1.07
8621.00,1.07
8620.00,1.07
8619.00,1.07
8618.00,1.07
8617.00,1.07
8616.00,1.08
8615.00,1.08
8614.00,1.08
8613.00,1.08
8612.00,1.08
8611.00,1.08
8610.00,1.08
8609.00,1.08
8608.00,1.08
8607.00,1.08
8606.00,1.08
8605.00,1.08
8604.00,1.08
8603.00,1.08
8602.00,1.08
8601.00,1.08
8600.00,1.08
8599.00,1.08
8598.00,1.08
8597.00,1.08
8596.00,1.08
8595.00,1.08
8594.00,1.08
8593.00,1.08
8592.00,1.08
8591.00,1.08
8590.00,1.08
8589.00,1.08
8588.00,1.08
8587.00,1.08
8586.00,1.08
8585.00,1.08
8584.00,1.08
8583.00,1.08
8582.00,1.08
8581.00,1.08
8580.00,1.08
8579.00,1.08
8578.00,1.08
8577.00,1.08
8576.00,1.08
8575.00,1.07
8574.00,1.07
8573.00,1.07
8572.00,1.07
8571.00,1.07
8570.00,1.06
8569.00,1.06
8568.00,1.06
8567.00,1.06
8566.00,1.06
8565.00,1.06
8564.00,1.06
8563.00,1.06
8562.00,1.06
8561.00,1.06
8560.00,1.06
8559.00,1.06
8558.00,1.06
8557.00,1.06
8556.00,1.06
8555.00,1.06
8554.00,1.06
8553.00,1.06
8552.00,1.06
8551.00,1.06
8550.00,1.06
8549.00,1.06
8548.00,1.06
8547.00,1.06
8546.00,1.06
8545.00,1.06
8544.00,1.06
8543.00,1.06
8542.00,1.06
8541.00,1.05
8540.00,1.05
8539.00,1.05
8538.00,1.05
8537.00,1.05
8536.00,1.05
8535.00,1.05
8534.00,1.05
8533.00,1.05
8532.00,1.05
8531.00,1.05
8530.00,1.05
8529.00,1.05
8528.00,1.05
8527.00,1.05
8526.00,1.05
8525.00,1.06
8524.00,1.06
8523.00,1.06
8522.00,1.06
8521.00,1.06
8520.00,1.06
8519.00,1.06
8518.00,1.06
8517.00,1.06
8516.00,1.06
8515.00,1.05
8514.00,1.05
8513.00,1.05
8512.00,1.05
8511.00,1.05
8510.00,1.05
8509.00,1.05
8508.00,1.05
8507.00,1.04
8506.00,1.04
8505.00,1.04
8504.00,1.04
8503.00,1.04
8502.00,1.04
8501.00,1.04
8500.00,1.05
8499.00,1.05
8498.00,1.05
8497.00,1.05
8496.00,1.05
8495.00,1.05
8494.00,1.05
8493.00,1.06
8492.00,1.06
8491.00,1.06
8490.00,1.06
8489.00,1.06
8488.00,1.06
8487.00,1.06
8486.00,1.06
8485.00,1.06
8484.00,1.06
8483.00,1.06
8482.00,1.06
8481.00,1.05
8480.00,1.05
8479.00,1.05
8478.00,1.05
8477.00,1.05
8476.00,1.04
8475.00,1.04
8474.00,1.04
8473.00,1.04
8472.00,1.04
8471.00,1.04
8470.00,1.03
8469.00,1.03
8468.00,1.03
8467.00,1.03
8466.00,1.03
8465.00,1.03
8464.00,1.03
8463.00,1.03
8462.00,1.03
8461.00,1.03
8460.00,1.03
8459.00,1.03
8458.00,1.03
8457.00,1.03
8456.00,1.03
8455.00,1.03
8454.00,1.03
8453.00,1.03
8452.00,1.02
8451.00,1.02
8450.00,1.02
8449.00,1.02
8448.00,1.02
8447.00,1.02
8446.00,1.02
8445.00,1.02
8444.00,1.02
8443.00,1.02
8442.00,1.01
8441.00,1.01
8440.00,1.01
8439.00,1.01
8438.00,1.01
8437.00,1.01
8436.00,1.01
8435.00,1.01
8434.00,1.01
8433.00,1.01
8432.00,1.01
8431.00,1.00
8430.00,1.00
8429.00,1.00
8428.00,1.00
8427.00,1.00
8426.00,1.00
8425.00,1.00
8424.00,1.01
8423.00,1.01
8422.00,1.01
8421.00,1.01
8420.00,1.01
8419.00,1.01
8418.00,1.01
8417.00,1.01
8416.00,1.02
8415.00,1.02
8414.00,1.02
8413.00,1.02
8412.00,1.02
8411.00,1.02
8410.00,1.02
8409.00,1.03
8408.00,1.03
8407.00,1.03
8406.00,1.03
8405.00,1.03
8404.00,1.03
8403.00,1.03
8402.00,1.04
8401.00,1.04
8400.00,1.04
8399.00,1.04
8398.00,1.04
8397.00,1.04
8396.00,1.04
8395.00,1.04
8394.00,1.05
8393.00,1.05
8392.00,1.05
8391.00,1.05
8390.00,1.05
8389.00,1.05
8388.00,1.05
8387.00,1.05
8386.00,1.05
8385.00,1.05
8384.00,1.05
8383.00,1.05
8382.00,1.05
8381.00,1.05
8380.00,1.05
8379.00,1.05
8378.00,1.05
8377.00,1.04
8376.00,1.04
8375.00,1.04
8374.00,1.04
8373.00,1.04
8372.00,1.04
8371.00,1.04
8370.00,1.04
8369.00,1.04
8368.00,1.04
8367.00,1.04
8366.00,1.04
8365.00,1.04
8364.00,1.04
8363.00,1.04
8362.00,1.04
8361.00,1.04
8360.00,1.04
8359.00,1.04
8358.00,1.04
8357.00,1.04
8356.00,1.04
8355.00,1.04
8354.00,1.04
8353.00,1.04
8352.00,1.04
8351.00,1.04
8350.00,1.04
8349.00,1.03
8348.00,1.03
8347.00,1.03
8346.00,1.03
8345.00,1.03
8344.00,1.03
8343.00,1.03
8342.00,1.03
8341.00,1.02
8340.00,1.02
8339.00,1.02
8338.00,1.02
8337.00,1.02
8336.00,1.03
8335.00,1.03
8334.00,1.03
8333.00,1.03
8332.00,1.03
8331.00,1.03
8330.00,1.04
8329.00,1.04
8328.00,1.04
8327.00,1.04
8326.00,1.04
8325.00,1.05
8324.00,1.05
8323.00,1.05
8322.00,1.05
8321.00,1.05
8320.00,1.05
8319.00,1.05
8318.00,1.05
8317.00,1.05
8316.00,1.05
8315.00,1.06
8314.00,1.06
8313.00,1.06
8312.00,1.06
8311.00,1.06
8310.00,1.06
8309.00,1.06
8308.00,1.06
8307.00,1.06
8306.00,1.07
8305.00,1.07
8304.00,1.07
8303.00,1.07
8302.00,1.07
8301.00,1.07
8300.00,1.07
8299.00,1.07
8298.00,1.07
8297.00,1.07
8296.00,1.07
8295.00,1.07
8294.00,1.07
8293.00,1.07
8292.00,1.07
8291.00,1.07
8290.00,1.07
8289.00,1.07
8288.00,1.07
8287.00,1.07
8286.00,1.07
8285.00,1.07
8284.00,1.07
8283.00,1.07
8282.00,1.07
8281.00,1.07
8280.00,1.07
8279.00,1.07
8278.00,1.07
8277.00,1.07
8276.00,1.07
8275.00,1.07
8274.00,1.07
8273.00,1.07
8272.00,1.07
8271.00,1.07
8270.00,1.07
8269.00,1.07
8268.00,1.07
8267.00,1.07
8266.00,1.07
8265.00,1.07
8264.00,1.07
8263.00,1.08
8262.00,1.08
8261.00,1.08
8260.00,1.08
8259.00,1.08
8258.00,1.08
8257.00,1.07
8256.00,1.07
8255.00,1.07
8254.00,1.07
8253.00,1.07
8252.00,1.07
8251.00,1.07
8250.00,1.07
8249.00,1.07
8248.00,1.07
8247.00,1.07
8246.00,1.07
8245.00,1.08
8244.00,1.08
8243.00,1.08
8242.00,1.08
8241.00,1.08
8240.00,1.08
8239.00,1.08
8238.00,1.08
8237.00,1.08
8236.00,1.08
8235.00,1.08
8234.00,1.08
8233.00,1.08
8232.00,1.08
8231.00,1.08
8230.00,1.08
8229.00,1.08
8228.00,1.08
8227.00,1.07
8226.00,1.07
8225.00,1.07
8224.00,1.07
8223.00,1.07
8222.00,1.07
8221.00,1.07
8220.00,1.07
8219.00,1.07
8218.00,1.07
8217.00,1.07
8216.00,1.07
8215.00,1.07
8214.00,1.07
8213.00,1.07
8212.00,1.07
8211.00,1.08
8210.00,1.08
8209.00,1.08
8208.00,1.08
8207.00,1.08
8206.00,1.08
8205.00,1.08
8204.00,1.08
8203.00,1.08
8202.00,1.08
8201.00,1.08
8200.00,1.08
8199.00,1.09
8198.00,1.09
8197.00,1.09
8196.00,1.09
8195.00,1.09
8194.00,1.09
8193.00,1.09
8192.00,1.09
8191.00,1.09
8190.00,1.10
8189.00,1.10
8188.00,1.10
8187.00,1.10
8186.00,1.10
8185.00,1.10
8184.00,1.10
8183.00,1.10
8182.00,1.10
8181.00,1.10
8180.00,1.10
8179.00,1.10
8178.00,1.09
8177.00,1.09
8176.00,1.09
8175.00,1.09
8174.00,1.09
8173.00,1.09
8172.00,1.09
8171.00,1.09
8170.00,1.08
8169.00,1.08
8168.00,1.08
8167.00,1.08
8166.00,1.08
8165.00,1.08
8164.00,1.08
8163.00,1.08
8162.00,1.08
8161.00,1.09
8160.00,1.09
8159.00,1.09
8158.00,1.09
8157.00,1.09
8156.00,1.10
8155.00,1.10
8154.00,1.10
8153.00,1.10
8152.00,1.10
8151.00,1.11
8150.00,1.11
8149.00,1.11
8148.00,1.11
8147.00,1.11
8146.00,1.11
8145.00,1.12
8144.00,1.12
8143.00,1.12
8142.00,1.12
8141.00,1.12
8140.00,1.12
8139.00,1.12
8138.00,1.12
8137.00,1.12
8136.00,1.11
8135.00,1.11
8134.00,1.11
8133.00,1.11
8132.00,1.11
8131.00,1.11
8130.00,1.11
8129.00,1.11
8128.00,1.11
8127.00,1.11
8126.00,1.10
8125.00,1.10
8124.00,1.10
8123.00,1.10
8122.00,1.10
8121.00,1.11
8120.00,1.11
8119.00,1.11
8118.00,1.11
8117.00,1.11
8116.00,1.11
8115.00,1.11
8114.00,1.11
8113.00,1.12
8112.00,1.12
8111.00,1.12
8110.00,1.12
8109.00,1.12
8108.00,1.12
8107.00,1.12
8106.00,1.12
8105.00,1.12
8104.00,1.12
8103.00,1.12
8102.00,1.12
8101.00,1.12
8100.00,1.12
8099.00,1.12
8098.00,1.12
8097.00,1.12
8096.00,1.12
8095.00,1.12
8094.00,1.12
8093.00,1.12
8092.00,1.12
8091.00,1.12
8090.00,1.12
8089.00,1.13
8088.00,1.13
8087.00,1.13
8086.00,1.13
8085.00,1.13
8084.00,1.13
8083.00,1.13
8082.00,1.13
8081.00,1.13
8080.00,1.13
8079.00,1.13
8078.00,1.13
8077.00,1.13
8076.00,1.13
8075.00,1.13
8074.00,1.13
8073.00,1.13
8072.00,1.13
8071.00,1.13
8070.00,1.13
8069.00,1.13
8068.00,1.13
8067.00,1.13
8066.00,1.13
8065.00,1.14
8064.00,1.14
8063.00,1.14
8062.00,1.14
8061.00,1.14
8060.00,1.14
8059.00,1.14
8058.00,1.14
8057.00,1.14
8056.00,1.14
8055.00,1.14
8054.00,1.14
8053.00,1.14
8052.00,1.14
8051.00,1.14
8050.00,1.14
8049.00,1.14
8048.00,1.13
8047.00,1.13
8046.00,1.13
8045.00,1.13
8044.00,1.13
8043.00,1.13
8042.00,1.13
8041.00,1.13
8040.00,1.13
8039.00,1.13
8038.00,1.12
8037.00,1.12
8036.00,1.12
8035.00,1.12
8034.00,1.12
8033.00,1.12
8032.00,1.12
8031.00,1.12
8030.00,1.13
8029.00,1.13
8028.00,1.13
8027.00,1.13
8026.00,1.13
8025.00,1.13
8024.00,1.13
8023.00,1.13
8022.00,1.13
8021.00,1.13
8020.00,1.13
8019.00,1.13
8018.00,1.13
8017.00,1.13
8016.00,1.13
8015.00,1.13
8014.00,1.13
8013.00,1.13
8012.00,1.13
8011.00,1.13
8010.00,1.13
8009.00,1.13
8008.00,1.13
8007.00,1.13
8006.00,1.13
8005.00,1.13
8004.00,1.13
8003.00,1.13
8002.00,1.13
8001.00,1.13
8000.00,1.13
7999.00,1.13
7998.00,1.13
7997.00,1.13
7996.00,1.13
7995.00,1.13
7994.00,1.13
7993.00,1.13
7992.00,1.13
7991.00,1.13
7990.00,1.13
7989.00,1.14
7988.00,1.14
7987.00,1.14
7986.00,1.14
7985.00,1.14
7984.00,1.14
7983.00,1.14
7982.00,1.14
7981.00,1.14
7980.00,1.15
7979.00,1.15
7978.00,1.15
7977.00,1.15
7976.00,1.15
7975.00,1.15
7974.00,1.15
7973.00,1.15
7972.00,1.15
7971.00,1.15
7970.00,1.15
7969.00,1.15
7968.00,1.15
7967.00,1.15
7966.00,1.15
7965.00,1.15
7964.00,1.15
7963.00,1.15
7962.00,1.15
7961.00,1.15
7960.00,1.15
7959.00,1.15
7958.00,1.15
7957.00,1.15
7956.00,1.14
7955.00,1.14
7954.00,1.14
7953.00,1.14
7952.00,1.14
7951.00,1.14
7950.00,1.14
7949.00,1.14
7948.00,1.14
7947.00,1.14
7946.00,1.14
7945.00,1.14
7944.00,1.15
7943.00,1.15
7942.00,1.15
7941.00,1.15
7940.00,1.15
7939.00,1.15
7938.00,1.15
7937.00,1.15
7936.00,1.15
7935.00,1.15
7934.00,1.15
7933.00,1.15
7932.00,1.15
7931.00,1.15
7930.00,1.15
7929.00,1.15
7928.00,1.14
7927.00,1.14
7926.00,1.14
7925.00,1.14
7924.00,1.14
7923.00,1.14
7922.00,1.14
7921.00,1.14
7920.00,1.14
7919.00,1.13
7918.00,1.13
7917.00,1.13
7916.00,1.13
7915.00,1.13
7914.00,1.13
7913.00,1.13
7912.00,1.13
7911.00,1.13
7910.00,1.13
7909.00,1.13
7908.00,1.14
7907.00,1.14
7906.00,1.14
7905.00,1.14
7904.00,1.14
7903.00,1.14
7902.00,1.14
7901.00,1.14
7900.00,1.15
7899.00,1.15
7898.00,1.15
7897.00,1.15
7896.00,1.15
7895.00,1.15
7894.00,1.15
7893.00,1.15
7892.00,1.15
7891.00,1.15
7890.00,1.15
7889.00,1.15
7888.00,1.15
7887.00,1.15
7886.00,1.15
7885.00,1.15
7884.00,1.15
7883.00,1.14
7882.00,1.14
7881.00,1.14
7880.00,1.14
7879.00,1.14
7878.00,1.14
7877.00,1.14
7876.00,1.14
7875.00,1.14
7874.00,1.14
7873.00,1.14
7872.00,1.14
7871.00,1.14
7870.00,1.14
7869.00,1.14
7868.00,1.14
7867.00,1.14
7866.00,1.15
7865.00,1.15
7864.00,1.15
7863.00,1.15
7862.00,1.15
7861.00,1.15
7860.00,1.15
7859.00,1.15
7858.00,1.15
7857.00,1.15
7856.00,1.15
7855.00,1.15
7854.00,1.15
7853.00,1.15
7852.00,1.15
7851.00,1.15
7850.00,1.15
7849.00,1.15
7848.00,1.15
7847.00,1.15
7846.00,1.15
7845.00,1.15
7844.00,1.15
7843.00,1.15
7842.00,1.15
7841.00,1.15
7840.00,1.15
7839.00,1.15
7838.00,1.15
7837.00,1.15
7836.00,1.15
7835.00,1.15
7834.00,1.15
7833.00,1.15
7832.00,1.15
7831.00,1.15
7830.00,1.15
7829.00,1.15
7828.00,1.15
7827.00,1.15
7826.00,1.15
7825.00,1.16
7824.00,1.16
7823.00,1.16
7822.00,1.16
7821.00,1.16
7820.00,1.16
7819.00,1.16
7818.00,1.16
7817.00,1.16
7816.00,1.16
7815.00,1.16
7814.00,1.16
7813.00,1.17
7812.00,1.17
7811.00,1.17
7810.00,1.17
7809.00,1.16
7808.00,1.16
7807.00,1.16
7806.00,1.16
7805.00,1.16
7804.00,1.16
7803.00,1.16
7802.00,1.16
7801.00,1.16
7800.00,1.16
7799.00,1.16
7798.00,1.16
7797.00,1.16
7796.00,1.16
7795.00,1.16
7794.00,1.16
7793.00,1.16
7792.00,1.16
7791.00,1.16
7790.00,1.16
7789.00,1.16
7788.00,1.16
7787.00,1.16
7786.00,1.16
7785.00,1.16
7784.00,1.17
7783.00,1.17
7782.00,1.17
7781.00,1.17
7780.00,1.17
7779.00,1.17
7778.00,1.17
7777.00,1.17
7776.00,1.17
7775.00,1.17
7774.00,1.17
7773.00,1.17
7772.00,1.17
7771.00,1.17
7770.00,1.17
7769.00,1.17
7768.00,1.17
7767.00,1.17
7766.00,1.17
7765.00,1.17
7764.00,1.17
7763.00,1.17
7762.00,1.17
7761.00,1.17
7760.00,1.17
7759.00,1.17
7758.00,1.17
7757.00,1.17
7756.00,1.17
7755.00,1.17
7754.00,1.17
7753.00,1.17
7752.00,1.17
7751.00,1.18
7750.00,1.18
7749.00,1.18
7748.00,1.18
7747.00,1.18
7746.00,1.18
7745.00,1.18
7744.00,1.18
7743.00,1.18
7742.00,1.18
7741.00,1.18
7740.00,1.18
7739.00,1.18
7738.00,1.18
7737.00,1.18
7736.00,1.17
7735.00,1.17
7734.00,1.17
7733.00,1.17
7732.00,1.17
7731.00,1.17
7730.00,1.17
7729.00,1.17
7728.00,1.17
7727.00,1.17
7726.00,1.16
7725.00,1.16
7724.00,1.16
7723.00,1.16
7722.00,1.16
7721.00,1.16
7720.00,1.16
7719.00,1.17
7718.00,1.17
7717.00,1.17
7716.00,1.17
7715.00,1.17
7714.00,1.17
7713.00,1.17
7712.00,1.17
7711.00,1.17
7710.00,1.17
7709.00,1.17
7708.00,1.17
7707.00,1.17
7706.00,1.17
7705.00,1.17
7704.00,1.17
7703.00,1.17
7702.00,1.17
7701.00,1.17
7700.00,1.17
7699.00,1.17
7698.00,1.17
7697.00,1.17
7696.00,1.17
7695.00,1.16
7694.00,1.16
7693.00,1.16
7692.00,1.16
7691.00,1.16
7690.00,1.16
7689.00,1.16
7688.00,1.16
7687.00,1.17
7686.00,1.17
7685.00,1.17
7684.00,1.17
7683.00,1.17
7682.00,1.17
7681.00,1.17
7680.00,1.17
7679.00,1.17
7678.00,1.17
7677.00,1.17
7676.00,1.17
7675.00,1.17
7674.00,1.17
7673.00,1.18
7672.00,1.18
7671.00,1.18
7670.00,1.18
7669.00,1.18
7668.00,1.18
7667.00,1.18
7666.00,1.18
7665.00,1.18
7664.00,1.18
7663.00,1.18
7662.00,1.18
7661.00,1.18
7660.00,1.18
7659.00,1.18
7658.00,1.18
7657.00,1.18
7656.00,1.18
7655.00,1.18
7654.00,1.18
7653.00,1.18
7652.00,1.18
7651.00,1.18
7650.00,1.18
7649.00,1.18
7648.00,1.18
7647.00,1.17
7646.00,1.17
7645.00,1.17
7644.00,1.17
7643.00,1.17
7642.00,1.17
7641.00,1.17
7640.00,1.17
7639.00,1.17
7638.00,1.17
7637.00,1.17
7636.00,1.17
7635.00,1.17
7634.00,1.17
7633.00,1.17
7632.00,1.17
7631.00,1.17
7630.00,1.17
7629.00,1.17
7628.00,1.17
7627.00,1.17
7626.00,1.17
7625.00,1.17
7624.00,1.17
7623.00,1.18
7622.00,1.18
7621.00,1.18
7620.00,1.18
7619.00,1.18
7618.00,1.18
7617.00,1.18
7616.00,1.18
7615.00,1.18
7614.00,1.18
7613.00,1.18
7612.00,1.18
7611.00,1.18
7610.00,1.18
7609.00,1.18
7608.00,1.18
7607.00,1.18
7606.00,1.18
7605.00,1.17
7604.00,1.17
7603.00,1.17
7602.00,1.17
7601.00,1.17
7600.00,1.17
7599.00,1.17
7598.00,1.17
7597.00,1.17
7596.00,1.17
7595.00,1.17
7594.00,1.17
7593.00,1.17
7592.00,1.17
7591.00,1.17
7590.00,1.17
7589.00,1.17
7588.00,1.17
7587.00,1.17
7586.00,1.17
7585.00,1.17
7584.00,1.17
7583.00,1.17
7582.00,1.17
7581.00,1.17
7580.00,1.16
7579.00,1.16
7578.00,1.16
7577.00,1.16
7576.00,1.16
7575.00,1.16
7574.00,1.16
7573.00,1.16
7572.00,1.16
7571.00,1.16
7570.00,1.16
7569.00,1.16
7568.00,1.16
7567.00,1.16
7566.00,1.16
7565.00,1.16
7564.00,1.16
7563.00,1.16
7562.00,1.16
7561.00,1.16
7560.00,1.16
7559.00,1.17
7558.00,1.17
7557.00,1.17
7556.00,1.17
7555.00,1.17
7554.00,1.17
7553.00,1.17
7552.00,1.17
7551.00,1.17
7550.00,1.18
7549.00,1.18
7548.00,1.18
7547.00,1.18
7546.00,1.18
7545.00,1.18
7544.00,1.18
7543.00,1.18
7542.00,1.18
7541.00,1.18
7540.00,1.18
7539.00,1.18
7538.00,1.17
7537.00,1.17
7536.00,1.17
7535.00,1.17
7534.00,1.17
7533.00,1.17
7532.00,1.17
7531.00,1.17
7530.00,1.17
7529.00,1.17
7528.00,1.17
7527.00,1.16
7526.00,1.16
7525.00,1.16
7524.00,1.16
7523.00,1.16
7522.00,1.16
7521.00,1.16
7520.00,1.16
7519.00,1.16
7518.00,1.16
7517.00,1.15
7516.00,1.15
7515.00,1.15
7514.00,1.15
7513.00,1.15
7512.00,1.15
7511.00,1.15
7510.00,1.15
7509.00,1.15
7508.00,1.15
7507.00,1.15
7506.00,1.15
7505.00,1.16
7504.00,1.16
7503.00,1.16
7502.00,1.16
7501.00,1.16
7500.00,1.15
7499.00,1.15
7498.00,1.15
7497.00,1.15
7496.00,1.15
7495.00,1.15
7494.00,1.15
7493.00,1.15
7492.00,1.15
7491.00,1.15
7490.00,1.15
7489.00,1.14
7488.00,1.14
7487.00,1.14
7486.00,1.14
7485.00,1.14
7484.00,1.14
7483.00,1.14
7482.00,1.14
7481.00,1.14
7480.00,1.13
7479.00,1.13
7478.00,1.13
7477.00,1.13
7476.00,1.13
7475.00,1.13
7474.00,1.13
7473.00,1.13
7472.00,1.13
7471.00,1.13
7470.00,1.13
7469.00,1.13
7468.00,1.13
7467.00,1.13
7466.00,1.13
7465.00,1.13
7464.00,1.13
7463.00,1.13
7462.00,1.13
7461.00,1.13
7460.00,1.13
7459.00,1.13
7458.00,1.13
7457.00,1.13
7456.00,1.13
7455.00,1.13
7454.00,1.13
7453.00,1.13
7452.00,1.13
7451.00,1.13
7450.00,1.13
7449.00,1.13
7448.00,1.13
7447.00,1.13
7446.00,1.13
7445.00,1.13
7444.00,1.13
7443.00,1.13
7442.00,1.13
7441.00,1.13
7440.00,1.13
7439.00,1.13
7438.00,1.13
7437.00,1.13
7436.00,1.13
7435.00,1.13
7434.00,1.13
7433.00,1.13
7432.00,1.13
7431.00,1.13
7430.00,1.13
7429.00,1.13
7428.00,1.13
7427.00,1.12
7426.00,1.12
7425.00,1.12
7424.00,1.12
7423.00,1.12
7422.00,1.12
7421.00,1.12
7420.00,1.12
7419.00,1.12
7418.00,1.12
7417.00,1.12
7416.00,1.12
7415.00,1.12
7414.00,1.12
7413.00,1.12
7412.00,1.13
7411.00,1.13
7410.00,1.13
7409.00,1.13
7408.00,1.13
7407.00,1.13
7406.00,1.13
7405.00,1.13
7404.00,1.13
7403.00,1.12
7402.00,1.12
7401.00,1.12
7400.00,1.12
7399.00,1.12
7398.00,1.12
7397.00,1.12
7396.00,1.11
7395.00,1.11
7394.00,1.11
7393.00,1.11
7392.00,1.11
7391.00,1.10
7390.00,1.10
7389.00,1.10
7388.00,1.10
7387.00,1.10
7386.00,1.10
7385.00,1.09
7384.00,1.09
7383.00,1.09
7382.00,1.09
7381.00,1.09
7380.00,1.09
7379.00,1.09
7378.00,1.08
7377.00,1.08
7376.00,1.08
7375.00,1.08
7374.00,1.08
7373.00,1.08
7372.00,1.08
7371.00,1.08
7370.00,1.08
7369.00,1.08
7368.00,1.08
7367.00,1.08
7366.00,1.08
7365.00,1.08
7364.00,1.08
7363.00,1.08
7362.00,1.08
7361.00,1.08
7360.00,1.08
7359.00,1.08
7358.00,1.08
7357.00,1.09
7356.00,1.09
7355.00,1.09
7354.00,1.09
7353.00,1.09
7352.00,1.09
7351.00,1.09
7350.00,1.09
7349.00,1.09
7348.00,1.09
7347.00,1.09
7346.00,1.09
7345.00,1.09
7344.00,1.09
7343.00,1.09
7342.00,1.09
7341.00,1.09
7340.00,1.09
7339.00,1.09
7338.00,1.09
7337.00,1.09
7336.00,1.09
7335.00,1.08
7334.00,1.08
7333.00,1.08
7332.00,1.08
7331.00,1.08
7330.00,1.08
7329.00,1.08
7328.00,1.08
7327.00,1.07
7326.00,1.07
7325.00,1.07
7324.00,1.07
7323.00,1.07
7322.00,1.07
7321.00,1.06
7320.00,1.06
7319.00,1.06
7318.00,1.06
7317.00,1.06
7316.00,1.06
7315.00,1.06
7314.00,1.06
7313.00,1.06
7312.00,1.06
7311.00,1.05
7310.00,1.05
7309.00,1.05
7308.00,1.05
7307.00,1.05
7306.00,1.05
7305.00,1.05
7304.00,1.05
7303.00,1.05
7302.00,1.05
7301.00,1.05
7300.00,1.05
7299.00,1.04
7298.00,1.04
7297.00,1.04
7296.00,1.04
7295.00,1.04
7294.00,1.04
7293.00,1.04
7292.00,1.04
7291.00,1.04
7290.00,1.04
7289.00,1.04
7288.00,1.04
7287.00,1.04
7286.00,1.04
7285.00,1.04
7284.00,1.04
7283.00,1.04
7282.00,1.04
7281.00,1.04
7280.00,1.04
7279.00,1.04
7278.00,1.04
7277.00,1.04
7276.00,1.04
7275.00,1.04
7274.00,1.04
7273.00,1.04
7272.00,1.04
7271.00,1.04
7270.00,1.04
7269.00,1.04
7268.00,1.03
7267.00,1.03
7266.00,1.03
7265.00,1.03
7264.00,1.03
7263.00,1.03
7262.00,1.03
7261.00,1.03
7260.00,1.03
7259.00,1.03
7258.00,1.02
7257.00,1.02
7256.00,1.02
7255.00,1.02
7254.00,1.02
7253.00,1.02
7252.00,1.01
7251.00,1.01
7250.00,1.01
7249.00,1.01
7248.00,1.00
7247.00,1.00
7246.00,1.00
7245.00,0.99
7244.00,0.99
7243.00,0.99
7242.00,0.99
7241.00,0.98
7240.00,0.98
7239.00,0.98
7238.00,0.98
7237.00,0.97
7236.00,0.97
7235.00,0.97
7234.00,0.97
7233.00,0.96
7232.00,0.96
7231.00,0.96
7230.00,0.96
7229.00,0.96
7228.00,0.95
7227.00,0.95
7226.00,0.95
7225.00,0.95
7224.00,0.95
7223.00,0.94
7222.00,0.94
7221.00,0.94
7220.00,0.94
7219.00,0.94
7218.00,0.93
7217.00,0.93
7216.00,0.93
7215.00,0.93
7214.00,0.93
7213.00,0.93
7212.00,0.92
7211.00,0.92
7210.00,0.92
7209.00,0.92
7208.00,0.92
7207.00,0.92
7206.00,0.91
7205.00,0.91
7204.00,0.91
7203.00,0.91
7202.00,0.91
7201.00,0.90
7200.00,0.90
7199.00,0.90
7198.00,0.90
7197.00,0.90
7196.00,0.89
7195.00,0.89
7194.00,0.89
7193.00,0.89
7192.00,0.88
7191.00,0.88
7190.00,0.88
7189.00,0.87
7188.00,0.87
7187.00,0.87
7186.00,0.86
7185.00,0.86
7184.00,0.86
7183.00,0.86
7182.00,0.85
7181.00,0.85
7180.00,0.85
7179.00,0.84
7178.00,0.84
7177.00,0.84
7176.00,0.84
7175.00,0.84
7174.00,0.83
7173.00,0.83
7172.00,0.83
7171.00,0.83
7170.00,0.83
7169.00,0.82
7168.00,0.82
7167.00,0.82
7166.00,0.82
7165.00,0.82
7164.00,0.82
7163.00,0.82
7162.00,0.81
7161.00,0.81
7160.00,0.81
7159.00,0.81
7158.00,0.81
7157.00,0.81
7156.00,0.81
7155.00,0.81
7154.00,0.80
7153.00,0.80
7152.00,0.80
7151.00,0.80
7150.00,0.79
7149.00,0.79
7148.00,0.79
7147.00,0.79
7146.00,0.78
7145.00,0.78
7144.00,0.78
7143.00,0.77
7142.00,0.77
7141.00,0.77
7140.00,0.76
7139.00,0.76
7138.00,0.76
7137.00,0.76
7136.00,0.76
7135.00,0.76
7134.00,0.75
7133.00,0.75
7132.00,0.75
7131.00,0.75
7130.00,0.75
7129.00,0.75
7128.00,0.75
7127.00,0.75
7126.00,0.74
7125.00,0.74
7124.00,0.74
7123.00,0.74
7122.00,0.74
7121.00,0.73
7120.00,0.73
7119.00,0.73
7118.00,0.73
7117.00,0.72
7116.00,0.72
7115.00,0.72
7114.00,0.72
7113.00,0.71
7112.00,0.71
7111.00,0.71
7110.00,0.71
7109.00,0.71
7108.00,0.70
7107.00,0.70
7106.00,0.70
7105.00,0.70
7104.00,0.70
7103.00,0.69
7102.00,0.69
7101.00,0.69
7100.00,0.69
7099.00,0.69
7098.00,0.68
7097.00,0.68
7096.00,0.68
7095.00,0.68
7094.00,0.68
7093.00,0.68
7092.00,0.68
7091.00,0.67
7090.00,0.67
7089.00,0.67
7088.00,0.67
7087.00,0.67
7086.00,0.67
7085.00,0.67
7084.00,0.66
7083.00,0.66
7082.00,0.66
7081.00,0.66
7080.00,0.66
7079.00,0.65
7078.00,0.65
7077.00,0.65
7076.00,0.65
7075.00,0.65
7074.00,0.64
7073.00,0.64
7072.00,0.64
7071.00,0.64
7070.00,0.64
7069.00,0.64
7068.00,0.64
7067.00,0.64
7066.00,0.63
7065.00,0.63
7064.00,0.63
7063.00,0.63
7062.00,0.63
7061.00,0.63
7060.00,0.63
7059.00,0.63
7058.00,0.63
7057.00,0.63
7056.00,0.63
7055.00,0.63
7054.00,0.63
7053.00,0.62
7052.00,0.62
7051.00,0.62
7050.00,0.62
7049.00,0.62
7048.00,0.62
7047.00,0.62
7046.00,0.62
7045.00,0.62
7044.00,0.62
7043.00,0.62
7042.00,0.61
7041.00,0.61
7040.00,0.61
7039.00,0.61
7038.00,0.61
7037.00,0.61
7036.00,0.61
7035.00,0.61
7034.00,0.61
7033.00,0.61
7032.00,0.61
7031.00,0.60
7030.00,0.60
7029.00,0.60
7028.00,0.60
7027.00,0.60
7026.00,0.60
7025.00,0.60
7024.00,0.60
7023.00,0.60
7022.00,0.60
7021.00,0.60
7020.00,0.60
7019.00,0.60
7018.00,0.60
7017.00,0.60
7016.00,0.60
7015.00,0.60
7014.00,0.60
7013.00,0.60
7012.00,0.60
7011.00,0.60
7010.00,0.60
7009.00,0.60
7008.00,0.60
7007.00,0.59
7006.00,0.59
7005.00,0.59
7004.00,0.59
7003.00,0.59
7002.00,0.59
7001.00,0.59
7000.00,0.58
6999.00,0.58
6998.00,0.58
6997.00,0.58
6996.00,0.58
6995.00,0.58
6994.00,0.58
6993.00,0.58
6992.00,0.58
6991.00,0.58
6990.00,0.58
6989.00,0.58
6988.00,0.58
6987.00,0.58
6986.00,0.59
6985.00,0.59
6984.00,0.59
6983.00,0.59
6982.00,0.59
6981.00,0.59
6980.00,0.59
6979.00,0.59
6978.00,0.59
6977.00,0.59
6976.00,0.59
6975.00,0.58
6974.00,0.58
6973.00,0.58
6972.00,0.58
6971.00,0.58
6970.00,0.58
6969.00,0.58
6968.00,0.58
6967.00,0.58
6966.00,0.58
6965.00,0.58
6964.00,0.58
6963.00,0.58
6962.00,0.58
6961.00,0.57
6960.00,0.57
6959.00,0.57
6958.00,0.57
6957.00,0.57
6956.00,0.57
6955.00,0.57
6954.00,0.57
6953.00,0.57
6952.00,0.57
6951.00,0.57
6950.00,0.56
6949.00,0.56
6948.00,0.56
6947.00,0.56
6946.00,0.56
6945.00,0.56
6944.00,0.56
6943.00,0.56
6942.00,0.56
6941.00,0.56
6940.00,0.56
6939.00,0.56
6938.00,0.56
6937.00,0.56
6936.00,0.56
6935.00,0.56
6934.00,0.56
6933.00,0.56
6932.00,0.56
6931.00,0.56
6930.00,0.56
6929.00,0.56
6928.00,0.56
6927.00,0.56
6926.00,0.56
6925.00,0.56
6924.00,0.56
6923.00,0.56
6922.00,0.56
6921.00,0.55
6920.00,0.55
6919.00,0.55
6918.00,0.55
6917.00,0.55
6916.00,0.55
6915.00,0.55
6914.00,0.55
6913.00,0.55
6912.00,0.56
6911.00,0.56
6910.00,0.56
6909.00,0.56
6908.00,0.56
6907.00,0.56
6906.00,0.56
6905.00,0.56
6904.00,0.56
6903.00,0.56
6902.00,0.56
6901.00,0.56
6900.00,0.56
6899.00,0.56
6898.00,0.56
6897.00,0.56
6896.00,0.56
6895.00,0.56
6894.00,0.56
6893.00,0.55
6892.00,0.55
6891.00,0.55
6890.00,0.55
6889.00,0.55
6888.00,0.55
6887.00,0.55
6886.00,0.55
6885.00,0.55
6884.00,0.55
6883.00,0.55
6882.00,0.55
6881.00,0.55
6880.00,0.55
6879.00,0.55
6878.00,0.55
6877.00,0.55
6876.00,0.55
6875.00,0.55
6874.00,0.55
6873.00,0.55
6872.00,0.55
6871.00,0.55
6870.00,0.55
6869.00,0.55
6868.00,0.55
6867.00,0.55
6866.00,0.54
6865.00,0.54
6864.00,0.54
6863.00,0.54
6862.00,0.54
6861.00,0.54
6860.00,0.54
6859.00,0.54
6858.00,0.54
6857.00,0.54
6856.00,0.54
6855.00,0.54
6854.00,0.54
6853.00,0.54
6852.00,0.54
6851.00,0.54
6850.00,0.54
6849.00,0.54
6848.00,0.54
6847.00,0.54
6846.00,0.54
6845.00,0.54
6844.00,0.54
6843.00,0.54
6842.00,0.54
6841.00,0.54
6840.00,0.54
6839.00,0.54
6838.00,0.54
6837.00,0.54
6836.00,0.54
6835.00,0.54
6834.00,0.54
6833.00,0.54
6832.00,0.54
6831.00,0.54
6830.00,0.55
6829.00,0.55
6828.00,0.55
6827.00,0.55
6826.00,0.55
6825.00,0.55
6824.00,0.55
6823.00,0.55
6822.00,0.55
6821.00,0.55
6820.00,0.55
6819.00,0.55
6818.00,0.55
6817.00,0.55
6816.00,0.55
6815.00,0.55
6814.00,0.55
6813.00,0.55
6812.00,0.55
6811.00,0.55
6810.00,0.55
6809.00,0.55
6808.00,0.55
6807.00,0.55
6806.00,0.55
6805.00,0.55
6804.00,0.55
6803.00,0.55
6802.00,0.55
6801.00,0.55
6800.00,0.55
6799.00,0.55
6798.00,0.55
6797.00,0.55
6796.00,0.54
6795.00,0.54
6794.00,0.54
6793.00,0.55
6792.00,0.55
6791.00,0.55
6790.00,0.55
6789.00,0.55
6788.00,0.55
6787.00,0.55
6786.00,0.55
6785.00,0.55
6784.00,0.55
6783.00,0.55
6782.00,0.55
6781.00,0.55
6780.00,0.55
6779.00,0.55
6778.00,0.55
6777.00,0.56
6776.00,0.56
6775.00,0.56
6774.00,0.56
6773.00,0.56
6772.00,0.56
6771.00,0.56
6770.00,0.56
6769.00,0.56
6768.00,0.56
6767.00,0.56
6766.00,0.56
6765.00,0.56
6764.00,0.56
6763.00,0.56
6762.00,0.56
6761.00,0.56
6760.00,0.56
6759.00,0.56
6758.00,0.56
6757.00,0.56
6756.00,0.56
6755.00,0.56
6754.00,0.56
6753.00,0.56
6752.00,0.56
6751.00,0.56
6750.00,0.57
6749.00,0.57
6748.00,0.57
6747.00,0.57
6746.00,0.57
6745.00,0.57
6744.00,0.57
6743.00,0.57
6742.00,0.57
6741.00,0.57
6740.00,0.57
6739.00,0.57
6738.00,0.57
6737.00,0.58
6736.00,0.58
6735.00,0.58
6734.00,0.58
6733.00,0.58
6732.00,0.58
6731.00,0.58
6730.00,0.58
6729.00,0.58
6728.00,0.58
6727.00,0.58
6726.00,0.58
6725.00,0.58
6724.00,0.59
6723.00,0.59
6722.00,0.59
6721.00,0.59
6720.00,0.59
6719.00,0.59
6718.00,0.59
6717.00,0.59
6716.00,0.59
6715.00,0.59
6714.00,0.59
6713.00,0.59
6712.00,0.60
6711.00,0.60
6710.00,0.60
6709.00,0.60
6708.00,0.60
6707.00,0.60
6706.00,0.60
6705.00,0.60
6704.00,0.60
6703.00,0.60
6702.00,0.60
6701.00,0.60
6700.00,0.60
6699.00,0.60
6698.00,0.60
6697.00,0.60
6696.00,0.60
6695.00,0.60
6694.00,0.60
6693.00,0.60
6692.00,0.60
6691.00,0.60
6690.00,0.60
6689.00,0.60
6688.00,0.60
6687.00,0.60
6686.00,0.60
6685.00,0.60
6684.00,0.60
6683.00,0.60
6682.00,0.60
6681.00,0.60
6680.00,0.60
6679.00,0.60
6678.00,0.60
6677.00,0.60
6676.00,0.60
6675.00,0.61
6674.00,0.61
6673.00,0.61
6672.00,0.61
6671.00,0.61
6670.00,0.61
6669.00,0.61
6668.00,0.61
6667.00,0.61
6666.00,0.61
6665.00,0.61
6664.00,0.61
6663.00,0.61
6662.00,0.61
6661.00,0.61
6660.00,0.61
6659.00,0.61
6658.00,0.61
6657.00,0.62
6656.00,0.62
6655.00,0.62
6654.00,0.62
6653.00,0.62
6652.00,0.62
6651.00,0.62
6650.00,0.62
6649.00,0.62
6648.00,0.63
6647.00,0.63
6646.00,0.63
6645.00,0.63
6644.00,0.63
6643.00,0.63
6642.00,0.63
6641.00,0.63
6640.00,0.63
6639.00,0.64
6638.00,0.64
6637.00,0.64
6636.00,0.64
6635.00,0.64
6634.00,0.64
6633.00,0.64
6632.00,0.64
6631.00,0.64
6630.00,0.64
6629.00,0.64
6628.00,0.65
6627.00,0.65
6626.00,0.65
6625.00,0.65
6624.00,0.65
6623.00,0.65
6622.00,0.65
6621.00,0.65
6620.00,0.65
6619.00,0.65
6618.00,0.65
6617.00,0.65
6616.00,0.65
6615.00,0.65
6614.00,0.65
6613.00,0.65
6612.00,0.65
6611.00,0.65
6610.00,0.65
6609.00,0.65
6608.00,0.65
6607.00,0.65
6606.00,0.65
6605.00,0.65
6604.00,0.65
6603.00,0.65
6602.00,0.65
6601.00,0.65
6600.00,0.65
6599.00,0.65
6598.00,0.65
6597.00,0.65
6596.00,0.65
6595.00,0.65
6594.00,0.65
6593.00,0.65
6592.00,0.65
6591.00,0.66
6590.00,0.66
6589.00,0.66
6588.00,0.66
6587.00,0.66
6586.00,0.66
6585.00,0.66
6584.00,0.66
6583.00,0.66
6582.00,0.66
6581.00,0.66
6580.00,0.66
6579.00,0.66
6578.00,0.67
6577.00,0.67
6576.00,0.67
6575.00,0.67
6574.00,0.67
6573.00,0.67
6572.00,0.67
6571.00,0.67
6570.00,0.67
6569.00,0.67
6568.00,0.67
6567.00,0.68
6566.00,0.68
6565.00,0.68
6564.00,0.68
6563.00,0.68
6562.00,0.68
6561.00,0.68
6560.00,0.69
6559.00,0.69
6558.00,0.69
6557.00,0.69
6556.00,0.69
6555.00,0.69
6554.00,0.69
6553.00,0.69
6552.00,0.70
6551.00,0.70
6550.00,0.70
6549.00,0.70
6548.00,0.70
6547.00,0.70
6546.00,0.70
6545.00,0.70
6544.00,0.70
6543.00,0.70
6542.00,0.70
6541.00,0.70
6540.00,0.70
6539.00,0.70
6538.00,0.70
6537.00,0.70
6536.00,0.70
6535.00,0.70
6534.00,0.70
6533.00,0.70
6532.00,0.70
6531.00,0.70
6530.00,0.70
6529.00,0.70
6528.00,0.70
6527.00,0.70
6526.00,0.70
6525.00,0.70
6524.00,0.70
6523.00,0.70
6522.00,0.70
6521.00,0.70
6520.00,0.70
6519.00,0.70
6518.00,0.70
6517.00,0.70
6516.00,0.70
6515.00,0.70
6514.00,0.70
6513.00,0.70
6512.00,0.70
6511.00,0.70
6510.00,0.70
6509.00,0.70
6508.00,0.70
6507.00,0.70
6506.00,0.70
6505.00,0.70
6504.00,0.70
6503.00,0.71
6502.00,0.71
6501.00,0.71
6500.00,0.71
6499.00,0.71
6498.00,0.71
6497.00,0.71
6496.00,0.71
6495.00,0.72
6494.00,0.72
6493.00,0.72
6492.00,0.72
6491.00,0.72
6490.00,0.72
6489.00,0.72
6488.00,0.72
6487.00,0.73
6486.00,0.73
6485.00,0.73
6484.00,0.73
6483.00,0.73
6482.00,0.73
6481.00,0.73
6480.00,0.73
6479.00,0.73
6478.00,0.73
6477.00,0.73
6476.00,0.73
6475.00,0.73
6474.00,0.73
6473.00,0.73
6472.00,0.73
6471.00,0.73
6470.00,0.73
6469.00,0.73
6468.00,0.73
6467.00,0.73
6466.00,0.73
6465.00,0.73
6464.00,0.73
6463.00,0.73
6462.00,0.73
6461.00,0.73
6460.00,0.73
6459.00,0.73
6458.00,0.73
6457.00,0.73
6456.00,0.73
6455.00,0.74
6454.00,0.74
6453.00,0.74
6452.00,0.74
6451.00,0.74
6450.00,0.74
6449.00,0.74
6448.00,0.74
6447.00,0.74
6446.00,0.74
6445.00,0.74
6444.00,0.74
6443.00,0.74
6442.00,0.74
6441.00,0.74
6440.00,0.74
6439.00,0.74
6438.00,0.74
6437.00,0.74
6436.00,0.74
6435.00,0.74
6434.00,0.74
6433.00,0.74
6432.00,0.74
6431.00,0.74
6430.00,0.74
6429.00,0.74
6428.00,0.75
6427.00,0.75
6426.00,0.75
6425.00,0.75
6424.00,0.75
6423.00,0.75
6422.00,0.75
6421.00,0.75
6420.00,0.75
6419.00,0.75
6418.00,0.75
6417.00,0.75
6416.00,0.75
6415.00,0.75
6414.00,0.75
6413.00,0.75
6412.00,0.75
6411.00,0.75
6410.00,0.75
6409.00,0.75
6408.00,0.75
6407.00,0.75
6406.00,0.75
6405.00,0.75
6404.00,0.76
6403.00,0.76
6402.00,0.76
6401.00,0.76
6400.00,0.76
6399.00,0.76
6398.00,0.76
6397.00,0.76
6396.00,0.76
6395.00,0.76
6394.00,0.76
6393.00,0.76
6392.00,0.76
6391.00,0.76
6390.00,0.76
6389.00,0.76
6388.00,0.76
6387.00,0.76
6386.00,0.76
6385.00,0.76
6384.00,0.76
6383.00,0.76
6382.00,0.76
6381.00,0.76
6380.00,0.76
6379.00,0.76
6378.00,0.76
6377.00,0.76
6376.00,0.76
6375.00,0.76
6374.00,0.76
6373.00,0.76
6372.00,0.76
6371.00,0.77
6370.00,0.77
6369.00,0.77
6368.00,0.77
6367.00,0.77
6366.00,0.77
6365.00,0.77
6364.00,0.77
6363.00,0.77
6362.00,0.77
6361.00,0.77
6360.00,0.77
6359.00,0.77
6358.00,0.77
6357.00,0.77
6356.00,0.77
6355.00,0.77
6354.00,0.77
6353.00,0.77
6352.00,0.77
6351.00,0.77
6350.00,0.77
6349.00,0.78
6348.00,0.78
6347.00,0.78
6346.00,0.78
6345.00,0.78
6344.00,0.78
6343.00,0.78
6342.00,0.78
6341.00,0.78
6340.00,0.78
6339.00,0.78
6338.00,0.78
6337.00,0.79
6336.00,0.79
6335.00,0.79
6334.00,0.79
6333.00,0.79
6332.00,0.79
6331.00,0.79
6330.00,0.79
6329.00,0.79
6328.00,0.79
6327.00,0.79
6326.00,0.79
6325.00,0.79
6324.00,0.79
6323.00,0.80
6322.00,0.80
6321.00,0.80
6320.00,0.80
6319.00,0.80
6318.00,0.80
6317.00,0.80
6316.00,0.80
6315.00,0.80
6314.00,0.80
6313.00,0.80
6312.00,0.80
6311.00,0.80
6310.00,0.80
6309.00,0.80
6308.00,0.80
6307.00,0.80
6306.00,0.80
6305.00,0.80
6304.00,0.81
6303.00,0.81
6302.00,0.81
6301.00,0.81
6300.00,0.81
6299.00,0.81
6298.00,0.81
6297.00,0.81
6296.00,0.81
6295.00,0.81
6294.00,0.82
6293.00,0.82
6292.00,0.82
6291.00,0.82
6290.00,0.82
6289.00,0.82
6288.00,0.82
6287.00,0.83
6286.00,0.83
6285.00,0.83
6284.00,0.83
6283.00,0.83
6282.00,0.83
6281.00,0.83
6280.00,0.83
6279.00,0.83
6278.00,0.83
6277.00,0.83
6276.00,0.84
6275.00,0.84
6274.00,0.84
6273.00,0.84
6272.00,0.84
6271.00,0.84
6270.00,0.84
6269.00,0.84
6268.00,0.84
6267.00,0.84
6266.00,0.84
6265.00,0.84
6264.00,0.84
6263.00,0.84
6262.00,0.85
6261.00,0.85
6260.00,0.85
6259.00,0.85
6258.00,0.85
6257.00,0.85
6256.00,0.85
6255.00,0.85
6254.00,0.85
6253.00,0.85
6252.00,0.85
6251.00,0.85
6250.00,0.85
6249.00,0.85
6248.00,0.85
6247.00,0.85
6246.00,0.85
6245.00,0.85
6244.00,0.86
6243.00,0.86
6242.00,0.86
6241.00,0.86
6240.00,0.86
6239.00,0.86
6238.00,0.86
6237.00,0.86
6236.00,0.87
6235.00,0.87
6234.00,0.87
6233.00,0.87
6232.00,0.87
6231.00,0.87
6230.00,0.87
6229.00,0.87
6228.00,0.87
6227.00,0.87
6226.00,0.87
6225.00,0.87
6224.00,0.87
6223.00,0.88
6222.00,0.88
6221.00,0.88
6220.00,0.88
6219.00,0.88
6218.00,0.88
6217.00,0.88
6216.00,0.88
6215.00,0.88
6214.00,0.88
6213.00,0.88
6212.00,0.88
6211.00,0.88
6210.00,0.88
6209.00,0.89
6208.00,0.89
6207.00,0.89
6206.00,0.89
6205.00,0.89
6204.00,0.89
6203.00,0.89
6202.00,0.89
6201.00,0.89
6200.00,0.89
6199.00,0.90
6198.00,0.90
6197.00,0.90
6196.00,0.90
6195.00,0.90
6194.00,0.90
6193.00,0.91
6192.00,0.91
6191.00,0.91
6190.00,0.91
6189.00,0.91
6188.00,0.91
6187.00,0.91
6186.00,0.92
6185.00,0.92
6184.00,0.92
6183.00,0.92
6182.00,0.92
6181.00,0.92
6180.00,0.92
6179.00,0.92
6178.00,0.92
6177.00,0.92
6176.00,0.92
6175.00,0.93
6174.00,0.93
6173.00,0.93
6172.00,0.93
6171.00,0.93
6170.00,0.93
6169.00,0.93
6168.00,0.93
6167.00,0.93
6166.00,0.93
6165.00,0.94
6164.00,0.94
6163.00,0.94
6162.00,0.94
6161.00,0.94
6160.00,0.94
6159.00,0.94
6158.00,0.94
6157.00,0.94
6156.00,0.94
6155.00,0.95
6154.00,0.95
6153.00,0.95
6152.00,0.95
6151.00,0.95
6150.00,0.95
6149.00,0.95
6148.00,0.95
6147.00,0.95
6146.00,0.96
6145.00,0.96
6144.00,0.96
6143.00,0.96
6142.00,0.96
6141.00,0.96
6140.00,0.96
6139.00,0.96
6138.00,0.96
6137.00,0.97
6136.00,0.97
6135.00,0.97
6134.00,0.97
6133.00,0.97
6132.00,0.97
6131.00,0.97
6130.00,0.97
6129.00,0.97
6128.00,0.97
6127.00,0.97
6126.00,0.98
6125.00,0.98
6124.00,0.98
6123.00,0.98
6122.00,0.98
6121.00,0.98
6120.00,0.98
6119.00,0.98
6118.00,0.98
6117.00,0.99
6116.00,0.99
6115.00,0.99
6114.00,0.99
6113.00,0.99
6112.00,0.99
6111.00,1.00
6110.00,1.00
6109.00,1.00
6108.00,1.00
6107.00,1.00
6106.00,1.00
6105.00,1.01
6104.00,1.01
6103.00,1.01
6102.00,1.01
6101.00,1.01
6100.00,1.01
6099.00,1.01
6098.00,1.01
6097.00,1.02
6096.00,1.02
6095.00,1.02
6094.00,1.02
6093.00,1.02
6092.00,1.02
6091.00,1.02
6090.00,1.02
6089.00,1.02
6088.00,1.02
6087.00,1.02
6086.00,1.02
6085.00,1.02
6084.00,1.02
6083.00,1.02
6082.00,1.02
6081.00,1.03
6080.00,1.03
6079.00,1.03
6078.00,1.03
6077.00,1.03
6076.00,1.03
6075.00,1.03
6074.00,1.03
6073.00,1.03
6072.00,1.04
6071.00,1.04
6070.00,1.04
6069.00,1.04
6068.00,1.04
6067.00,1.04
6066.00,1.04
6065.00,1.04
6064.00,1.04
6063.00,1.04
6062.00,1.04
6061.00,1.04
6060.00,1.04
6059.00,1.04
6058.00,1.04
6057.00,1.04
6056.00,1.04
6055.00,1.04
6054.00,1.04
6053.00,1.04
6052.00,1.04
6051.00,1.04
6050.00,1.05
6049.00,1.05
6048.00,1.05
6047.00,1.05
6046.00,1.05
6045.00,1.05
6044.00,1.05
6043.00,1.05
6042.00,1.05
6041.00,1.05
6040.00,1.05
6039.00,1.05
6038.00,1.05
6037.00,1.05
6036.00,1.06
6035.00,1.06
6034.00,1.06
6033.00,1.06
6032.00,1.06
6031.00,1.06
6030.00,1.06
6029.00,1.06
6028.00,1.06
6027.00,1.06
6026.00,1.06
6025.00,1.06
6024.00,1.06
6023.00,1.06
6022.00,1.06
6021.00,1.06
6020.00,1.06
6019.00,1.06
6018.00,1.06
6017.00,1.06
6016.00,1.06
6015.00,1.06
6014.00,1.06
6013.00,1.06
6012.00,1.06
6011.00,1.06
6010.00,1.06
6009.00,1.06
6008.00,1.06
6007.00,1.06
6006.00,1.06
6005.00,1.06
6004.00,1.06
6003.00,1.06
6002.00,1.06
6001.00,1.06
6000.00,1.06
5999.00,1.06
5998.00,1.06
5997.00,1.06
5996.00,1.06
5995.00,1.05
5994.00,1.05
5993.00,1.05
5992.00,1.05
5991.00,1.05
5990.00,1.05
5989.00,1.05
5988.00,1.05
5987.00,1.05
5986.00,1.04
5985.00,1.04
5984.00,1.04
5983.00,1.04
5982.00,1.04
5981.00,1.03
5980.00,1.03
5979.00,1.03
5978.00,1.02
5977.00,1.02
5976.00,1.02
5975.00,1.01
5974.00,1.01
5973.00,1.01
5972.00,1.00
5971.00,1.00
5970.00,0.99
5969.00,0.99
5968.00,0.99
5967.00,0.98
5966.00,0.98
5965.00,0.97
5964.00,0.97
5963.00,0.96
5962.00,0.96
5961.00,0.95
5960.00,0.95
5959.00,0.94
5958.00,0.94
5957.00,0.93
5956.00,0.93
5955.00,0.92
5954.00,0.92
5953.00,0.91
5952.00,0.91
5951.00,0.90
5950.00,0.90
5949.00,0.90
5948.00,0.89
5947.00,0.89
5946.00,0.89
5945.00,0.88
5944.00,0.88
5943.00,0.88
5942.00,0.88
5941.00,0.87
5940.00,0.87
5939.00,0.87
5938.00,0.87
5937.00,0.87
5936.00,0.87
5935.00,0.87
5934.00,0.87
5933.00,0.87
5932.00,0.87
5931.00,0.87
5930.00,0.86
5929.00,0.86
5928.00,0.86
5927.00,0.86
5926.00,0.86
5925.00,0.86
5924.00,0.86
5923.00,0.86
5922.00,0.86
5921.00,0.85
5920.00,0.85
5919.00,0.85
5918.00,0.85
5917.00,0.85
5916.00,0.85
5915.00,0.84
5914.00,0.84
5913.00,0.84
5912.00,0.84
5911.00,0.84
5910.00,0.84
5909.00,0.84
5908.00,0.84
5907.00,0.83
5906.00,0.83
5905.00,0.83
5904.00,0.83
5903.00,0.83
5902.00,0.83
5901.00,0.83
5900.00,0.83
5899.00,0.83
5898.00,0.83
5897.00,0.83
5896.00,0.84
5895.00,0.84
5894.00,0.84
5893.00,0.84
5892.00,0.84
5891.00,0.84
5890.00,0.85
5889.00,0.85
5888.00,0.85
5887.00,0.85
5886.00,0.85
5885.00,0.86
5884.00,0.86
5883.00,0.86
5882.00,0.86
5881.00,0.86
5880.00,0.87
5879.00,0.87
5878.00,0.87
5877.00,0.87
5876.00,0.87
5875.00,0.88
5874.00,0.88
5873.00,0.88
5872.00,0.88
5871.00,0.88
5870.00,0.89
5869.00,0.89
5868.00,0.89
5867.00,0.89
5866.00,0.89
5865.00,0.89
5864.00,0.89
5863.00,0.90
5862.00,0.90
5861.00,0.90
5860.00,0.90
5859.00,0.90
5858.00,0.90
5857.00,0.90
5856.00,0.90
5855.00,0.90
5854.00,0.90
5853.00,0.90
5852.00,0.91
5851.00,0.91
5850.00,0.91
5849.00,0.91
5848.00,0.91
5847.00,0.91
5846.00,0.91
5845.00,0.91
5844.00,0.91
5843.00,0.91
5842.00,0.91
5841.00,0.91
5840.00,0.91
5839.00,0.91
5838.00,0.91
5837.00,0.91
5836.00,0.91
5835.00,0.91
5834.00,0.91
5833.00,0.91
5832.00,0.91
5831.00,0.91
5830.00,0.91
5829.00,0.91
5828.00,0.91
5827.00,0.91
5826.00,0.91
5825.00,0.91
5824.00,0.91
5823.00,0.91
5822.00,0.91
5821.00,0.91
5820.00,0.91
5819.00,0.91
5818.00,0.91
5817.00,0.91
5816.00,0.91
5815.00,0.91
5814.00,0.91
5813.00,0.91
5812.00,0.91
5811.00,0.91
5810.00,0.91
5809.00,0.91
5808.00,0.91
5807.00,0.91
5806.00,0.91
5805.00,0.91
5804.00,0.91
5803.00,0.91
5802.00,0.91
5801.00,0.91
5800.00,0.91
5799.00,0.91
5798.00,0.91
5797.00,0.91
5796.00,0.91
5795.00,0.90
5794.00,0.90
5793.00,0.90
5792.00,0.90
5791.00,0.90
5790.00,0.90
5789.00,0.89
5788.00,0.89
5787.00,0.89
5786.00,0.89
5785.00,0.89
5784.00,0.88
5783.00,0.88
5782.00,0.88
5781.00,0.88
5780.00,0.88
5779.00,0.87
5778.00,0.87
5777.00,0.87
5776.00,0.87
5775.00,0.87
5774.00,0.87
5773.00,0.87
5772.00,0.87
5771.00,0.87
5770.00,0.87
5769.00,0.87
5768.00,0.87
5767.00,0.87
5766.00,0.88
5765.00,0.88
5764.00,0.88
5763.00,0.88
5762.00,0.88
5761.00,0.88
5760.00,0.89
5759.00,0.89
5758.00,0.89
5757.00,0.89
5756.00,0.89
5755.00,0.90
5754.00,0.90
5753.00,0.90
5752.00,0.90
5751.00,0.91
5750.00,0.91
5749.00,0.91
5748.00,0.91
5747.00,0.92
5746.00,0.92
5745.00,0.92
5744.00,0.92
5743.00,0.93
5742.00,0.93
5741.00,0.93
5740.00,0.93
5739.00,0.94
5738.00,0.94
5737.00,0.94
5736.00,0.94
5735.00,0.94
5734.00,0.95
5733.00,0.95
5732.00,0.95
5731.00,0.95
5730.00,0.95
5729.00,0.95
5728.00,0.95
5727.00,0.95
5726.00,0.95
5725.00,0.96
5724.00,0.96
5723.00,0.96
5722.00,0.96
5721.00,0.96
5720.00,0.96
5719.00,0.96
5718.00,0.96
5717.00,0.96
5716.00,0.96
5715.00,0.96
5714.00,0.96
5713.00,0.96
5712.00,0.96
5711.00,0.96
5710.00,0.96
5709.00,0.96
5708.00,0.96
5707.00,0.96
5706.00,0.96
5705.00,0.96
5704.00,0.96
5703.00,0.96
5702.00,0.95
5701.00,0.95
5700.00,0.95
5699.00,0.95
5698.00,0.95
5697.00,0.95
5696.00,0.95
5695.00,0.95
5694.00,0.95
5693.00,0.94
5692.00,0.94
5691.00,0.94
5690.00,0.94
5689.00,0.94
5688.00,0.94
5687.00,0.94
5686.00,0.94
5685.00,0.94
5684.00,0.94
5683.00,0.94
5682.00,0.94
5681.00,0.94
5680.00,0.94
5679.00,0.94
5678.00,0.94
5677.00,0.94
5676.00,0.93
5675.00,0.93
5674.00,0.93
5673.00,0.93
5672.00,0.93
5671.00,0.93
5670.00,0.93
5669.00,0.93
5668.00,0.93
5667.00,0.93
5666.00,0.93
5665.00,0.93
5664.00,0.93
5663.00,0.94
5662.00,0.94
5661.00,0.94
5660.00,0.94
5659.00,0.94
5658.00,0.94
5657.00,0.94
5656.00,0.95
5655.00,0.95
5654.00,0.95
5653.00,0.95
5652.00,0.95
5651.00,0.95
5650.00,0.96
5649.00,0.96
5648.00,0.96
5647.00,0.96
5646.00,0.96
5645.00,0.96
5644.00,0.96
5643.00,0.97
5642.00,0.97
5641.00,0.97
5640.00,0.97
5639.00,0.97
5638.00,0.98
5637.00,0.98
5636.00,0.98
5635.00,0.98
5634.00,0.98
5633.00,0.99
5632.00,0.99
5631.00,0.99
5630.00,0.99
5629.00,0.99
5628.00,0.99
5627.00,0.99
5626.00,1.00
5625.00,1.00
5624.00,1.00
5623.00,1.00
5622.00,1.00
5621.00,1.00
5620.00,1.00
5619.00,1.00
5618.00,1.00
5617.00,1.00
5616.00,1.00
5615.00,1.00
5614.00,1.01
5613.00,1.01
5612.00,1.01
5611.00,1.01
5610.00,1.01
5609.00,1.01
5608.00,1.02
5607.00,1.02
5606.00,1.02
5605.00,1.02
5604.00,1.02
5603.00,1.02
5602.00,1.03
5601.00,1.03
5600.00,1.03
5599.00,1.03
5598.00,1.03
5597.00,1.04
5596.00,1.04
5595.00,1.04
5594.00,1.04
5593.00,1.04
5592.00,1.04
5591.00,1.05
5590.00,1.05
5589.00,1.05
5588.00,1.05
5587.00,1.05
5586.00,1.05
5585.00,1.05
5584.00,1.05
5583.00,1.06
5582.00,1.06
5581.00,1.06
5580.00,1.06
5579.00,1.06
5578.00,1.06
5577.00,1.06
5576.00,1.06
5575.00,1.06
5574.00,1.06
5573.00,1.06
5572.00,1.06
5571.00,1.06
5570.00,1.07
5569.00,1.07
5568.00,1.07
5567.00,1.07
5566.00,1.07
5565.00,1.07
5564.00,1.07
5563.00,1.07
5562.00,1.07
5561.00,1.07
5560.00,1.07
5559.00,1.08
5558.00,1.08
5557.00,1.08
5556.00,1.08
5555.00,1.08
5554.00,1.08
5553.00,1.08
5552.00,1.08
5551.00,1.08
5550.00,1.09
5549.00,1.09
5548.00,1.09
5547.00,1.09
5546.00,1.09
5545.00,1.09
5544.00,1.09
5543.00,1.09
5542.00,1.09
5541.00,1.09
5540.00,1.09
5539.00,1.09
5538.00,1.09
5537.00,1.10
5536.00,1.10
5535.00,1.10
5534.00,1.10
5533.00,1.10
5532.00,1.10
5531.00,1.10
5530.00,1.10
5529.00,1.10
5528.00,1.10
5527.00,1.10
5526.00,1.11
5525.00,1.11
5524.00,1.11
5523.00,1.11
5522.00,1.11
5521.00,1.11
5520.00,1.11
5519.00,1.11
5518.00,1.11
5517.00,1.11
5516.00,1.11
5515.00,1.11
5514.00,1.12
5513.00,1.12
5512.00,1.12
5511.00,1.12
5510.00,1.12
5509.00,1.12
5508.00,1.12
5507.00,1.12
5506.00,1.12
5505.00,1.12
5504.00,1.13
5503.00,1.13
5502.00,1.13
5501.00,1.13
5500.00,1.13
5499.00,1.13
5498.00,1.13
5497.00,1.13
5496.00,1.13
5495.00,1.13
5494.00,1.13
5493.00,1.14
5492.00,1.14
5491.00,1.14
5490.00,1.14
5489.00,1.14
5488.00,1.14
5487.00,1.14
5486.00,1.14
5485.00,1.14
5484.00,1.14
5483.00,1.14
5482.00,1.14
5481.00,1.15
5480.00,1.15
5479.00,1.15
5478.00,1.15
5477.00,1.15
5476.00,1.15
5475.00,1.15
5474.00,1.15
5473.00,1.15
5472.00,1.15
5471.00,1.15
5470.00,1.15
5469.00,1.16
5468.00,1.16
5467.00,1.16
5466.00,1.16
5465.00,1.16
5464.00,1.16
5463.00,1.16
5462.00,1.16
5461.00,1.16
5460.00,1.16
5459.00,1.16
5458.00,1.17
5457.00,1.17
5456.00,1.17
5455.00,1.17
5454.00,1.17
5453.00,1.17
5452.00,1.17
5451.00,1.17
5450.00,1.17
5449.00,1.17
5448.00,1.17
5447.00,1.17
5446.00,1.18
5445.00,1.18
5444.00,1.18
5443.00,1.18
5442.00,1.18
5441.00,1.18
5440.00,1.18
5439.00,1.18
5438.00,1.18
5437.00,1.18
5436.00,1.18
5435.00,1.18
5434.00,1.18
5433.00,1.18
5432.00,1.18
5431.00,1.18
5430.00,1.18
5429.00,1.18
5428.00,1.18
5427.00,1.18
5426.00,1.18
5425.00,1.18
5424.00,1.18
5423.00,1.18
5422.00,1.18
5421.00,1.18
5420.00,1.18
5419.00,1.18
5418.00,1.18
5417.00,1.18
5416.00,1.18
5415.00,1.18
5414.00,1.18
5413.00,1.18
5412.00,1.18
5411.00,1.18
5410.00,1.18
5409.00,1.18
5408.00,1.18
5407.00,1.18
5406.00,1.18
5405.00,1.18
5404.00,1.18
5403.00,1.18
5402.00,1.18
5401.00,1.18
5400.00,1.18
5399.00,1.18
5398.00,1.18
5397.00,1.18
5396.00,1.18
5395.00,1.18
5394.00,1.18
5393.00,1.18
5392.00,1.18
5391.00,1.18
5390.00,1.18
5389.00,1.17
5388.00,1.17
5387.00,1.17
5386.00,1.17
5385.00,1.17
5384.00,1.17
5383.00,1.16
5382.00,1.16
5381.00,1.16
5380.00,1.16
5379.00,1.15
5378.00,1.15
5377.00,1.15
5376.00,1.15
5375.00,1.15
5374.00,1.14
5373.00,1.14
5372.00,1.14
5371.00,1.13
5370.00,1.13
5369.00,1.13
5368.00,1.13
5367.00,1.12
5366.00,1.12
5365.00,1.12
5364.00,1.11
5363.00,1.11
5362.00,1.10
5361.00,1.10
5360.00,1.09
5359.00,1.09
5358.00,1.08
5357.00,1.08
5356.00,1.07
5355.00,1.07
5354.00,1.06
5353.00,1.06
5352.00,1.05
5351.00,1.04
5350.00,1.04
5349.00,1.03
5348.00,1.02
5347.00,1.02
5346.00,1.01
5345.00,1.00
5344.00,1.00
5343.00,0.99
5342.00,0.98
5341.00,0.97
5340.00,0.97
5339.00,0.96
5338.00,0.95
5337.00,0.95
5336.00,0.94
5335.00,0.93
5334.00,0.93
5333.00,0.92
5332.00,0.91
5331.00,0.91
5330.00,0.90
5329.00,0.89
5328.00,0.88
5327.00,0.88
5326.00,0.87
5325.00,0.86
5324.00,0.86
5323.00,0.85
5322.00,0.84
5321.00,0.84
5320.00,0.83
5319.00,0.82
5318.00,0.82
5317.00,0.81
5316.00,0.80
5315.00,0.80
5314.00,0.79
5313.00,0.78
5312.00,0.78
5311.00,0.77
5310.00,0.76
5309.00,0.76
5308.00,0.75
5307.00,0.75
5306.00,0.74
5305.00,0.73
5304.00,0.73
5303.00,0.72
5302.00,0.72
5301.00,0.71
5300.00,0.71
5299.00,0.71
5298.00,0.70
5297.00,0.70
5296.00,0.69
5295.00,0.69
5294.00,0.69
5293.00,0.69
5292.00,0.68
5291.00,0.68
5290.00,0.68
5289.00,0.68
5288.00,0.68
5287.00,0.67
5286.00,0.67
5285.00,0.67
5284.00,0.67
5283.00,0.67
5282.00,0.67
5281.00,0.67
5280.00,0.66
5279.00,0.66
5278.00,0.66
5277.00,0.66
5276.00,0.66
5275.00,0.66
5274.00,0.66
5273.00,0.66
5272.00,0.66
5271.00,0.66
5270.00,0.66
5269.00,0.65
5268.00,0.65
5267.00,0.65
5266.00,0.65
5265.00,0.65
5264.00,0.65
5263.00,0.65
5262.00,0.65
5261.00,0.65
5260.00,0.65
5259.00,0.65
5258.00,0.65
5257.00,0.65
5256.00,0.65
5255.00,0.65
5254.00,0.65
5253.00,0.65
5252.00,0.65
5251.00,0.65
5250.00,0.65
5249.00,0.65
5248.00,0.65
5247.00,0.65
5246.00,0.65
5245.00,0.65
5244.00,0.65
5243.00,0.65
5242.00,0.65
5241.00,0.65
5240.00,0.65
5239.00,0.65
5238.00,0.65
5237.00,0.65
5236.00,0.65
5235.00,0.65
5234.00,0.65
5233.00,0.65
5232.00,0.65
5231.00,0.65
5230.00,0.65
5229.00,0.65
5228.00,0.65
5227.00,0.65
5226.00,0.65
5225.00,0.65
5224.00,0.65
5223.00,0.65
5222.00,0.65
5221.00,0.65
5220.00,0.65
5219.00,0.65
5218.00,0.65
5217.00,0.65
5216.00,0.65
5215.00,0.65
5214.00,0.65
5213.00,0.65
5212.00,0.65
5211.00,0.65
5210.00,0.65
5209.00,0.65
5208.00,0.65
5207.00,0.65
5206.00,0.65
5205.00,0.65
5204.00,0.65
5203.00,0.65
5202.00,0.65
5201.00,0.66
5200.00,0.66
5199.00,0.66
5198.00,0.66
5197.00,0.66
5196.00,0.66
5195.00,0.66
5194.00,0.66
5193.00,0.66
5192.00,0.66
5191.00,0.66
5190.00,0.67
5189.00,0.67
5188.00,0.67
5187.00,0.67
5186.00,0.67
5185.00,0.67
5184.00,0.67
5183.00,0.67
5182.00,0.67
5181.00,0.67
5180.00,0.67
5179.00,0.67
5178.00,0.67
5177.00,0.68
5176.00,0.68
5175.00,0.68
5174.00,0.68
5173.00,0.68
5172.00,0.68
5171.00,0.68
5170.00,0.68
5169.00,0.67
5168.00,0.67
5167.00,0.67
5166.00,0.67
5165.00,0.67
5164.00,0.67
5163.00,0.67
5162.00,0.67
5161.00,0.67
5160.00,0.67
5159.00,0.67
5158.00,0.67
5157.00,0.67
5156.00,0.67
5155.00,0.67
5154.00,0.67
5153.00,0.67
5152.00,0.67
5151.00,0.67
5150.00,0.67
5149.00,0.67
5148.00,0.67
5147.00,0.67
5146.00,0.67
5145.00,0.67
5144.00,0.67
5143.00,0.67
5142.00,0.67
5141.00,0.67
5140.00,0.67
5139.00,0.67
5138.00,0.67
5137.00,0.68
5136.00,0.68
5135.00,0.68
5134.00,0.68
5133.00,0.68
5132.00,0.68
5131.00,0.68
5130.00,0.68
5129.00,0.68
5128.00,0.68
5127.00,0.68
5126.00,0.69
5125.00,0.69
5124.00,0.69
5123.00,0.69
5122.00,0.69
5121.00,0.69
5120.00,0.69
5119.00,0.69
5118.00,0.69
5117.00,0.69
5116.00,0.69
5115.00,0.69
5114.00,0.69
5113.00,0.69
5112.00,0.69
5111.00,0.69
5110.00,0.69
5109.00,0.69
5108.00,0.69
5107.00,0.69
5106.00,0.69
5105.00,0.69
5104.00,0.69
5103.00,0.69
5102.00,0.69
5101.00,0.69
5100.00,0.69
5099.00,0.69
5098.00,0.69
5097.00,0.69
5096.00,0.69
5095.00,0.69
5094.00,0.70
5093.00,0.70
5092.00,0.70
5091.00,0.70
5090.00,0.70
5089.00,0.70
5088.00,0.70
5087.00,0.70
5086.00,0.70
5085.00,0.70
5084.00,0.70
5083.00,0.70
5082.00,0.70
5081.00,0.70
5080.00,0.70
5079.00,0.70
5078.00,0.70
5077.00,0.70
5076.00,0.70
5075.00,0.70
5074.00,0.70
5073.00,0.70
5072.00,0.70
5071.00,0.70
5070.00,0.70
5069.00,0.70
5068.00,0.70
5067.00,0.70
5066.00,0.70
5065.00,0.70
5064.00,0.70
5063.00,0.70
5062.00,0.71
5061.00,0.71
5060.00,0.71
5059.00,0.71
5058.00,0.71
5057.00,0.71
5056.00,0.71
5055.00,0.71
5054.00,0.71
5053.00,0.71
5052.00,0.71
5051.00,0.71
5050.00,0.71
5049.00,0.71
5048.00,0.71
5047.00,0.71
5046.00,0.71
5045.00,0.71
5044.00,0.72
5043.00,0.72
5042.00,0.72
5041.00,0.72
5040.00,0.72
5039.00,0.72
5038.00,0.72
5037.00,0.72
5036.00,0.72
5035.00,0.72
5034.00,0.72
5033.00,0.72
5032.00,0.72
5031.00,0.72
5030.00,0.72
5029.00,0.72
5028.00,0.72
5027.00,0.72
5026.00,0.72
5025.00,0.73
5024.00,0.73
5023.00,0.73
5022.00,0.73
5021.00,0.73
5020.00,0.73
5019.00,0.73
5018.00,0.73
5017.00,0.73
5016.00,0.73
5015.00,0.73
5014.00,0.73
5013.00,0.73
5012.00,0.73
5011.00,0.73
5010.00,0.73
5009.00,0.73
5008.00,0.73
5007.00,0.73
5006.00,0.73
5005.00,0.73
5004.00,0.73
5003.00,0.73
5002.00,0.73
5001.00,0.73
5000.00,0.73
4999.00,0.73
4998.00,0.74
4997.00,0.74
4996.00,0.74
4995.00,0.74
4994.00,0.74
4993.00,0.74
4992.00,0.74
4991.00,0.74
4990.00,0.74
4989.00,0.74
4988.00,0.74
4987.00,0.74
4986.00,0.74
4985.00,0.75
4984.00,0.75
4983.00,0.75
4982.00,0.75
4981.00,0.75
4980.00,0.75
4979.00,0.75
4978.00,0.75
4977.00,0.75
4976.00,0.75
4975.00,0.75
4974.00,0.75
4973.00,0.75
4972.00,0.75
4971.00,0.75
4970.00,0.76
4969.00,0.76
4968.00,0.76
4967.00,0.76
4966.00,0.76
4965.00,0.76
4964.00,0.76
4963.00,0.76
4962.00,0.76
4961.00,0.76
4960.00,0.76
4959.00,0.76
4958.00,0.76
4957.00,0.76
4956.00,0.76
4955.00,0.76
4954.00,0.76
4953.00,0.76
4952.00,0.76
4951.00,0.76
4950.00,0.76
4949.00,0.76
4948.00,0.77
4947.00,0.77
4946.00,0.77
4945.00,0.77
4944.00,0.77
4943.00,0.77
4942.00,0.77
4941.00,0.77
4940.00,0.77
4939.00,0.77
4938.00,0.77
4937.00,0.77
4936.00,0.77
4935.00,0.77
4934.00,0.77
4933.00,0.77
4932.00,0.77
4931.00,0.77
4930.00,0.78
4929.00,0.78
4928.00,0.78
4927.00,0.78
4926.00,0.78
4925.00,0.78
4924.00,0.78
4923.00,0.78
4922.00,0.78
4921.00,0.78
4920.00,0.78
4919.00,0.78
4918.00,0.78
4917.00,0.78
4916.00,0.78
4915.00,0.78
4914.00,0.78
4913.00,0.78
4912.00,0.78
4911.00,0.79
4910.00,0.79
4909.00,0.79
4908.00,0.79
4907.00,0.79
4906.00,0.79
4905.00,0.79
4904.00,0.79
4903.00,0.79
4902.00,0.79
4901.00,0.79
4900.00,0.79
4899.00,0.79
4898.00,0.79
4897.00,0.79
4896.00,0.79
4895.00,0.80
4894.00,0.80
4893.00,0.80
4892.00,0.80
4891.00,0.80
4890.00,0.80
4889.00,0.80
4888.00,0.80
4887.00,0.80
4886.00,0.80
4885.00,0.80
4884.00,0.80
4883.00,0.80
4882.00,0.80
4881.00,0.80
4880.00,0.80
4879.00,0.80
4878.00,0.80
4877.00,0.80
4876.00,0.80
4875.00,0.80
4874.00,0.80
4873.00,0.80
4872.00,0.80
4871.00,0.80
4870.00,0.80
4869.00,0.80
4868.00,0.80
4867.00,0.80
4866.00,0.80
4865.00,0.81
4864.00,0.81
4863.00,0.81
4862.00,0.81
4861.00,0.81
4860.00,0.81
4859.00,0.81
4858.00,0.81
4857.00,0.81
4856.00,0.81
4855.00,0.82
4854.00,0.82
4853.00,0.82
4852.00,0.82
4851.00,0.82
4850.00,0.82
4849.00,0.82
4848.00,0.82
4847.00,0.82
4846.00,0.82
4845.00,0.82
4844.00,0.83
4843.00,0.83
4842.00,0.83
4841.00,0.83
4840.00,0.83
4839.00,0.83
4838.00,0.83
4837.00,0.82
4836.00,0.82
4835.00,0.82
4834.00,0.82
4833.00,0.82
4832.00,0.82
4831.00,0.82
4830.00,0.82
4829.00,0.82
4828.00,0.82
4827.00,0.82
4826.00,0.82
4825.00,0.82
4824.00,0.82
4823.00,0.82
4822.00,0.82
4821.00,0.82
4820.00,0.82
4819.00,0.82
4818.00,0.82
4817.00,0.82
4816.00,0.82
4815.00,0.82
4814.00,0.82
4813.00,0.82
4812.00,0.83
4811.00,0.83
4810.00,0.83
4809.00,0.83
4808.00,0.83
4807.00,0.83
4806.00,0.83
4805.00,0.83
4804.00,0.83
4803.00,0.83
4802.00,0.83
4801.00,0.83
4800.00,0.84
4799.00,0.84
4798.00,0.84
4797.00,0.84
4796.00,0.84
4795.00,0.84
4794.00,0.84
4793.00,0.85
4792.00,0.85
4791.00,0.85
4790.00,0.85
4789.00,0.85
4788.00,0.85
4787.00,0.85
4786.00,0.85
4785.00,0.85
4784.00,0.85
4783.00,0.85
4782.00,0.86
4781.00,0.86
4780.00,0.86
4779.00,0.86
4778.00,0.86
4777.00,0.86
4776.00,0.86
4775.00,0.86
4774.00,0.86
4773.00,0.86
4772.00,0.86
4771.00,0.86
4770.00,0.86
4769.00,0.86
4768.00,0.87
4767.00,0.87
4766.00,0.87
4765.00,0.87
4764.00,0.87
4763.00,0.87
4762.00,0.87
4761.00,0.87
4760.00,0.87
4759.00,0.87
4758.00,0.88
4757.00,0.88
4756.00,0.88
4755.00,0.88
4754.00,0.88
4753.00,0.88
4752.00,0.88
4751.00,0.88
4750.00,0.89
4749.00,0.89
4748.00,0.89
4747.00,0.89
4746.00,0.89
4745.00,0.89
4744.00,0.89
4743.00,0.90
4742.00,0.90
4741.00,0.90
4740.00,0.90
4739.00,0.90
4738.00,0.90
4737.00,0.90
4736.00,0.90
4735.00,0.90
4734.00,0.91
4733.00,0.91
4732.00,0.91
4731.00,0.91
4730.00,0.91
4729.00,0.91
4728.00,0.91
4727.00,0.91
4726.00,0.91
4725.00,0.91
4724.00,0.91
4723.00,0.91
4722.00,0.91
4721.00,0.91
4720.00,0.91
4719.00,0.91
4718.00,0.91
4717.00,0.91
4716.00,0.91
4715.00,0.91
4714.00,0.91
4713.00,0.91
4712.00,0.91
4711.00,0.92
4710.00,0.92
4709.00,0.92
4708.00,0.92
4707.00,0.92
4706.00,0.92
4705.00,0.92
4704.00,0.92
4703.00,0.92
4702.00,0.92
4701.00,0.93
4700.00,0.93
4699.00,0.93
4698.00,0.93
4697.00,0.93
4696.00,0.93
4695.00,0.93
4694.00,0.94
4693.00,0.94
4692.00,0.94
4691.00,0.94
4690.00,0.94
4689.00,0.95
4688.00,0.95
4687.00,0.95
4686.00,0.95
4685.00,0.95
4684.00,0.95
4683.00,0.95
4682.00,0.96
4681.00,0.96
4680.00,0.96
4679.00,0.96
4678.00,0.96
4677.00,0.96
4676.00,0.96
4675.00,0.96
4674.00,0.96
4673.00,0.96
4672.00,0.96
4671.00,0.96
4670.00,0.96
4669.00,0.96
4668.00,0.96
4667.00,0.97
4666.00,0.97
4665.00,0.97
4664.00,0.97
4663.00,0.97
4662.00,0.97
4661.00,0.97
4660.00,0.97
4659.00,0.98
4658.00,0.98
4657.00,0.98
4656.00,0.98
4655.00,0.98
4654.00,0.98
4653.00,0.98
4652.00,0.98
4651.00,0.98
4650.00,0.98
4649.00,0.98
4648.00,0.98
4647.00,0.98
4646.00,0.98
4645.00,0.98
4644.00,0.98
4643.00,0.98
4642.00,0.99
4641.00,0.99
4640.00,0.99
4639.00,0.99
4638.00,0.99
4637.00,0.99
4636.00,0.99
4635.00,1.00
4634.00,1.00
4633.00,1.00
4632.00,1.00
4631.00,1.00
4630.00,1.00
4629.00,1.00
4628.00,1.00
4627.00,1.00
4626.00,1.00
4625.00,1.00
4624.00,1.00
4623.00,1.00
4622.00,1.00
4621.00,1.00
4620.00,1.00
4619.00,1.00
4618.00,1.00
4617.00,1.00
4616.00,1.00
4615.00,1.00
4614.00,1.00
4613.00,1.00
4612.00,1.00
4611.00,1.00
4610.00,1.00
4609.00,1.00
4608.00,1.00
4607.00,1.00
4606.00,1.00
4605.00,1.00
4604.00,1.00
4603.00,1.00
4602.00,1.00
4601.00,1.01
4600.00,1.01
4599.00,1.01
4598.00,1.01
4597.00,1.01
4596.00,1.01
4595.00,1.01
4594.00,1.01
4593.00,1.02
4592.00,1.02
4591.00,1.02
4590.00,1.02
4589.00,1.02
4588.00,1.02
4587.00,1.02
4586.00,1.02
4585.00,1.02
4584.00,1.02
4583.00,1.02
4582.00,1.02
4581.00,1.02
4580.00,1.02
4579.00,1.02
4578.00,1.03
4577.00,1.03
4576.00,1.03
4575.00,1.03
4574.00,1.03
4573.00,1.03
4572.00,1.03
4571.00,1.03
4570.00,1.03
4569.00,1.03
4568.00,1.04
4567.00,1.04
4566.00,1.04
4565.00,1.04
4564.00,1.04
4563.00,1.04
4562.00,1.05
4561.00,1.05
4560.00,1.05
4559.00,1.05
4558.00,1.05
4557.00,1.05
4556.00,1.06
4555.00,1.06
4554.00,1.06
4553.00,1.06
4552.00,1.06
4551.00,1.06
4550.00,1.06
4549.00,1.06
4548.00,1.06
4547.00,1.06
4546.00,1.06
4545.00,1.06
4544.00,1.06
4543.00,1.06
4542.00,1.06
4541.00,1.06
4540.00,1.06
4539.00,1.06
4538.00,1.06
4537.00,1.06
4536.00,1.06
4535.00,1.06
4534.00,1.06
4533.00,1.06
4532.00,1.06
4531.00,1.05
4530.00,1.05
4529.00,1.05
4528.00,1.06
4527.00,1.06
4526.00,1.06
4525.00,1.06
4524.00,1.06
4523.00,1.06
4522.00,1.06
4521.00,1.06
4520.00,1.06
4519.00,1.06
4518.00,1.06
4517.00,1.06
4516.00,1.06
4515.00,1.06
4514.00,1.06
4513.00,1.07
4512.00,1.07
4511.00,1.07
4510.00,1.07
4509.00,1.07
4508.00,1.07
4507.00,1.07
4506.00,1.07
4505.00,1.07
4504.00,1.07
4503.00,1.07
4502.00,1.07
4501.00,1.07
4500.00,1.07
4499.00,1.07
4498.00,1.07
4497.00,1.07
4496.00,1.07
4495.00,1.07
4494.00,1.07
4493.00,1.07
4492.00,1.07
4491.00,1.06
4490.00,1.06
4489.00,1.06
4488.00,1.06
4487.00,1.06
4486.00,1.06
4485.00,1.06
4484.00,1.06
4483.00,1.06
4482.00,1.06
4481.00,1.05
4480.00,1.05
4479.00,1.05
4478.00,1.05
4477.00,1.05
4476.00,1.05
4475.00,1.05
4474.00,1.04
4473.00,1.04
4472.00,1.04
4471.00,1.04
4470.00,1.04
4469.00,1.04
4468.00,1.03
4467.00,1.03
4466.00,1.03
4465.00,1.03
4464.00,1.03
4463.00,1.03
4462.00,1.03
4461.00,1.02
4460.00,1.02
4459.00,1.02
4458.00,1.02
4457.00,1.02
4456.00,1.02
4455.00,1.02
4454.00,1.02
4453.00,1.01
4452.00,1.01
4451.00,1.01
4450.00,1.01
4449.00,1.01
4448.00,1.00
4447.00,1.00
4446.00,1.00
4445.00,1.00
4444.00,0.99
4443.00,0.99
4442.00,0.99
4441.00,0.99
4440.00,0.98
4439.00,0.98
4438.00,0.98
4437.00,0.98
4436.00,0.98
4435.00,0.97
4434.00,0.97
4433.00,0.97
4432.00,0.97
4431.00,0.97
4430.00,0.97
4429.00,0.97
4428.00,0.97
4427.00,0.97
4426.00,0.97
4425.00,0.97
4424.00,0.97
4423.00,0.97
4422.00,0.96
4421.00,0.96
4420.00,0.96
4419.00,0.96
4418.00,0.96
4417.00,0.96
4416.00,0.96
4415.00,0.96
4414.00,0.96
4413.00,0.96
4412.00,0.96
4411.00,0.96
4410.00,0.96
4409.00,0.96
4408.00,0.96
4407.00,0.96
4406.00,0.96
4405.00,0.96
4404.00,0.96
4403.00,0.96
4402.00,0.96
4401.00,0.96
4400.00,0.96
4399.00,0.96
4398.00,0.96
4397.00,0.96
4396.00,0.96
4395.00,0.96
4394.00,0.96
4393.00,0.96
4392.00,0.96
4391.00,0.96
4390.00,0.96
4389.00,0.96
4388.00,0.97
4387.00,0.97
4386.00,0.97
4385.00,0.97
4384.00,0.97
4383.00,0.98
4382.00,0.98
4381.00,0.98
4380.00,0.98
4379.00,0.98
4378.00,0.98
4377.00,0.98
4376.00,0.99
4375.00,0.99
4374.00,0.99
4373.00,0.99
4372.00,0.99
4371.00,0.99
4370.00,0.99
4369.00,0.98
4368.00,0.98
4367.00,0.98
4366.00,0.98
4365.00,0.98
4364.00,0.98
4363.00,0.98
4362.00,0.98
4361.00,0.98
4360.00,0.98
4359.00,0.99
4358.00,0.99
4357.00,0.99
4356.00,0.99
4355.00,0.99
4354.00,0.99
4353.00,0.99
4352.00,0.99
4351.00,0.99
4350.00,0.99
4349.00,0.99
4348.00,0.99
4347.00,0.99
4346.00,0.99
4345.00,0.99
4344.00,0.99
4343.00,0.99
4342.00,0.99
4341.00,0.99
4340.00,0.99
4339.00,0.99
4338.00,0.99
4337.00,0.99
4336.00,0.99
4335.00,0.99
4334.00,0.99
4333.00,0.99
4332.00,0.99
4331.00,0.99
4330.00,0.99
4329.00,0.99
4328.00,1.00
4327.00,1.00
4326.00,1.00
4325.00,1.00
4324.00,1.00
4323.00,1.00
4322.00,1.00
4321.00,1.00
4320.00,1.00
4319.00,1.00
4318.00,1.00
4317.00,1.00
4316.00,1.00
4315.00,1.00
4314.00,1.00
4313.00,1.00
4312.00,1.01
4311.00,1.01
4310.00,1.01
4309.00,1.01
4308.00,1.01
4307.00,1.01
4306.00,1.01
4305.00,1.01
4304.00,1.01
4303.00,1.02
4302.00,1.02
4301.00,1.02
4300.00,1.02
4299.00,1.02
4298.00,1.02
4297.00,1.02
4296.00,1.02
4295.00,1.02
4294.00,1.02
4293.00,1.02
4292.00,1.02
4291.00,1.02
4290.00,1.02
4289.00,1.03
4288.00,1.03
4287.00,1.03
4286.00,1.03
4285.00,1.03
4284.00,1.03
4283.00,1.03
4282.00,1.03
4281.00,1.03
4280.00,1.03
4279.00,1.03
4278.00,1.03
4277.00,1.03
4276.00,1.03
4275.00,1.03
4274.00,1.03
4273.00,1.03
4272.00,1.03
4271.00,1.03
4270.00,1.03
4269.00,1.04
4268.00,1.04
4267.00,1.04
4266.00,1.04
4265.00,1.04
4264.00,1.04
4263.00,1.04
4262.00,1.04
4261.00,1.04
4260.00,1.04
4259.00,1.04
4258.00,1.04
4257.00,1.04
4256.00,1.04
4255.00,1.04
4254.00,1.04
4253.00,1.04
4252.00,1.04
4251.00,1.04
4250.00,1.04
4249.00,1.04
4248.00,1.04
4247.00,1.04
4246.00,1.04
4245.00,1.04
4244.00,1.04
4243.00,1.04
4242.00,1.04
4241.00,1.04
4240.00,1.04
4239.00,1.04
4238.00,1.04
4237.00,1.04
4236.00,1.04
4235.00,1.04
4234.00,1.05
4233.00,1.05
4232.00,1.05
4231.00,1.05
4230.00,1.05
4229.00,1.05
4228.00,1.05
4227.00,1.05
4226.00,1.05
4225.00,1.06
4224.00,1.06
4223.00,1.06
4222.00,1.06
4221.00,1.06
4220.00,1.06
4219.00,1.07
4218.00,1.07
4217.00,1.07
4216.00,1.07
4215.00,1.07
4214.00,1.07
4213.00,1.07
4212.00,1.07
4211.00,1.07
4210.00,1.07
4209.00,1.07
4208.00,1.07
4207.00,1.07
4206.00,1.08
4205.00,1.08
4204.00,1.08
4203.00,1.08
4202.00,1.08
4201.00,1.08
4200.00,1.08
4199.00,1.08
4198.00,1.08
4197.00,1.08
4196.00,1.08
4195.00,1.08
4194.00,1.08
4193.00,1.08
4192.00,1.08
4191.00,1.08
4190.00,1.08
4189.00,1.08
4188.00,1.08
4187.00,1.08
4186.00,1.08
4185.00,1.08
4184.00,1.08
4183.00,1.08
4182.00,1.08
4181.00,1.08
4180.00,1.08
4179.00,1.08
4178.00,1.09
4177.00,1.09
4176.00,1.09
4175.00,1.09
4174.00,1.09
4173.00,1.09
4172.00,1.09
4171.00,1.09
4170.00,1.09
4169.00,1.09
4168.00,1.09
4167.00,1.09
4166.00,1.09
4165.00,1.10
4164.00,1.10
4163.00,1.10
4162.00,1.10
4161.00,1.10
4160.00,1.10
4159.00,1.10
4158.00,1.10
4157.00,1.10
4156.00,1.10
4155.00,1.10
4154.00,1.10
4153.00,1.10
4152.00,1.09
4151.00,1.09
4150.00,1.09
4149.00,1.09
4148.00,1.09
4147.00,1.09
4146.00,1.09
4145.00,1.09
4144.00,1.09
4143.00,1.09
4142.00,1.09
4141.00,1.08
4140.00,1.08
4139.00,1.08
4138.00,1.08
4137.00,1.09
4136.00,1.09
4135.00,1.09
4134.00,1.09
4133.00,1.09
4132.00,1.09
4131.00,1.09
4130.00,1.09
4129.00,1.09
4128.00,1.09
4127.00,1.09
4126.00,1.09
4125.00,1.09
4124.00,1.09
4123.00,1.09
4122.00,1.10
4121.00,1.10
4120.00,1.10
4119.00,1.10
4118.00,1.10
4117.00,1.10
4116.00,1.10
4115.00,1.11
4114.00,1.11
4113.00,1.11
4112.00,1.11
4111.00,1.11
4110.00,1.11
4109.00,1.11
4108.00,1.11
4107.00,1.11
4106.00,1.11
4105.00,1.10
4104.00,1.10
4103.00,1.10
4102.00,1.10
4101.00,1.10
4100.00,1.10
4099.00,1.10
4098.00,1.11
4097.00,1.11
4096.00,1.11
4095.00,1.11
4094.00,1.11
4093.00,1.11
4092.00,1.11
4091.00,1.11
4090.00,1.11
4089.00,1.12
4088.00,1.12
4087.00,1.12
4086.00,1.12
4085.00,1.12
4084.00,1.12
4083.00,1.12
4082.00,1.12
4081.00,1.12
4080.00,1.12
4079.00,1.12
4078.00,1.12
4077.00,1.12
4076.00,1.12
4075.00,1.12
4074.00,1.13
4073.00,1.13
4072.00,1.13
4071.00,1.13
4070.00,1.13
4069.00,1.13
4068.00,1.13
4067.00,1.14
4066.00,1.14
4065.00,1.14
4064.00,1.14
4063.00,1.14
4062.00,1.14
4061.00,1.14
4060.00,1.14
4059.00,1.14
4058.00,1.14
4057.00,1.13
4056.00,1.13
4055.00,1.13
4054.00,1.13
4053.00,1.13
4052.00,1.13
4051.00,1.13
4050.00,1.13
4049.00,1.13
4048.00,1.13
4047.00,1.13
4046.00,1.13
4045.00,1.13
4044.00,1.13
4043.00,1.13
4042.00,1.13
4041.00,1.14
4040.00,1.14
4039.00,1.14
4038.00,1.14
4037.00,1.14
4036.00,1.14
4035.00,1.15
4034.00,1.15
4033.00,1.15
4032.00,1.15
4031.00,1.15
4030.00,1.15
4029.00,1.15
4028.00,1.15
4027.00,1.15
4026.00,1.15
4025.00,1.15
4024.00,1.15
4023.00,1.15
4022.00,1.15
4021.00,1.15
4020.00,1.15
4019.00,1.14
4018.00,1.14
4017.00,1.14
4016.00,1.14
4015.00,1.15
4014.00,1.15
4013.00,1.15
4012.00,1.15
4011.00,1.15
4010.00,1.16
4009.00,1.16
4008.00,1.16
4007.00,1.17
4006.00,1.17
4005.00,1.17
4004.00,1.17
4003.00,1.18
4002.00,1.18
4001.00,1.18
4000.00,1.18
