创建为新数据集,样品 285 用户 Administrator 日期 星期三, 三月 07 2018
cm-1,%T
10000.00,1.44
9999.00,1.44
9998.00,1.44
9997.00,1.44
9996.00,1.44
9995.00,1.44
9994.00,1.44
9993.00,1.44
9992.00,1.44
9991.00,1.44
9990.00,1.44
9989.00,1.44
9988.00,1.44
9987.00,1.44
9986.00,1.44
9985.00,1.44
9984.00,1.44
9983.00,1.44
9982.00,1.44
9981.00,1.44
9980.00,1.44
9979.00,1.44
9978.00,1.44
9977.00,1.44
9976.00,1.44
9975.00,1.43
9974.00,1.43
9973.00,1.43
9972.00,1.43
9971.00,1.43
9970.00,1.43
9969.00,1.42
9968.00,1.42
9967.00,1.42
9966.00,1.42
9965.00,1.42
9964.00,1.42
9963.00,1.42
9962.00,1.42
9961.00,1.42
9960.00,1.42
9959.00,1.42
9958.00,1.42
9957.00,1.42
9956.00,1.42
9955.00,1.42
9954.00,1.42
9953.00,1.42
9952.00,1.41
9951.00,1.41
9950.00,1.41
9949.00,1.41
9948.00,1.41
9947.00,1.40
9946.00,1.40
9945.00,1.40
9944.00,1.41
9943.00,1.41
9942.00,1.41
9941.00,1.41
9940.00,1.41
9939.00,1.42
9938.00,1.42
9937.00,1.42
9936.00,1.43
9935.00,1.43
9934.00,1.43
9933.00,1.44
9932.00,1.44
9931.00,1.44
9930.00,1.44
9929.00,1.44
9928.00,1.44
9927.00,1.44
9926.00,1.44
9925.00,1.44
9924.00,1.44
9923.00,1.43
9922.00,1.43
9921.00,1.42
9920.00,1.42
9919.00,1.42
9918.00,1.41
9917.00,1.41
9916.00,1.40
9915.00,1.40
9914.00,1.40
9913.00,1.39
9912.00,1.39
9911.00,1.39
9910.00,1.39
9909.00,1.38
9908.00,1.38
9907.00,1.38
9906.00,1.38
9905.00,1.38
9904.00,1.39
9903.00,1.39
9902.00,1.39
9901.00,1.39
9900.00,1.39
9899.00,1.39
9898.00,1.40
9897.00,1.40
9896.00,1.40
9895.00,1.40
9894.00,1.40
9893.00,1.40
9892.00,1.40
9891.00,1.40
9890.00,1.40
9889.00,1.40
9888.00,1.40
9887.00,1.40
9886.00,1.40
9885.00,1.40
9884.00,1.40
9883.00,1.40
9882.00,1.40
9881.00,1.40
9880.00,1.40
9879.00,1.40
9878.00,1.40
9877.00,1.40
9876.00,1.40
9875.00,1.39
9874.00,1.39
9873.00,1.39
9872.00,1.39
9871.00,1.39
9870.00,1.39
9869.00,1.39
9868.00,1.39
9867.00,1.39
9866.00,1.39
9865.00,1.39
9864.00,1.38
9863.00,1.38
9862.00,1.38
9861.00,1.38
9860.00,1.38
9859.00,1.38
9858.00,1.38
9857.00,1.38
9856.00,1.38
9855.00,1.38
9854.00,1.38
9853.00,1.38
9852.00,1.39
9851.00,1.39
9850.00,1.39
9849.00,1.39
9848.00,1.39
9847.00,1.39
9846.00,1.39
9845.00,1.40
9844.00,1.40
9843.00,1.40
9842.00,1.40
9841.00,1.40
9840.00,1.40
9839.00,1.40
9838.00,1.41
9837.00,1.41
9836.00,1.41
9835.00,1.41
9834.00,1.41
9833.00,1.41
9832.00,1.42
9831.00,1.42
9830.00,1.42
9829.00,1.42
9828.00,1.42
9827.00,1.42
9826.00,1.42
9825.00,1.42
9824.00,1.43
9823.00,1.43
9822.00,1.43
9821.00,1.42
9820.00,1.42
9819.00,1.42
9818.00,1.42
9817.00,1.42
9816.00,1.42
9815.00,1.42
9814.00,1.42
9813.00,1.41
9812.00,1.41
9811.00,1.41
9810.00,1.41
9809.00,1.41
9808.00,1.41
9807.00,1.41
9806.00,1.41
9805.00,1.41
9804.00,1.41
9803.00,1.41
9802.00,1.41
9801.00,1.41
9800.00,1.41
9799.00,1.41
9798.00,1.42
9797.00,1.42
9796.00,1.42
9795.00,1.42
9794.00,1.43
9793.00,1.43
9792.00,1.43
9791.00,1.43
9790.00,1.43
9789.00,1.43
9788.00,1.43
9787.00,1.43
9786.00,1.43
9785.00,1.42
9784.00,1.42
9783.00,1.42
9782.00,1.42
9781.00,1.42
9780.00,1.41
9779.00,1.41
9778.00,1.41
9777.00,1.41
9776.00,1.41
9775.00,1.41
9774.00,1.40
9773.00,1.40
9772.00,1.40
9771.00,1.40
9770.00,1.40
9769.00,1.40
9768.00,1.40
9767.00,1.40
9766.00,1.40
9765.00,1.39
9764.00,1.39
9763.00,1.39
9762.00,1.39
9761.00,1.39
9760.00,1.39
9759.00,1.39
9758.00,1.38
9757.00,1.38
9756.00,1.38
9755.00,1.38
9754.00,1.38
9753.00,1.38
9752.00,1.38
9751.00,1.38
9750.00,1.37
9749.00,1.37
9748.00,1.37
9747.00,1.37
9746.00,1.37
9745.00,1.37
9744.00,1.37
9743.00,1.37
9742.00,1.37
9741.00,1.37
9740.00,1.37
9739.00,1.37
9738.00,1.37
9737.00,1.37
9736.00,1.37
9735.00,1.37
9734.00,1.37
9733.00,1.37
9732.00,1.37
9731.00,1.37
9730.00,1.37
9729.00,1.38
9728.00,1.38
9727.00,1.38
9726.00,1.38
9725.00,1.38
9724.00,1.38
9723.00,1.38
9722.00,1.38
9721.00,1.38
9720.00,1.38
9719.00,1.38
9718.00,1.38
9717.00,1.38
9716.00,1.38
9715.00,1.38
9714.00,1.38
9713.00,1.38
9712.00,1.38
9711.00,1.38
9710.00,1.38
9709.00,1.38
9708.00,1.38
9707.00,1.38
9706.00,1.38
9705.00,1.38
9704.00,1.38
9703.00,1.38
9702.00,1.38
9701.00,1.38
9700.00,1.38
9699.00,1.38
9698.00,1.39
9697.00,1.39
9696.00,1.39
9695.00,1.39
9694.00,1.39
9693.00,1.39
9692.00,1.39
9691.00,1.39
9690.00,1.39
9689.00,1.39
9688.00,1.39
9687.00,1.39
9686.00,1.39
9685.00,1.39
9684.00,1.39
9683.00,1.39
9682.00,1.39
9681.00,1.39
9680.00,1.40
9679.00,1.40
9678.00,1.40
9677.00,1.40
9676.00,1.40
9675.00,1.40
9674.00,1.40
9673.00,1.41
9672.00,1.41
9671.00,1.41
9670.00,1.41
9669.00,1.41
9668.00,1.41
9667.00,1.41
9666.00,1.41
9665.00,1.41
9664.00,1.41
9663.00,1.41
9662.00,1.41
9661.00,1.41
9660.00,1.41
9659.00,1.42
9658.00,1.42
9657.00,1.42
9656.00,1.42
9655.00,1.42
9654.00,1.42
9653.00,1.43
9652.00,1.43
9651.00,1.43
9650.00,1.43
9649.00,1.43
9648.00,1.44
9647.00,1.44
9646.00,1.44
9645.00,1.44
9644.00,1.44
9643.00,1.44
9642.00,1.44
9641.00,1.44
9640.00,1.44
9639.00,1.44
9638.00,1.44
9637.00,1.44
9636.00,1.44
9635.00,1.44
9634.00,1.44
9633.00,1.44
9632.00,1.44
9631.00,1.44
9630.00,1.44
9629.00,1.44
9628.00,1.43
9627.00,1.43
9626.00,1.43
9625.00,1.43
9624.00,1.43
9623.00,1.43
9622.00,1.43
9621.00,1.43
9620.00,1.42
9619.00,1.42
9618.00,1.42
9617.00,1.42
9616.00,1.42
9615.00,1.42
9614.00,1.41
9613.00,1.41
9612.00,1.41
9611.00,1.41
9610.00,1.41
9609.00,1.40
9608.00,1.40
9607.00,1.40
9606.00,1.40
9605.00,1.40
9604.00,1.40
9603.00,1.40
9602.00,1.40
9601.00,1.40
9600.00,1.40
9599.00,1.40
9598.00,1.40
9597.00,1.40
9596.00,1.40
9595.00,1.40
9594.00,1.40
9593.00,1.40
9592.00,1.40
9591.00,1.40
9590.00,1.40
9589.00,1.40
9588.00,1.40
9587.00,1.40
9586.00,1.41
9585.00,1.41
9584.00,1.41
9583.00,1.41
9582.00,1.41
9581.00,1.41
9580.00,1.42
9579.00,1.42
9578.00,1.42
9577.00,1.42
9576.00,1.42
9575.00,1.42
9574.00,1.42
9573.00,1.42
9572.00,1.42
9571.00,1.42
9570.00,1.42
9569.00,1.42
9568.00,1.41
9567.00,1.41
9566.00,1.41
9565.00,1.41
9564.00,1.41
9563.00,1.41
9562.00,1.41
9561.00,1.40
9560.00,1.40
9559.00,1.40
9558.00,1.40
9557.00,1.40
9556.00,1.40
9555.00,1.40
9554.00,1.40
9553.00,1.40
9552.00,1.40
9551.00,1.40
9550.00,1.40
9549.00,1.40
9548.00,1.40
9547.00,1.40
9546.00,1.40
9545.00,1.40
9544.00,1.40
9543.00,1.40
9542.00,1.40
9541.00,1.40
9540.00,1.40
9539.00,1.40
9538.00,1.40
9537.00,1.41
9536.00,1.41
9535.00,1.41
9534.00,1.41
9533.00,1.41
9532.00,1.41
9531.00,1.41
9530.00,1.41
9529.00,1.41
9528.00,1.41
9527.00,1.41
9526.00,1.41
9525.00,1.41
9524.00,1.41
9523.00,1.41
9522.00,1.41
9521.00,1.41
9520.00,1.41
9519.00,1.41
9518.00,1.41
9517.00,1.41
9516.00,1.41
9515.00,1.41
9514.00,1.41
9513.00,1.40
9512.00,1.40
9511.00,1.40
9510.00,1.40
9509.00,1.39
9508.00,1.39
9507.00,1.39
9506.00,1.39
9505.00,1.38
9504.00,1.38
9503.00,1.38
9502.00,1.38
9501.00,1.38
9500.00,1.37
9499.00,1.37
9498.00,1.37
9497.00,1.37
9496.00,1.37
9495.00,1.37
9494.00,1.37
9493.00,1.37
9492.00,1.38
9491.00,1.38
9490.00,1.38
9489.00,1.38
9488.00,1.38
9487.00,1.38
9486.00,1.38
9485.00,1.38
9484.00,1.39
9483.00,1.39
9482.00,1.39
9481.00,1.39
9480.00,1.39
9479.00,1.40
9478.00,1.40
9477.00,1.40
9476.00,1.40
9475.00,1.41
9474.00,1.41
9473.00,1.41
9472.00,1.41
9471.00,1.41
9470.00,1.41
9469.00,1.42
9468.00,1.42
9467.00,1.42
9466.00,1.42
9465.00,1.42
9464.00,1.42
9463.00,1.42
9462.00,1.42
9461.00,1.43
9460.00,1.43
9459.00,1.43
9458.00,1.43
9457.00,1.43
9456.00,1.44
9455.00,1.44
9454.00,1.44
9453.00,1.44
9452.00,1.44
9451.00,1.44
9450.00,1.44
9449.00,1.44
9448.00,1.44
9447.00,1.44
9446.00,1.44
9445.00,1.44
9444.00,1.44
9443.00,1.44
9442.00,1.44
9441.00,1.44
9440.00,1.44
9439.00,1.43
9438.00,1.43
9437.00,1.43
9436.00,1.43
9435.00,1.43
9434.00,1.43
9433.00,1.43
9432.00,1.42
9431.00,1.42
9430.00,1.42
9429.00,1.42
9428.00,1.42
9427.00,1.42
9426.00,1.42
9425.00,1.41
9424.00,1.41
9423.00,1.41
9422.00,1.41
9421.00,1.41
9420.00,1.40
9419.00,1.40
9418.00,1.40
9417.00,1.39
9416.00,1.39
9415.00,1.39
9414.00,1.38
9413.00,1.38
9412.00,1.38
9411.00,1.38
9410.00,1.37
9409.00,1.37
9408.00,1.37
9407.00,1.37
9406.00,1.37
9405.00,1.37
9404.00,1.37
9403.00,1.37
9402.00,1.37
9401.00,1.37
9400.00,1.37
9399.00,1.37
9398.00,1.37
9397.00,1.37
9396.00,1.37
9395.00,1.37
9394.00,1.37
9393.00,1.37
9392.00,1.37
9391.00,1.37
9390.00,1.37
9389.00,1.37
9388.00,1.37
9387.00,1.37
9386.00,1.37
9385.00,1.37
9384.00,1.37
9383.00,1.37
9382.00,1.37
9381.00,1.37
9380.00,1.37
9379.00,1.38
9378.00,1.38
9377.00,1.38
9376.00,1.38
9375.00,1.38
9374.00,1.38
9373.00,1.38
9372.00,1.38
9371.00,1.38
9370.00,1.38
9369.00,1.38
9368.00,1.38
9367.00,1.38
9366.00,1.38
9365.00,1.38
9364.00,1.37
9363.00,1.37
9362.00,1.37
9361.00,1.37
9360.00,1.37
9359.00,1.37
9358.00,1.37
9357.00,1.37
9356.00,1.37
9355.00,1.37
9354.00,1.37
9353.00,1.37
9352.00,1.38
9351.00,1.38
9350.00,1.38
9349.00,1.39
9348.00,1.39
9347.00,1.39
9346.00,1.40
9345.00,1.40
9344.00,1.40
9343.00,1.40
9342.00,1.41
9341.00,1.41
9340.00,1.41
9339.00,1.41
9338.00,1.40
9337.00,1.40
9336.00,1.40
9335.00,1.40
9334.00,1.40
9333.00,1.39
9332.00,1.39
9331.00,1.38
9330.00,1.38
9329.00,1.38
9328.00,1.37
9327.00,1.37
9326.00,1.37
9325.00,1.36
9324.00,1.36
9323.00,1.36
9322.00,1.36
9321.00,1.36
9320.00,1.36
9319.00,1.36
9318.00,1.36
9317.00,1.36
9316.00,1.36
9315.00,1.36
9314.00,1.36
9313.00,1.36
9312.00,1.36
9311.00,1.36
9310.00,1.36
9309.00,1.36
9308.00,1.36
9307.00,1.36
9306.00,1.36
9305.00,1.37
9304.00,1.37
9303.00,1.37
9302.00,1.37
9301.00,1.38
9300.00,1.38
9299.00,1.38
9298.00,1.39
9297.00,1.39
9296.00,1.39
9295.00,1.40
9294.00,1.40
9293.00,1.40
9292.00,1.40
9291.00,1.41
9290.00,1.41
9289.00,1.41
9288.00,1.41
9287.00,1.41
9286.00,1.41
9285.00,1.41
9284.00,1.41
9283.00,1.41
9282.00,1.41
9281.00,1.41
9280.00,1.41
9279.00,1.41
9278.00,1.41
9277.00,1.41
9276.00,1.41
9275.00,1.40
9274.00,1.40
9273.00,1.40
9272.00,1.40
9271.00,1.39
9270.00,1.39
9269.00,1.38
9268.00,1.38
9267.00,1.37
9266.00,1.37
9265.00,1.36
9264.00,1.36
9263.00,1.36
9262.00,1.35
9261.00,1.35
9260.00,1.35
9259.00,1.35
9258.00,1.35
9257.00,1.35
9256.00,1.35
9255.00,1.36
9254.00,1.36
9253.00,1.36
9252.00,1.37
9251.00,1.37
9250.00,1.38
9249.00,1.38
9248.00,1.39
9247.00,1.39
9246.00,1.39
9245.00,1.40
9244.00,1.40
9243.00,1.40
9242.00,1.41
9241.00,1.41
9240.00,1.41
9239.00,1.41
9238.00,1.41
9237.00,1.41
9236.00,1.41
9235.00,1.41
9234.00,1.41
9233.00,1.41
9232.00,1.41
9231.00,1.41
9230.00,1.41
9229.00,1.41
9228.00,1.41
9227.00,1.41
9226.00,1.41
9225.00,1.41
9224.00,1.41
9223.00,1.41
9222.00,1.41
9221.00,1.41
9220.00,1.41
9219.00,1.41
9218.00,1.41
9217.00,1.41
9216.00,1.41
9215.00,1.41
9214.00,1.41
9213.00,1.41
9212.00,1.41
9211.00,1.41
9210.00,1.41
9209.00,1.41
9208.00,1.41
9207.00,1.41
9206.00,1.41
9205.00,1.41
9204.00,1.40
9203.00,1.40
9202.00,1.40
9201.00,1.40
9200.00,1.40
9199.00,1.40
9198.00,1.40
9197.00,1.40
9196.00,1.40
9195.00,1.40
9194.00,1.40
9193.00,1.40
9192.00,1.40
9191.00,1.41
9190.00,1.41
9189.00,1.41
9188.00,1.41
9187.00,1.41
9186.00,1.41
9185.00,1.41
9184.00,1.41
9183.00,1.41
9182.00,1.41
9181.00,1.41
9180.00,1.41
9179.00,1.41
9178.00,1.41
9177.00,1.41
9176.00,1.41
9175.00,1.41
9174.00,1.41
9173.00,1.40
9172.00,1.40
9171.00,1.40
9170.00,1.40
9169.00,1.40
9168.00,1.40
9167.00,1.40
9166.00,1.40
9165.00,1.40
9164.00,1.40
9163.00,1.40
9162.00,1.40
9161.00,1.41
9160.00,1.41
9159.00,1.41
9158.00,1.41
9157.00,1.41
9156.00,1.41
9155.00,1.41
9154.00,1.42
9153.00,1.42
9152.00,1.42
9151.00,1.42
9150.00,1.42
9149.00,1.43
9148.00,1.43
9147.00,1.43
9146.00,1.43
9145.00,1.43
9144.00,1.43
9143.00,1.43
9142.00,1.43
9141.00,1.44
9140.00,1.44
9139.00,1.43
9138.00,1.43
9137.00,1.43
9136.00,1.43
9135.00,1.43
9134.00,1.43
9133.00,1.43
9132.00,1.42
9131.00,1.42
9130.00,1.42
9129.00,1.41
9128.00,1.41
9127.00,1.41
9126.00,1.41
9125.00,1.40
9124.00,1.40
9123.00,1.40
9122.00,1.40
9121.00,1.39
9120.00,1.39
9119.00,1.39
9118.00,1.39
9117.00,1.39
9116.00,1.39
9115.00,1.39
9114.00,1.39
9113.00,1.39
9112.00,1.39
9111.00,1.39
9110.00,1.39
9109.00,1.39
9108.00,1.39
9107.00,1.40
9106.00,1.40
9105.00,1.40
9104.00,1.41
9103.00,1.41
9102.00,1.41
9101.00,1.42
9100.00,1.42
9099.00,1.43
9098.00,1.43
9097.00,1.43
9096.00,1.43
9095.00,1.44
9094.00,1.44
9093.00,1.44
9092.00,1.44
9091.00,1.44
9090.00,1.44
9089.00,1.44
9088.00,1.44
9087.00,1.44
9086.00,1.44
9085.00,1.44
9084.00,1.44
9083.00,1.44
9082.00,1.44
9081.00,1.44
9080.00,1.44
9079.00,1.43
9078.00,1.43
9077.00,1.43
9076.00,1.43
9075.00,1.43
9074.00,1.42
9073.00,1.42
9072.00,1.42
9071.00,1.42
9070.00,1.42
9069.00,1.41
9068.00,1.41
9067.00,1.41
9066.00,1.41
9065.00,1.41
9064.00,1.41
9063.00,1.41
9062.00,1.40
9061.00,1.40
9060.00,1.40
9059.00,1.40
9058.00,1.40
9057.00,1.41
9056.00,1.41
9055.00,1.41
9054.00,1.41
9053.00,1.41
9052.00,1.41
9051.00,1.41
9050.00,1.41
9049.00,1.41
9048.00,1.41
9047.00,1.41
9046.00,1.41
9045.00,1.41
9044.00,1.40
9043.00,1.40
9042.00,1.40
9041.00,1.40
9040.00,1.40
9039.00,1.40
9038.00,1.40
9037.00,1.40
9036.00,1.40
9035.00,1.40
9034.00,1.40
9033.00,1.40
9032.00,1.40
9031.00,1.40
9030.00,1.40
9029.00,1.40
9028.00,1.40
9027.00,1.41
9026.00,1.41
9025.00,1.41
9024.00,1.41
9023.00,1.42
9022.00,1.42
9021.00,1.42
9020.00,1.42
9019.00,1.42
9018.00,1.43
9017.00,1.43
9016.00,1.43
9015.00,1.43
9014.00,1.43
9013.00,1.43
9012.00,1.43
9011.00,1.43
9010.00,1.43
9009.00,1.43
9008.00,1.42
9007.00,1.42
9006.00,1.42
9005.00,1.42
9004.00,1.42
9003.00,1.41
9002.00,1.41
9001.00,1.41
9000.00,1.41
8999.00,1.40
8998.00,1.40
8997.00,1.40
8996.00,1.40
8995.00,1.40
8994.00,1.40
8993.00,1.40
8992.00,1.39
8991.00,1.39
8990.00,1.39
8989.00,1.39
8988.00,1.39
8987.00,1.39
8986.00,1.39
8985.00,1.39
8984.00,1.39
8983.00,1.39
8982.00,1.39
8981.00,1.39
8980.00,1.39
8979.00,1.39
8978.00,1.39
8977.00,1.39
8976.00,1.39
8975.00,1.39
8974.00,1.39
8973.00,1.39
8972.00,1.39
8971.00,1.39
8970.00,1.39
8969.00,1.39
8968.00,1.39
8967.00,1.39
8966.00,1.39
8965.00,1.39
8964.00,1.39
8963.00,1.39
8962.00,1.39
8961.00,1.40
8960.00,1.40
8959.00,1.40
8958.00,1.40
8957.00,1.40
8956.00,1.40
8955.00,1.40
8954.00,1.40
8953.00,1.40
8952.00,1.40
8951.00,1.40
8950.00,1.40
8949.00,1.41
8948.00,1.41
8947.00,1.41
8946.00,1.41
8945.00,1.41
8944.00,1.41
8943.00,1.41
8942.00,1.41
8941.00,1.41
8940.00,1.41
8939.00,1.41
8938.00,1.41
8937.00,1.41
8936.00,1.42
8935.00,1.42
8934.00,1.42
8933.00,1.42
8932.00,1.42
8931.00,1.42
8930.00,1.42
8929.00,1.42
8928.00,1.42
8927.00,1.42
8926.00,1.42
8925.00,1.42
8924.00,1.42
8923.00,1.42
8922.00,1.42
8921.00,1.42
8920.00,1.42
8919.00,1.42
8918.00,1.42
8917.00,1.42
8916.00,1.41
8915.00,1.41
8914.00,1.41
8913.00,1.41
8912.00,1.40
8911.00,1.40
8910.00,1.40
8909.00,1.40
8908.00,1.39
8907.00,1.39
8906.00,1.39
8905.00,1.39
8904.00,1.39
8903.00,1.38
8902.00,1.38
8901.00,1.38
8900.00,1.38
8899.00,1.38
8898.00,1.38
8897.00,1.39
8896.00,1.39
8895.00,1.39
8894.00,1.39
8893.00,1.39
8892.00,1.39
8891.00,1.40
8890.00,1.40
8889.00,1.40
8888.00,1.40
8887.00,1.40
8886.00,1.40
8885.00,1.41
8884.00,1.41
8883.00,1.41
8882.00,1.41
8881.00,1.41
8880.00,1.40
8879.00,1.40
8878.00,1.40
8877.00,1.40
8876.00,1.40
8875.00,1.40
8874.00,1.40
8873.00,1.40
8872.00,1.39
8871.00,1.39
8870.00,1.39
8869.00,1.39
8868.00,1.39
8867.00,1.39
8866.00,1.39
8865.00,1.39
8864.00,1.39
8863.00,1.39
8862.00,1.40
8861.00,1.40
8860.00,1.40
8859.00,1.40
8858.00,1.40
8857.00,1.40
8856.00,1.40
8855.00,1.40
8854.00,1.40
8853.00,1.40
8852.00,1.40
8851.00,1.41
8850.00,1.41
8849.00,1.41
8848.00,1.41
8847.00,1.41
8846.00,1.41
8845.00,1.41
8844.00,1.41
8843.00,1.40
8842.00,1.40
8841.00,1.40
8840.00,1.40
8839.00,1.40
8838.00,1.40
8837.00,1.39
8836.00,1.39
8835.00,1.39
8834.00,1.39
8833.00,1.38
8832.00,1.38
8831.00,1.38
8830.00,1.38
8829.00,1.38
8828.00,1.38
8827.00,1.38
8826.00,1.38
8825.00,1.38
8824.00,1.38
8823.00,1.38
8822.00,1.38
8821.00,1.38
8820.00,1.38
8819.00,1.38
8818.00,1.38
8817.00,1.39
8816.00,1.39
8815.00,1.39
8814.00,1.39
8813.00,1.39
8812.00,1.39
8811.00,1.39
8810.00,1.39
8809.00,1.39
8808.00,1.39
8807.00,1.39
8806.00,1.39
8805.00,1.39
8804.00,1.39
8803.00,1.39
8802.00,1.39
8801.00,1.39
8800.00,1.39
8799.00,1.39
8798.00,1.40
8797.00,1.40
8796.00,1.40
8795.00,1.40
8794.00,1.40
8793.00,1.40
8792.00,1.40
8791.00,1.40
8790.00,1.40
8789.00,1.40
8788.00,1.40
8787.00,1.40
8786.00,1.40
8785.00,1.40
8784.00,1.40
8783.00,1.40
8782.00,1.40
8781.00,1.40
8780.00,1.40
8779.00,1.39
8778.00,1.39
8777.00,1.39
8776.00,1.39
8775.00,1.38
8774.00,1.38
8773.00,1.38
8772.00,1.38
8771.00,1.37
8770.00,1.37
8769.00,1.37
8768.00,1.36
8767.00,1.36
8766.00,1.36
8765.00,1.36
8764.00,1.36
8763.00,1.36
8762.00,1.36
8761.00,1.36
8760.00,1.36
8759.00,1.36
8758.00,1.36
8757.00,1.36
8756.00,1.36
8755.00,1.36
8754.00,1.36
8753.00,1.37
8752.00,1.37
8751.00,1.37
8750.00,1.37
8749.00,1.37
8748.00,1.38
8747.00,1.38
8746.00,1.38
8745.00,1.38
8744.00,1.38
8743.00,1.38
8742.00,1.38
8741.00,1.38
8740.00,1.38
8739.00,1.38
8738.00,1.38
8737.00,1.38
8736.00,1.38
8735.00,1.38
8734.00,1.38
8733.00,1.38
8732.00,1.38
8731.00,1.38
8730.00,1.38
8729.00,1.38
8728.00,1.39
8727.00,1.39
8726.00,1.39
8725.00,1.39
8724.00,1.39
8723.00,1.39
8722.00,1.39
8721.00,1.39
8720.00,1.39
8719.00,1.40
8718.00,1.40
8717.00,1.40
8716.00,1.40
8715.00,1.40
8714.00,1.40
8713.00,1.41
8712.00,1.41
8711.00,1.41
8710.00,1.41
8709.00,1.41
8708.00,1.41
8707.00,1.41
8706.00,1.41
8705.00,1.41
8704.00,1.41
8703.00,1.41
8702.00,1.41
8701.00,1.41
8700.00,1.40
8699.00,1.40
8698.00,1.40
8697.00,1.40
8696.00,1.40
8695.00,1.39
8694.00,1.39
8693.00,1.39
8692.00,1.39
8691.00,1.39
8690.00,1.39
8689.00,1.38
8688.00,1.38
8687.00,1.38
8686.00,1.38
8685.00,1.38
8684.00,1.38
8683.00,1.38
8682.00,1.38
8681.00,1.38
8680.00,1.38
8679.00,1.38
8678.00,1.38
8677.00,1.38
8676.00,1.38
8675.00,1.38
8674.00,1.38
8673.00,1.38
8672.00,1.38
8671.00,1.37
8670.00,1.37
8669.00,1.37
8668.00,1.37
8667.00,1.37
8666.00,1.37
8665.00,1.37
8664.00,1.37
8663.00,1.36
8662.00,1.36
8661.00,1.36
8660.00,1.36
8659.00,1.36
8658.00,1.36
8657.00,1.37
8656.00,1.37
8655.00,1.37
8654.00,1.37
8653.00,1.37
8652.00,1.37
8651.00,1.38
8650.00,1.38
8649.00,1.38
8648.00,1.39
8647.00,1.39
8646.00,1.39
8645.00,1.39
8644.00,1.39
8643.00,1.39
8642.00,1.39
8641.00,1.39
8640.00,1.39
8639.00,1.39
8638.00,1.39
8637.00,1.39
8636.00,1.39
8635.00,1.39
8634.00,1.39
8633.00,1.39
8632.00,1.39
8631.00,1.39
8630.00,1.39
8629.00,1.39
8628.00,1.39
8627.00,1.39
8626.00,1.39
8625.00,1.39
8624.00,1.39
8623.00,1.39
8622.00,1.39
8621.00,1.39
8620.00,1.39
8619.00,1.39
8618.00,1.39
8617.00,1.39
8616.00,1.39
8615.00,1.39
8614.00,1.39
8613.00,1.39
8612.00,1.39
8611.00,1.39
8610.00,1.39
8609.00,1.39
8608.00,1.38
8607.00,1.38
8606.00,1.38
8605.00,1.38
8604.00,1.38
8603.00,1.38
8602.00,1.38
8601.00,1.38
8600.00,1.38
8599.00,1.38
8598.00,1.38
8597.00,1.38
8596.00,1.38
8595.00,1.38
8594.00,1.38
8593.00,1.38
8592.00,1.38
8591.00,1.38
8590.00,1.38
8589.00,1.38
8588.00,1.38
8587.00,1.38
8586.00,1.38
8585.00,1.38
8584.00,1.38
8583.00,1.38
8582.00,1.37
8581.00,1.37
8580.00,1.37
8579.00,1.37
8578.00,1.37
8577.00,1.37
8576.00,1.37
8575.00,1.37
8574.00,1.37
8573.00,1.37
8572.00,1.37
8571.00,1.37
8570.00,1.37
8569.00,1.37
8568.00,1.37
8567.00,1.37
8566.00,1.37
8565.00,1.38
8564.00,1.38
8563.00,1.38
8562.00,1.38
8561.00,1.38
8560.00,1.38
8559.00,1.38
8558.00,1.38
8557.00,1.38
8556.00,1.38
8555.00,1.38
8554.00,1.38
8553.00,1.38
8552.00,1.37
8551.00,1.37
8550.00,1.37
8549.00,1.37
8548.00,1.37
8547.00,1.37
8546.00,1.37
8545.00,1.37
8544.00,1.37
8543.00,1.37
8542.00,1.37
8541.00,1.37
8540.00,1.37
8539.00,1.37
8538.00,1.37
8537.00,1.37
8536.00,1.37
8535.00,1.37
8534.00,1.37
8533.00,1.36
8532.00,1.36
8531.00,1.36
8530.00,1.36
8529.00,1.36
8528.00,1.36
8527.00,1.35
8526.00,1.35
8525.00,1.35
8524.00,1.35
8523.00,1.34
8522.00,1.34
8521.00,1.34
8520.00,1.34
8519.00,1.34
8518.00,1.34
8517.00,1.34
8516.00,1.34
8515.00,1.34
8514.00,1.34
8513.00,1.34
8512.00,1.34
8511.00,1.34
8510.00,1.34
8509.00,1.34
8508.00,1.34
8507.00,1.34
8506.00,1.34
8505.00,1.35
8504.00,1.35
8503.00,1.35
8502.00,1.35
8501.00,1.35
8500.00,1.34
8499.00,1.34
8498.00,1.34
8497.00,1.34
8496.00,1.34
8495.00,1.34
8494.00,1.34
8493.00,1.33
8492.00,1.33
8491.00,1.33
8490.00,1.33
8489.00,1.32
8488.00,1.32
8487.00,1.32
8486.00,1.32
8485.00,1.32
8484.00,1.31
8483.00,1.31
8482.00,1.31
8481.00,1.31
8480.00,1.31
8479.00,1.31
8478.00,1.31
8477.00,1.31
8476.00,1.31
8475.00,1.31
8474.00,1.31
8473.00,1.31
8472.00,1.31
8471.00,1.31
8470.00,1.31
8469.00,1.32
8468.00,1.32
8467.00,1.32
8466.00,1.32
8465.00,1.32
8464.00,1.33
8463.00,1.33
8462.00,1.33
8461.00,1.33
8460.00,1.33
8459.00,1.33
8458.00,1.33
8457.00,1.33
8456.00,1.33
8455.00,1.33
8454.00,1.33
8453.00,1.33
8452.00,1.33
8451.00,1.33
8450.00,1.33
8449.00,1.33
8448.00,1.33
8447.00,1.33
8446.00,1.33
8445.00,1.33
8444.00,1.33
8443.00,1.33
8442.00,1.33
8441.00,1.33
8440.00,1.33
8439.00,1.33
8438.00,1.33
8437.00,1.33
8436.00,1.33
8435.00,1.33
8434.00,1.33
8433.00,1.33
8432.00,1.34
8431.00,1.34
8430.00,1.34
8429.00,1.34
8428.00,1.34
8427.00,1.34
8426.00,1.34
8425.00,1.34
8424.00,1.34
8423.00,1.34
8422.00,1.34
8421.00,1.34
8420.00,1.34
8419.00,1.33
8418.00,1.33
8417.00,1.33
8416.00,1.33
8415.00,1.32
8414.00,1.32
8413.00,1.32
8412.00,1.32
8411.00,1.32
8410.00,1.32
8409.00,1.32
8408.00,1.32
8407.00,1.32
8406.00,1.32
8405.00,1.32
8404.00,1.32
8403.00,1.32
8402.00,1.32
8401.00,1.33
8400.00,1.33
8399.00,1.33
8398.00,1.33
8397.00,1.34
8396.00,1.34
8395.00,1.34
8394.00,1.34
8393.00,1.35
8392.00,1.35
8391.00,1.35
8390.00,1.35
8389.00,1.35
8388.00,1.35
8387.00,1.35
8386.00,1.35
8385.00,1.35
8384.00,1.35
8383.00,1.35
8382.00,1.35
8381.00,1.35
8380.00,1.35
8379.00,1.35
8378.00,1.35
8377.00,1.35
8376.00,1.34
8375.00,1.34
8374.00,1.34
8373.00,1.34
8372.00,1.34
8371.00,1.34
8370.00,1.34
8369.00,1.34
8368.00,1.33
8367.00,1.33
8366.00,1.33
8365.00,1.33
8364.00,1.33
8363.00,1.33
8362.00,1.33
8361.00,1.33
8360.00,1.32
8359.00,1.32
8358.00,1.32
8357.00,1.32
8356.00,1.32
8355.00,1.32
8354.00,1.32
8353.00,1.33
8352.00,1.33
8351.00,1.33
8350.00,1.33
8349.00,1.33
8348.00,1.33
8347.00,1.33
8346.00,1.33
8345.00,1.34
8344.00,1.34
8343.00,1.34
8342.00,1.34
8341.00,1.34
8340.00,1.34
8339.00,1.34
8338.00,1.34
8337.00,1.34
8336.00,1.34
8335.00,1.34
8334.00,1.34
8333.00,1.34
8332.00,1.34
8331.00,1.34
8330.00,1.34
8329.00,1.34
8328.00,1.34
8327.00,1.34
8326.00,1.35
8325.00,1.35
8324.00,1.35
8323.00,1.35
8322.00,1.35
8321.00,1.35
8320.00,1.35
8319.00,1.35
8318.00,1.35
8317.00,1.35
8316.00,1.35
8315.00,1.35
8314.00,1.35
8313.00,1.35
8312.00,1.35
8311.00,1.35
8310.00,1.35
8309.00,1.35
8308.00,1.35
8307.00,1.35
8306.00,1.35
8305.00,1.35
8304.00,1.35
8303.00,1.35
8302.00,1.35
8301.00,1.35
8300.00,1.35
8299.00,1.35
8298.00,1.34
8297.00,1.34
8296.00,1.34
8295.00,1.34
8294.00,1.34
8293.00,1.34
8292.00,1.34
8291.00,1.34
8290.00,1.34
8289.00,1.34
8288.00,1.34
8287.00,1.34
8286.00,1.34
8285.00,1.34
8284.00,1.34
8283.00,1.34
8282.00,1.34
8281.00,1.35
8280.00,1.35
8279.00,1.35
8278.00,1.35
8277.00,1.35
8276.00,1.35
8275.00,1.36
8274.00,1.36
8273.00,1.36
8272.00,1.36
8271.00,1.36
8270.00,1.36
8269.00,1.37
8268.00,1.37
8267.00,1.37
8266.00,1.37
8265.00,1.37
8264.00,1.37
8263.00,1.37
8262.00,1.37
8261.00,1.37
8260.00,1.37
8259.00,1.37
8258.00,1.37
8257.00,1.37
8256.00,1.37
8255.00,1.37
8254.00,1.37
8253.00,1.36
8252.00,1.36
8251.00,1.36
8250.00,1.36
8249.00,1.36
8248.00,1.36
8247.00,1.36
8246.00,1.36
8245.00,1.36
8244.00,1.36
8243.00,1.36
8242.00,1.36
8241.00,1.36
8240.00,1.36
8239.00,1.36
8238.00,1.36
8237.00,1.36
8236.00,1.36
8235.00,1.36
8234.00,1.36
8233.00,1.36
8232.00,1.36
8231.00,1.36
8230.00,1.37
8229.00,1.37
8228.00,1.37
8227.00,1.37
8226.00,1.37
8225.00,1.37
8224.00,1.37
8223.00,1.37
8222.00,1.37
8221.00,1.37
8220.00,1.37
8219.00,1.37
8218.00,1.37
8217.00,1.37
8216.00,1.37
8215.00,1.37
8214.00,1.37
8213.00,1.37
8212.00,1.37
8211.00,1.37
8210.00,1.37
8209.00,1.37
8208.00,1.37
8207.00,1.37
8206.00,1.37
8205.00,1.37
8204.00,1.37
8203.00,1.37
8202.00,1.37
8201.00,1.37
8200.00,1.37
8199.00,1.37
8198.00,1.37
8197.00,1.37
8196.00,1.37
8195.00,1.37
8194.00,1.37
8193.00,1.37
8192.00,1.37
8191.00,1.37
8190.00,1.37
8189.00,1.37
8188.00,1.37
8187.00,1.37
8186.00,1.37
8185.00,1.38
8184.00,1.38
8183.00,1.38
8182.00,1.38
8181.00,1.38
8180.00,1.38
8179.00,1.38
8178.00,1.38
8177.00,1.38
8176.00,1.38
8175.00,1.38
8174.00,1.38
8173.00,1.38
8172.00,1.38
8171.00,1.38
8170.00,1.38
8169.00,1.38
8168.00,1.38
8167.00,1.38
8166.00,1.38
8165.00,1.38
8164.00,1.38
8163.00,1.38
8162.00,1.38
8161.00,1.38
8160.00,1.38
8159.00,1.38
8158.00,1.38
8157.00,1.38
8156.00,1.38
8155.00,1.38
8154.00,1.38
8153.00,1.38
8152.00,1.38
8151.00,1.39
8150.00,1.39
8149.00,1.39
8148.00,1.39
8147.00,1.39
8146.00,1.39
8145.00,1.39
8144.00,1.39
8143.00,1.39
8142.00,1.39
8141.00,1.39
8140.00,1.39
8139.00,1.39
8138.00,1.39
8137.00,1.39
8136.00,1.38
8135.00,1.38
8134.00,1.38
8133.00,1.38
8132.00,1.38
8131.00,1.38
8130.00,1.38
8129.00,1.38
8128.00,1.38
8127.00,1.38
8126.00,1.38
8125.00,1.38
8124.00,1.38
8123.00,1.38
8122.00,1.37
8121.00,1.37
8120.00,1.37
8119.00,1.37
8118.00,1.37
8117.00,1.37
8116.00,1.37
8115.00,1.37
8114.00,1.37
8113.00,1.37
8112.00,1.37
8111.00,1.37
8110.00,1.37
8109.00,1.37
8108.00,1.37
8107.00,1.38
8106.00,1.38
8105.00,1.38
8104.00,1.38
8103.00,1.38
8102.00,1.38
8101.00,1.38
8100.00,1.39
8099.00,1.39
8098.00,1.39
8097.00,1.39
8096.00,1.39
8095.00,1.39
8094.00,1.40
8093.00,1.40
8092.00,1.40
8091.00,1.40
8090.00,1.40
8089.00,1.40
8088.00,1.40
8087.00,1.40
8086.00,1.40
8085.00,1.40
8084.00,1.40
8083.00,1.40
8082.00,1.40
8081.00,1.40
8080.00,1.40
8079.00,1.40
8078.00,1.40
8077.00,1.40
8076.00,1.40
8075.00,1.40
8074.00,1.40
8073.00,1.40
8072.00,1.40
8071.00,1.40
8070.00,1.39
8069.00,1.39
8068.00,1.39
8067.00,1.39
8066.00,1.39
8065.00,1.40
8064.00,1.40
8063.00,1.40
8062.00,1.40
8061.00,1.40
8060.00,1.40
8059.00,1.40
8058.00,1.40
8057.00,1.40
8056.00,1.40
8055.00,1.40
8054.00,1.40
8053.00,1.40
8052.00,1.40
8051.00,1.40
8050.00,1.41
8049.00,1.41
8048.00,1.41
8047.00,1.41
8046.00,1.41
8045.00,1.41
8044.00,1.41
8043.00,1.41
8042.00,1.41
8041.00,1.41
8040.00,1.41
8039.00,1.41
8038.00,1.41
8037.00,1.41
8036.00,1.41
8035.00,1.41
8034.00,1.41
8033.00,1.41
8032.00,1.41
8031.00,1.41
8030.00,1.41
8029.00,1.41
8028.00,1.41
8027.00,1.41
8026.00,1.41
8025.00,1.41
8024.00,1.41
8023.00,1.41
8022.00,1.41
8021.00,1.41
8020.00,1.41
8019.00,1.41
8018.00,1.41
8017.00,1.41
8016.00,1.42
8015.00,1.42
8014.00,1.42
8013.00,1.42
8012.00,1.42
8011.00,1.42
8010.00,1.42
8009.00,1.42
8008.00,1.42
8007.00,1.42
8006.00,1.42
8005.00,1.42
8004.00,1.42
8003.00,1.42
8002.00,1.42
8001.00,1.42
8000.00,1.42
7999.00,1.42
7998.00,1.42
7997.00,1.42
7996.00,1.41
7995.00,1.41
7994.00,1.41
7993.00,1.41
7992.00,1.41
7991.00,1.41
7990.00,1.41
7989.00,1.41
7988.00,1.42
7987.00,1.42
7986.00,1.42
7985.00,1.42
7984.00,1.42
7983.00,1.42
7982.00,1.42
7981.00,1.42
7980.00,1.42
7979.00,1.43
7978.00,1.43
7977.00,1.43
7976.00,1.43
7975.00,1.43
7974.00,1.43
7973.00,1.42
7972.00,1.42
7971.00,1.42
7970.00,1.42
7969.00,1.42
7968.00,1.42
7967.00,1.42
7966.00,1.42
7965.00,1.42
7964.00,1.42
7963.00,1.42
7962.00,1.42
7961.00,1.42
7960.00,1.42
7959.00,1.42
7958.00,1.42
7957.00,1.42
7956.00,1.42
7955.00,1.42
7954.00,1.42
7953.00,1.42
7952.00,1.42
7951.00,1.42
7950.00,1.42
7949.00,1.42
7948.00,1.42
7947.00,1.41
7946.00,1.41
7945.00,1.41
7944.00,1.41
7943.00,1.41
7942.00,1.41
7941.00,1.41
7940.00,1.41
7939.00,1.40
7938.00,1.40
7937.00,1.40
7936.00,1.40
7935.00,1.40
7934.00,1.40
7933.00,1.40
7932.00,1.40
7931.00,1.40
7930.00,1.40
7929.00,1.40
7928.00,1.40
7927.00,1.41
7926.00,1.41
7925.00,1.41
7924.00,1.41
7923.00,1.41
7922.00,1.42
7921.00,1.42
7920.00,1.42
7919.00,1.42
7918.00,1.42
7917.00,1.43
7916.00,1.43
7915.00,1.43
7914.00,1.43
7913.00,1.43
7912.00,1.43
7911.00,1.43
7910.00,1.43
7909.00,1.43
7908.00,1.43
7907.00,1.43
7906.00,1.43
7905.00,1.43
7904.00,1.43
7903.00,1.42
7902.00,1.42
7901.00,1.42
7900.00,1.42
7899.00,1.43
7898.00,1.43
7897.00,1.43
7896.00,1.43
7895.00,1.43
7894.00,1.43
7893.00,1.43
7892.00,1.43
7891.00,1.43
7890.00,1.43
7889.00,1.43
7888.00,1.43
7887.00,1.43
7886.00,1.43
7885.00,1.43
7884.00,1.43
7883.00,1.43
7882.00,1.43
7881.00,1.43
7880.00,1.43
7879.00,1.43
7878.00,1.43
7877.00,1.43
7876.00,1.43
7875.00,1.43
7874.00,1.43
7873.00,1.42
7872.00,1.42
7871.00,1.42
7870.00,1.42
7869.00,1.42
7868.00,1.42
7867.00,1.42
7866.00,1.42
7865.00,1.42
7864.00,1.42
7863.00,1.42
7862.00,1.42
7861.00,1.42
7860.00,1.42
7859.00,1.42
7858.00,1.42
7857.00,1.42
7856.00,1.42
7855.00,1.42
7854.00,1.42
7853.00,1.42
7852.00,1.42
7851.00,1.42
7850.00,1.42
7849.00,1.42
7848.00,1.42
7847.00,1.42
7846.00,1.42
7845.00,1.42
7844.00,1.42
7843.00,1.42
7842.00,1.42
7841.00,1.42
7840.00,1.42
7839.00,1.42
7838.00,1.42
7837.00,1.42
7836.00,1.42
7835.00,1.42
7834.00,1.42
7833.00,1.42
7832.00,1.42
7831.00,1.42
7830.00,1.42
7829.00,1.42
7828.00,1.42
7827.00,1.43
7826.00,1.43
7825.00,1.43
7824.00,1.43
7823.00,1.43
7822.00,1.43
7821.00,1.43
7820.00,1.42
7819.00,1.42
7818.00,1.42
7817.00,1.42
7816.00,1.42
7815.00,1.42
7814.00,1.42
7813.00,1.42
7812.00,1.42
7811.00,1.42
7810.00,1.42
7809.00,1.42
7808.00,1.41
7807.00,1.41
7806.00,1.41
7805.00,1.41
7804.00,1.41
7803.00,1.42
7802.00,1.42
7801.00,1.42
7800.00,1.42
7799.00,1.42
7798.00,1.42
7797.00,1.42
7796.00,1.42
7795.00,1.42
7794.00,1.42
7793.00,1.42
7792.00,1.42
7791.00,1.42
7790.00,1.42
7789.00,1.42
7788.00,1.42
7787.00,1.42
7786.00,1.42
7785.00,1.42
7784.00,1.43
7783.00,1.43
7782.00,1.43
7781.00,1.43
7780.00,1.43
7779.00,1.43
7778.00,1.43
7777.00,1.43
7776.00,1.43
7775.00,1.43
7774.00,1.43
7773.00,1.43
7772.00,1.43
7771.00,1.43
7770.00,1.43
7769.00,1.43
7768.00,1.43
7767.00,1.43
7766.00,1.43
7765.00,1.43
7764.00,1.43
7763.00,1.43
7762.00,1.43
7761.00,1.43
7760.00,1.43
7759.00,1.43
7758.00,1.43
7757.00,1.43
7756.00,1.43
7755.00,1.43
7754.00,1.43
7753.00,1.43
7752.00,1.43
7751.00,1.43
7750.00,1.43
7749.00,1.43
7748.00,1.43
7747.00,1.43
7746.00,1.43
7745.00,1.43
7744.00,1.42
7743.00,1.42
7742.00,1.42
7741.00,1.42
7740.00,1.42
7739.00,1.42
7738.00,1.42
7737.00,1.42
7736.00,1.42
7735.00,1.42
7734.00,1.42
7733.00,1.42
7732.00,1.42
7731.00,1.42
7730.00,1.42
7729.00,1.42
7728.00,1.42
7727.00,1.42
7726.00,1.43
7725.00,1.43
7724.00,1.43
7723.00,1.43
7722.00,1.43
7721.00,1.43
7720.00,1.43
7719.00,1.43
7718.00,1.43
7717.00,1.43
7716.00,1.43
7715.00,1.42
7714.00,1.42
7713.00,1.42
7712.00,1.42
7711.00,1.42
7710.00,1.42
7709.00,1.42
7708.00,1.42
7707.00,1.42
7706.00,1.42
7705.00,1.42
7704.00,1.43
7703.00,1.43
7702.00,1.43
7701.00,1.43
7700.00,1.43
7699.00,1.43
7698.00,1.43
7697.00,1.43
7696.00,1.43
7695.00,1.43
7694.00,1.43
7693.00,1.44
7692.00,1.44
7691.00,1.44
7690.00,1.44
7689.00,1.44
7688.00,1.44
7687.00,1.44
7686.00,1.44
7685.00,1.44
7684.00,1.44
7683.00,1.44
7682.00,1.44
7681.00,1.44
7680.00,1.44
7679.00,1.44
7678.00,1.44
7677.00,1.44
7676.00,1.44
7675.00,1.44
7674.00,1.44
7673.00,1.44
7672.00,1.44
7671.00,1.44
7670.00,1.44
7669.00,1.44
7668.00,1.44
7667.00,1.44
7666.00,1.44
7665.00,1.44
7664.00,1.44
7663.00,1.44
7662.00,1.44
7661.00,1.44
7660.00,1.44
7659.00,1.44
7658.00,1.44
7657.00,1.44
7656.00,1.44
7655.00,1.44
7654.00,1.44
7653.00,1.44
7652.00,1.44
7651.00,1.44
7650.00,1.44
7649.00,1.43
7648.00,1.43
7647.00,1.43
7646.00,1.43
7645.00,1.43
7644.00,1.43
7643.00,1.43
7642.00,1.43
7641.00,1.43
7640.00,1.43
7639.00,1.43
7638.00,1.43
7637.00,1.43
7636.00,1.43
7635.00,1.43
7634.00,1.43
7633.00,1.43
7632.00,1.43
7631.00,1.43
7630.00,1.43
7629.00,1.43
7628.00,1.43
7627.00,1.43
7626.00,1.43
7625.00,1.43
7624.00,1.43
7623.00,1.43
7622.00,1.43
7621.00,1.43
7620.00,1.43
7619.00,1.43
7618.00,1.43
7617.00,1.43
7616.00,1.43
7615.00,1.43
7614.00,1.43
7613.00,1.43
7612.00,1.43
7611.00,1.43
7610.00,1.43
7609.00,1.43
7608.00,1.43
7607.00,1.43
7606.00,1.43
7605.00,1.43
7604.00,1.43
7603.00,1.43
7602.00,1.44
7601.00,1.44
7600.00,1.44
7599.00,1.44
7598.00,1.44
7597.00,1.44
7596.00,1.44
7595.00,1.44
7594.00,1.44
7593.00,1.44
7592.00,1.44
7591.00,1.44
7590.00,1.44
7589.00,1.44
7588.00,1.44
7587.00,1.44
7586.00,1.44
7585.00,1.44
7584.00,1.43
7583.00,1.43
7582.00,1.43
7581.00,1.43
7580.00,1.43
7579.00,1.43
7578.00,1.43
7577.00,1.43
7576.00,1.43
7575.00,1.43
7574.00,1.43
7573.00,1.43
7572.00,1.43
7571.00,1.43
7570.00,1.43
7569.00,1.43
7568.00,1.43
7567.00,1.43
7566.00,1.43
7565.00,1.43
7564.00,1.44
7563.00,1.44
7562.00,1.44
7561.00,1.44
7560.00,1.44
7559.00,1.44
7558.00,1.44
7557.00,1.44
7556.00,1.44
7555.00,1.44
7554.00,1.44
7553.00,1.44
7552.00,1.44
7551.00,1.44
7550.00,1.44
7549.00,1.43
7548.00,1.43
7547.00,1.43
7546.00,1.43
7545.00,1.43
7544.00,1.43
7543.00,1.43
7542.00,1.43
7541.00,1.43
7540.00,1.43
7539.00,1.43
7538.00,1.43
7537.00,1.43
7536.00,1.43
7535.00,1.43
7534.00,1.43
7533.00,1.43
7532.00,1.44
7531.00,1.44
7530.00,1.44
7529.00,1.44
7528.00,1.44
7527.00,1.44
7526.00,1.44
7525.00,1.44
7524.00,1.44
7523.00,1.44
7522.00,1.44
7521.00,1.44
7520.00,1.44
7519.00,1.44
7518.00,1.44
7517.00,1.44
7516.00,1.43
7515.00,1.43
7514.00,1.43
7513.00,1.43
7512.00,1.43
7511.00,1.43
7510.00,1.43
7509.00,1.43
7508.00,1.43
7507.00,1.43
7506.00,1.43
7505.00,1.43
7504.00,1.43
7503.00,1.43
7502.00,1.43
7501.00,1.43
7500.00,1.42
7499.00,1.42
7498.00,1.42
7497.00,1.42
7496.00,1.42
7495.00,1.42
7494.00,1.42
7493.00,1.42
7492.00,1.42
7491.00,1.42
7490.00,1.42
7489.00,1.42
7488.00,1.43
7487.00,1.43
7486.00,1.43
7485.00,1.43
7484.00,1.43
7483.00,1.43
7482.00,1.43
7481.00,1.43
7480.00,1.43
7479.00,1.43
7478.00,1.43
7477.00,1.43
7476.00,1.43
7475.00,1.43
7474.00,1.42
7473.00,1.42
7472.00,1.42
7471.00,1.42
7470.00,1.42
7469.00,1.42
7468.00,1.42
7467.00,1.42
7466.00,1.41
7465.00,1.41
7464.00,1.41
7463.00,1.41
7462.00,1.41
7461.00,1.41
7460.00,1.41
7459.00,1.41
7458.00,1.41
7457.00,1.41
7456.00,1.41
7455.00,1.41
7454.00,1.41
7453.00,1.41
7452.00,1.41
7451.00,1.41
7450.00,1.41
7449.00,1.41
7448.00,1.41
7447.00,1.41
7446.00,1.41
7445.00,1.41
7444.00,1.41
7443.00,1.41
7442.00,1.41
7441.00,1.41
7440.00,1.41
7439.00,1.41
7438.00,1.41
7437.00,1.41
7436.00,1.41
7435.00,1.41
7434.00,1.41
7433.00,1.41
7432.00,1.41
7431.00,1.41
7430.00,1.41
7429.00,1.41
7428.00,1.41
7427.00,1.41
7426.00,1.41
7425.00,1.41
7424.00,1.41
7423.00,1.41
7422.00,1.41
7421.00,1.41
7420.00,1.41
7419.00,1.41
7418.00,1.41
7417.00,1.41
7416.00,1.41
7415.00,1.40
7414.00,1.40
7413.00,1.40
7412.00,1.40
7411.00,1.40
7410.00,1.40
7409.00,1.40
7408.00,1.40
7407.00,1.40
7406.00,1.40
7405.00,1.40
7404.00,1.39
7403.00,1.39
7402.00,1.39
7401.00,1.39
7400.00,1.39
7399.00,1.39
7398.00,1.39
7397.00,1.39
7396.00,1.39
7395.00,1.39
7394.00,1.39
7393.00,1.39
7392.00,1.38
7391.00,1.38
7390.00,1.38
7389.00,1.38
7388.00,1.38
7387.00,1.38
7386.00,1.38
7385.00,1.38
7384.00,1.38
7383.00,1.38
7382.00,1.38
7381.00,1.38
7380.00,1.38
7379.00,1.38
7378.00,1.38
7377.00,1.38
7376.00,1.37
7375.00,1.37
7374.00,1.37
7373.00,1.37
7372.00,1.37
7371.00,1.37
7370.00,1.37
7369.00,1.37
7368.00,1.37
7367.00,1.37
7366.00,1.37
7365.00,1.37
7364.00,1.37
7363.00,1.37
7362.00,1.37
7361.00,1.37
7360.00,1.37
7359.00,1.37
7358.00,1.37
7357.00,1.37
7356.00,1.38
7355.00,1.38
7354.00,1.38
7353.00,1.38
7352.00,1.38
7351.00,1.38
7350.00,1.38
7349.00,1.38
7348.00,1.38
7347.00,1.38
7346.00,1.38
7345.00,1.38
7344.00,1.38
7343.00,1.38
7342.00,1.38
7341.00,1.38
7340.00,1.38
7339.00,1.38
7338.00,1.38
7337.00,1.38
7336.00,1.38
7335.00,1.38
7334.00,1.38
7333.00,1.37
7332.00,1.37
7331.00,1.37
7330.00,1.37
7329.00,1.37
7328.00,1.37
7327.00,1.37
7326.00,1.37
7325.00,1.37
7324.00,1.37
7323.00,1.37
7322.00,1.37
7321.00,1.37
7320.00,1.37
7319.00,1.37
7318.00,1.37
7317.00,1.37
7316.00,1.37
7315.00,1.37
7314.00,1.37
7313.00,1.37
7312.00,1.36
7311.00,1.36
7310.00,1.36
7309.00,1.36
7308.00,1.36
7307.00,1.36
7306.00,1.36
7305.00,1.36
7304.00,1.35
7303.00,1.35
7302.00,1.35
7301.00,1.35
7300.00,1.35
7299.00,1.35
7298.00,1.35
7297.00,1.35
7296.00,1.35
7295.00,1.35
7294.00,1.35
7293.00,1.35
7292.00,1.35
7291.00,1.35
7290.00,1.35
7289.00,1.34
7288.00,1.34
7287.00,1.34
7286.00,1.34
7285.00,1.34
7284.00,1.34
7283.00,1.34
7282.00,1.34
7281.00,1.34
7280.00,1.34
7279.00,1.34
7278.00,1.34
7277.00,1.34
7276.00,1.34
7275.00,1.34
7274.00,1.34
7273.00,1.34
7272.00,1.34
7271.00,1.34
7270.00,1.34
7269.00,1.34
7268.00,1.34
7267.00,1.34
7266.00,1.34
7265.00,1.34
7264.00,1.34
7263.00,1.34
7262.00,1.34
7261.00,1.34
7260.00,1.34
7259.00,1.34
7258.00,1.34
7257.00,1.33
7256.00,1.33
7255.00,1.33
7254.00,1.33
7253.00,1.33
7252.00,1.33
7251.00,1.33
7250.00,1.33
7249.00,1.33
7248.00,1.33
7247.00,1.32
7246.00,1.32
7245.00,1.32
7244.00,1.32
7243.00,1.32
7242.00,1.31
7241.00,1.31
7240.00,1.31
7239.00,1.31
7238.00,1.31
7237.00,1.30
7236.00,1.30
7235.00,1.30
7234.00,1.30
7233.00,1.30
7232.00,1.30
7231.00,1.29
7230.00,1.29
7229.00,1.29
7228.00,1.29
7227.00,1.29
7226.00,1.29
7225.00,1.29
7224.00,1.28
7223.00,1.28
7222.00,1.28
7221.00,1.28
7220.00,1.28
7219.00,1.28
7218.00,1.27
7217.00,1.27
7216.00,1.27
7215.00,1.27
7214.00,1.27
7213.00,1.26
7212.00,1.26
7211.00,1.26
7210.00,1.26
7209.00,1.26
7208.00,1.25
7207.00,1.25
7206.00,1.25
7205.00,1.25
7204.00,1.25
7203.00,1.25
7202.00,1.24
7201.00,1.24
7200.00,1.24
7199.00,1.24
7198.00,1.24
7197.00,1.23
7196.00,1.23
7195.00,1.23
7194.00,1.23
7193.00,1.22
7192.00,1.22
7191.00,1.22
7190.00,1.21
7189.00,1.21
7188.00,1.21
7187.00,1.20
7186.00,1.20
7185.00,1.20
7184.00,1.19
7183.00,1.19
7182.00,1.19
7181.00,1.18
7180.00,1.18
7179.00,1.18
7178.00,1.17
7177.00,1.17
7176.00,1.17
7175.00,1.17
7174.00,1.17
7173.00,1.16
7172.00,1.16
7171.00,1.16
7170.00,1.16
7169.00,1.16
7168.00,1.16
7167.00,1.16
7166.00,1.16
7165.00,1.16
7164.00,1.16
7163.00,1.16
7162.00,1.16
7161.00,1.16
7160.00,1.16
7159.00,1.16
7158.00,1.15
7157.00,1.15
7156.00,1.15
7155.00,1.15
7154.00,1.15
7153.00,1.15
7152.00,1.15
7151.00,1.15
7150.00,1.14
7149.00,1.14
7148.00,1.14
7147.00,1.14
7146.00,1.14
7145.00,1.13
7144.00,1.13
7143.00,1.13
7142.00,1.13
7141.00,1.13
7140.00,1.12
7139.00,1.12
7138.00,1.12
7137.00,1.12
7136.00,1.11
7135.00,1.11
7134.00,1.11
7133.00,1.11
7132.00,1.11
7131.00,1.11
7130.00,1.11
7129.00,1.10
7128.00,1.10
7127.00,1.10
7126.00,1.10
7125.00,1.10
7124.00,1.10
7123.00,1.09
7122.00,1.09
7121.00,1.09
7120.00,1.09
7119.00,1.08
7118.00,1.08
7117.00,1.08
7116.00,1.07
7115.00,1.07
7114.00,1.07
7113.00,1.06
7112.00,1.06
7111.00,1.06
7110.00,1.06
7109.00,1.05
7108.00,1.05
7107.00,1.05
7106.00,1.05
7105.00,1.04
7104.00,1.04
7103.00,1.04
7102.00,1.04
7101.00,1.04
7100.00,1.04
7099.00,1.04
7098.00,1.04
7097.00,1.04
7096.00,1.04
7095.00,1.03
7094.00,1.03
7093.00,1.03
7092.00,1.03
7091.00,1.03
7090.00,1.03
7089.00,1.02
7088.00,1.02
7087.00,1.02
7086.00,1.02
7085.00,1.02
7084.00,1.01
7083.00,1.01
7082.00,1.01
7081.00,1.01
7080.00,1.01
7079.00,1.01
7078.00,1.00
7077.00,1.00
7076.00,1.00
7075.00,1.00
7074.00,1.00
7073.00,1.00
7072.00,1.00
7071.00,1.00
7070.00,0.99
7069.00,0.99
7068.00,0.99
7067.00,0.99
7066.00,0.99
7065.00,0.99
7064.00,0.99
7063.00,0.99
7062.00,0.99
7061.00,0.99
7060.00,0.98
7059.00,0.98
7058.00,0.98
7057.00,0.98
7056.00,0.98
7055.00,0.98
7054.00,0.98
7053.00,0.98
7052.00,0.97
7051.00,0.97
7050.00,0.97
7049.00,0.97
7048.00,0.97
7047.00,0.96
7046.00,0.96
7045.00,0.96
7044.00,0.96
7043.00,0.96
7042.00,0.96
7041.00,0.95
7040.00,0.95
7039.00,0.95
7038.00,0.95
7037.00,0.95
7036.00,0.95
7035.00,0.95
7034.00,0.94
7033.00,0.94
7032.00,0.94
7031.00,0.94
7030.00,0.94
7029.00,0.94
7028.00,0.94
7027.00,0.94
7026.00,0.93
7025.00,0.93
7024.00,0.93
7023.00,0.93
7022.00,0.93
7021.00,0.93
7020.00,0.93
7019.00,0.93
7018.00,0.93
7017.00,0.92
7016.00,0.92
7015.00,0.92
7014.00,0.92
7013.00,0.92
7012.00,0.92
7011.00,0.92
7010.00,0.92
7009.00,0.92
7008.00,0.92
7007.00,0.91
7006.00,0.91
7005.00,0.91
7004.00,0.91
7003.00,0.91
7002.00,0.91
7001.00,0.91
7000.00,0.91
6999.00,0.91
6998.00,0.91
6997.00,0.91
6996.00,0.91
6995.00,0.91
6994.00,0.91
6993.00,0.91
6992.00,0.91
6991.00,0.91
6990.00,0.90
6989.00,0.90
6988.00,0.90
6987.00,0.90
6986.00,0.90
6985.00,0.90
6984.00,0.90
6983.00,0.90
6982.00,0.90
6981.00,0.89
6980.00,0.89
6979.00,0.89
6978.00,0.89
6977.00,0.89
6976.00,0.89
6975.00,0.89
6974.00,0.89
6973.00,0.89
6972.00,0.89
6971.00,0.89
6970.00,0.89
6969.00,0.89
6968.00,0.89
6967.00,0.89
6966.00,0.89
6965.00,0.89
6964.00,0.89
6963.00,0.88
6962.00,0.88
6961.00,0.88
6960.00,0.88
6959.00,0.88
6958.00,0.88
6957.00,0.88
6956.00,0.88
6955.00,0.88
6954.00,0.88
6953.00,0.88
6952.00,0.87
6951.00,0.87
6950.00,0.87
6949.00,0.87
6948.00,0.87
6947.00,0.87
6946.00,0.87
6945.00,0.87
6944.00,0.87
6943.00,0.87
6942.00,0.87
6941.00,0.87
6940.00,0.87
6939.00,0.87
6938.00,0.87
6937.00,0.87
6936.00,0.87
6935.00,0.87
6934.00,0.87
6933.00,0.87
6932.00,0.87
6931.00,0.87
6930.00,0.87
6929.00,0.86
6928.00,0.86
6927.00,0.86
6926.00,0.86
6925.00,0.86
6924.00,0.86
6923.00,0.86
6922.00,0.86
6921.00,0.85
6920.00,0.85
6919.00,0.85
6918.00,0.85
6917.00,0.85
6916.00,0.85
6915.00,0.85
6914.00,0.85
6913.00,0.85
6912.00,0.85
6911.00,0.85
6910.00,0.85
6909.00,0.85
6908.00,0.85
6907.00,0.85
6906.00,0.85
6905.00,0.85
6904.00,0.85
6903.00,0.85
6902.00,0.85
6901.00,0.85
6900.00,0.85
6899.00,0.85
6898.00,0.85
6897.00,0.85
6896.00,0.85
6895.00,0.85
6894.00,0.85
6893.00,0.85
6892.00,0.85
6891.00,0.85
6890.00,0.85
6889.00,0.85
6888.00,0.85
6887.00,0.85
6886.00,0.85
6885.00,0.85
6884.00,0.85
6883.00,0.85
6882.00,0.85
6881.00,0.85
6880.00,0.85
6879.00,0.84
6878.00,0.84
6877.00,0.84
6876.00,0.84
6875.00,0.84
6874.00,0.84
6873.00,0.84
6872.00,0.84
6871.00,0.84
6870.00,0.84
6869.00,0.84
6868.00,0.83
6867.00,0.83
6866.00,0.83
6865.00,0.83
6864.00,0.83
6863.00,0.83
6862.00,0.83
6861.00,0.83
6860.00,0.83
6859.00,0.83
6858.00,0.83
6857.00,0.83
6856.00,0.84
6855.00,0.84
6854.00,0.84
6853.00,0.84
6852.00,0.84
6851.00,0.84
6850.00,0.84
6849.00,0.84
6848.00,0.84
6847.00,0.84
6846.00,0.84
6845.00,0.84
6844.00,0.84
6843.00,0.84
6842.00,0.85
6841.00,0.85
6840.00,0.85
6839.00,0.85
6838.00,0.85
6837.00,0.85
6836.00,0.85
6835.00,0.85
6834.00,0.84
6833.00,0.84
6832.00,0.84
6831.00,0.84
6830.00,0.84
6829.00,0.84
6828.00,0.84
6827.00,0.84
6826.00,0.84
6825.00,0.84
6824.00,0.84
6823.00,0.84
6822.00,0.84
6821.00,0.84
6820.00,0.84
6819.00,0.84
6818.00,0.84
6817.00,0.84
6816.00,0.84
6815.00,0.84
6814.00,0.84
6813.00,0.84
6812.00,0.84
6811.00,0.84
6810.00,0.84
6809.00,0.84
6808.00,0.85
6807.00,0.85
6806.00,0.85
6805.00,0.85
6804.00,0.85
6803.00,0.85
6802.00,0.85
6801.00,0.85
6800.00,0.86
6799.00,0.86
6798.00,0.86
6797.00,0.86
6796.00,0.86
6795.00,0.86
6794.00,0.87
6793.00,0.87
6792.00,0.87
6791.00,0.87
6790.00,0.87
6789.00,0.87
6788.00,0.87
6787.00,0.87
6786.00,0.87
6785.00,0.87
6784.00,0.87
6783.00,0.87
6782.00,0.87
6781.00,0.87
6780.00,0.87
6779.00,0.87
6778.00,0.87
6777.00,0.87
6776.00,0.87
6775.00,0.87
6774.00,0.87
6773.00,0.87
6772.00,0.87
6771.00,0.87
6770.00,0.87
6769.00,0.87
6768.00,0.87
6767.00,0.87
6766.00,0.88
6765.00,0.88
6764.00,0.88
6763.00,0.88
6762.00,0.88
6761.00,0.88
6760.00,0.88
6759.00,0.88
6758.00,0.88
6757.00,0.88
6756.00,0.88
6755.00,0.88
6754.00,0.88
6753.00,0.88
6752.00,0.88
6751.00,0.88
6750.00,0.88
6749.00,0.88
6748.00,0.88
6747.00,0.88
6746.00,0.88
6745.00,0.88
6744.00,0.88
6743.00,0.88
6742.00,0.89
6741.00,0.89
6740.00,0.89
6739.00,0.89
6738.00,0.89
6737.00,0.89
6736.00,0.89
6735.00,0.90
6734.00,0.90
6733.00,0.90
6732.00,0.90
6731.00,0.90
6730.00,0.90
6729.00,0.90
6728.00,0.90
6727.00,0.90
6726.00,0.90
6725.00,0.90
6724.00,0.90
6723.00,0.91
6722.00,0.91
6721.00,0.91
6720.00,0.91
6719.00,0.91
6718.00,0.91
6717.00,0.91
6716.00,0.91
6715.00,0.91
6714.00,0.91
6713.00,0.91
6712.00,0.91
6711.00,0.91
6710.00,0.91
6709.00,0.92
6708.00,0.92
6707.00,0.92
6706.00,0.92
6705.00,0.92
6704.00,0.92
6703.00,0.92
6702.00,0.92
6701.00,0.92
6700.00,0.92
6699.00,0.92
6698.00,0.92
6697.00,0.92
6696.00,0.92
6695.00,0.92
6694.00,0.92
6693.00,0.92
6692.00,0.92
6691.00,0.92
6690.00,0.92
6689.00,0.92
6688.00,0.92
6687.00,0.92
6686.00,0.92
6685.00,0.92
6684.00,0.93
6683.00,0.93
6682.00,0.93
6681.00,0.93
6680.00,0.93
6679.00,0.93
6678.00,0.93
6677.00,0.93
6676.00,0.94
6675.00,0.94
6674.00,0.94
6673.00,0.94
6672.00,0.94
6671.00,0.94
6670.00,0.94
6669.00,0.94
6668.00,0.94
6667.00,0.94
6666.00,0.94
6665.00,0.95
6664.00,0.95
6663.00,0.95
6662.00,0.95
6661.00,0.95
6660.00,0.95
6659.00,0.95
6658.00,0.95
6657.00,0.95
6656.00,0.95
6655.00,0.95
6654.00,0.95
6653.00,0.95
6652.00,0.95
6651.00,0.95
6650.00,0.96
6649.00,0.96
6648.00,0.96
6647.00,0.96
6646.00,0.96
6645.00,0.96
6644.00,0.96
6643.00,0.96
6642.00,0.96
6641.00,0.96
6640.00,0.96
6639.00,0.96
6638.00,0.96
6637.00,0.97
6636.00,0.97
6635.00,0.97
6634.00,0.97
6633.00,0.97
6632.00,0.97
6631.00,0.97
6630.00,0.97
6629.00,0.97
6628.00,0.97
6627.00,0.97
6626.00,0.97
6625.00,0.97
6624.00,0.98
6623.00,0.98
6622.00,0.98
6621.00,0.98
6620.00,0.98
6619.00,0.98
6618.00,0.98
6617.00,0.98
6616.00,0.98
6615.00,0.98
6614.00,0.98
6613.00,0.98
6612.00,0.98
6611.00,0.98
6610.00,0.98
6609.00,0.98
6608.00,0.98
6607.00,0.98
6606.00,0.98
6605.00,0.98
6604.00,0.99
6603.00,0.99
6602.00,0.99
6601.00,0.99
6600.00,0.99
6599.00,0.99
6598.00,0.99
6597.00,0.99
6596.00,0.99
6595.00,1.00
6594.00,1.00
6593.00,1.00
6592.00,1.00
6591.00,1.00
6590.00,1.00
6589.00,1.00
6588.00,1.00
6587.00,1.00
6586.00,1.00
6585.00,1.01
6584.00,1.01
6583.00,1.01
6582.00,1.01
6581.00,1.01
6580.00,1.01
6579.00,1.01
6578.00,1.01
6577.00,1.01
6576.00,1.01
6575.00,1.02
6574.00,1.02
6573.00,1.02
6572.00,1.02
6571.00,1.02
6570.00,1.02
6569.00,1.02
6568.00,1.02
6567.00,1.02
6566.00,1.02
6565.00,1.03
6564.00,1.03
6563.00,1.03
6562.00,1.03
6561.00,1.03
6560.00,1.03
6559.00,1.03
6558.00,1.03
6557.00,1.03
6556.00,1.03
6555.00,1.03
6554.00,1.03
6553.00,1.03
6552.00,1.03
6551.00,1.03
6550.00,1.04
6549.00,1.04
6548.00,1.04
6547.00,1.04
6546.00,1.04
6545.00,1.04
6544.00,1.04
6543.00,1.04
6542.00,1.04
6541.00,1.04
6540.00,1.04
6539.00,1.04
6538.00,1.04
6537.00,1.04
6536.00,1.04
6535.00,1.04
6534.00,1.04
6533.00,1.04
6532.00,1.04
6531.00,1.04
6530.00,1.04
6529.00,1.04
6528.00,1.04
6527.00,1.04
6526.00,1.04
6525.00,1.04
6524.00,1.05
6523.00,1.05
6522.00,1.05
6521.00,1.05
6520.00,1.05
6519.00,1.05
6518.00,1.05
6517.00,1.05
6516.00,1.05
6515.00,1.05
6514.00,1.05
6513.00,1.05
6512.00,1.05
6511.00,1.05
6510.00,1.06
6509.00,1.06
6508.00,1.06
6507.00,1.06
6506.00,1.06
6505.00,1.06
6504.00,1.06
6503.00,1.06
6502.00,1.06
6501.00,1.07
6500.00,1.07
6499.00,1.07
6498.00,1.07
6497.00,1.07
6496.00,1.07
6495.00,1.07
6494.00,1.07
6493.00,1.07
6492.00,1.07
6491.00,1.07
6490.00,1.07
6489.00,1.08
6488.00,1.08
6487.00,1.08
6486.00,1.08
6485.00,1.08
6484.00,1.08
6483.00,1.08
6482.00,1.08
6481.00,1.08
6480.00,1.08
6479.00,1.08
6478.00,1.08
6477.00,1.08
6476.00,1.08
6475.00,1.07
6474.00,1.07
6473.00,1.07
6472.00,1.07
6471.00,1.07
6470.00,1.07
6469.00,1.07
6468.00,1.07
6467.00,1.07
6466.00,1.07
6465.00,1.07
6464.00,1.07
6463.00,1.07
6462.00,1.07
6461.00,1.07
6460.00,1.07
6459.00,1.07
6458.00,1.07
6457.00,1.08
6456.00,1.08
6455.00,1.08
6454.00,1.08
6453.00,1.08
6452.00,1.08
6451.00,1.08
6450.00,1.08
6449.00,1.08
6448.00,1.08
6447.00,1.08
6446.00,1.08
6445.00,1.08
6444.00,1.08
6443.00,1.08
6442.00,1.08
6441.00,1.08
6440.00,1.08
6439.00,1.08
6438.00,1.08
6437.00,1.08
6436.00,1.08
6435.00,1.08
6434.00,1.08
6433.00,1.08
6432.00,1.08
6431.00,1.09
6430.00,1.09
6429.00,1.09
6428.00,1.09
6427.00,1.09
6426.00,1.09
6425.00,1.09
6424.00,1.09
6423.00,1.09
6422.00,1.09
6421.00,1.09
6420.00,1.09
6419.00,1.09
6418.00,1.09
6417.00,1.09
6416.00,1.09
6415.00,1.09
6414.00,1.09
6413.00,1.10
6412.00,1.10
6411.00,1.10
6410.00,1.10
6409.00,1.10
6408.00,1.10
6407.00,1.10
6406.00,1.10
6405.00,1.10
6404.00,1.10
6403.00,1.10
6402.00,1.10
6401.00,1.11
6400.00,1.11
6399.00,1.11
6398.00,1.11
6397.00,1.11
6396.00,1.11
6395.00,1.11
6394.00,1.11
6393.00,1.11
6392.00,1.11
6391.00,1.11
6390.00,1.11
6389.00,1.11
6388.00,1.11
6387.00,1.11
6386.00,1.11
6385.00,1.11
6384.00,1.11
6383.00,1.11
6382.00,1.11
6381.00,1.11
6380.00,1.11
6379.00,1.11
6378.00,1.11
6377.00,1.11
6376.00,1.12
6375.00,1.12
6374.00,1.12
6373.00,1.12
6372.00,1.12
6371.00,1.12
6370.00,1.12
6369.00,1.12
6368.00,1.12
6367.00,1.12
6366.00,1.12
6365.00,1.12
6364.00,1.12
6363.00,1.12
6362.00,1.12
6361.00,1.12
6360.00,1.12
6359.00,1.12
6358.00,1.12
6357.00,1.12
6356.00,1.12
6355.00,1.12
6354.00,1.13
6353.00,1.13
6352.00,1.13
6351.00,1.13
6350.00,1.13
6349.00,1.13
6348.00,1.13
6347.00,1.13
6346.00,1.13
6345.00,1.13
6344.00,1.13
6343.00,1.13
6342.00,1.13
6341.00,1.13
6340.00,1.13
6339.00,1.13
6338.00,1.13
6337.00,1.13
6336.00,1.13
6335.00,1.13
6334.00,1.14
6333.00,1.14
6332.00,1.14
6331.00,1.14
6330.00,1.14
6329.00,1.14
6328.00,1.14
6327.00,1.14
6326.00,1.14
6325.00,1.14
6324.00,1.15
6323.00,1.15
6322.00,1.15
6321.00,1.15
6320.00,1.15
6319.00,1.15
6318.00,1.15
6317.00,1.15
6316.00,1.15
6315.00,1.15
6314.00,1.15
6313.00,1.15
6312.00,1.15
6311.00,1.15
6310.00,1.15
6309.00,1.15
6308.00,1.15
6307.00,1.16
6306.00,1.16
6305.00,1.16
6304.00,1.16
6303.00,1.16
6302.00,1.16
6301.00,1.16
6300.00,1.16
6299.00,1.16
6298.00,1.16
6297.00,1.16
6296.00,1.17
6295.00,1.17
6294.00,1.17
6293.00,1.17
6292.00,1.17
6291.00,1.17
6290.00,1.17
6289.00,1.17
6288.00,1.17
6287.00,1.17
6286.00,1.17
6285.00,1.17
6284.00,1.17
6283.00,1.17
6282.00,1.17
6281.00,1.17
6280.00,1.17
6279.00,1.17
6278.00,1.17
6277.00,1.17
6276.00,1.17
6275.00,1.17
6274.00,1.17
6273.00,1.17
6272.00,1.17
6271.00,1.18
6270.00,1.18
6269.00,1.18
6268.00,1.18
6267.00,1.18
6266.00,1.18
6265.00,1.18
6264.00,1.19
6263.00,1.19
6262.00,1.19
6261.00,1.19
6260.00,1.19
6259.00,1.19
6258.00,1.19
6257.00,1.19
6256.00,1.20
6255.00,1.20
6254.00,1.20
6253.00,1.20
6252.00,1.20
6251.00,1.20
6250.00,1.20
6249.00,1.20
6248.00,1.20
6247.00,1.20
6246.00,1.20
6245.00,1.20
6244.00,1.21
6243.00,1.21
6242.00,1.21
6241.00,1.21
6240.00,1.21
6239.00,1.21
6238.00,1.21
6237.00,1.21
6236.00,1.21
6235.00,1.21
6234.00,1.21
6233.00,1.21
6232.00,1.21
6231.00,1.22
6230.00,1.22
6229.00,1.22
6228.00,1.22
6227.00,1.22
6226.00,1.22
6225.00,1.22
6224.00,1.22
6223.00,1.22
6222.00,1.22
6221.00,1.22
6220.00,1.22
6219.00,1.23
6218.00,1.23
6217.00,1.23
6216.00,1.23
6215.00,1.23
6214.00,1.23
6213.00,1.23
6212.00,1.23
6211.00,1.23
6210.00,1.23
6209.00,1.23
6208.00,1.23
6207.00,1.23
6206.00,1.24
6205.00,1.24
6204.00,1.24
6203.00,1.24
6202.00,1.24
6201.00,1.24
6200.00,1.24
6199.00,1.24
6198.00,1.24
6197.00,1.24
6196.00,1.24
6195.00,1.24
6194.00,1.24
6193.00,1.24
6192.00,1.24
6191.00,1.24
6190.00,1.24
6189.00,1.24
6188.00,1.25
6187.00,1.25
6186.00,1.25
6185.00,1.25
6184.00,1.25
6183.00,1.25
6182.00,1.25
6181.00,1.25
6180.00,1.25
6179.00,1.25
6178.00,1.25
6177.00,1.26
6176.00,1.26
6175.00,1.26
6174.00,1.26
6173.00,1.26
6172.00,1.26
6171.00,1.26
6170.00,1.26
6169.00,1.26
6168.00,1.26
6167.00,1.26
6166.00,1.26
6165.00,1.26
6164.00,1.26
6163.00,1.27
6162.00,1.27
6161.00,1.27
6160.00,1.27
6159.00,1.27
6158.00,1.27
6157.00,1.28
6156.00,1.28
6155.00,1.28
6154.00,1.28
6153.00,1.28
6152.00,1.29
6151.00,1.29
6150.00,1.29
6149.00,1.29
6148.00,1.29
6147.00,1.29
6146.00,1.30
6145.00,1.30
6144.00,1.30
6143.00,1.30
6142.00,1.30
6141.00,1.30
6140.00,1.30
6139.00,1.30
6138.00,1.30
6137.00,1.30
6136.00,1.30
6135.00,1.30
6134.00,1.30
6133.00,1.30
6132.00,1.30
6131.00,1.30
6130.00,1.30
6129.00,1.30
6128.00,1.30
6127.00,1.31
6126.00,1.31
6125.00,1.31
6124.00,1.31
6123.00,1.31
6122.00,1.31
6121.00,1.31
6120.00,1.31
6119.00,1.31
6118.00,1.31
6117.00,1.31
6116.00,1.32
6115.00,1.32
6114.00,1.32
6113.00,1.32
6112.00,1.32
6111.00,1.32
6110.00,1.32
6109.00,1.32
6108.00,1.33
6107.00,1.33
6106.00,1.33
6105.00,1.33
6104.00,1.33
6103.00,1.33
6102.00,1.33
6101.00,1.33
6100.00,1.33
6099.00,1.33
6098.00,1.34
6097.00,1.34
6096.00,1.34
6095.00,1.34
6094.00,1.34
6093.00,1.34
6092.00,1.34
6091.00,1.34
6090.00,1.34
6089.00,1.34
6088.00,1.34
6087.00,1.34
6086.00,1.35
6085.00,1.35
6084.00,1.35
6083.00,1.35
6082.00,1.35
6081.00,1.35
6080.00,1.35
6079.00,1.35
6078.00,1.35
6077.00,1.35
6076.00,1.35
6075.00,1.35
6074.00,1.35
6073.00,1.35
6072.00,1.35
6071.00,1.35
6070.00,1.35
6069.00,1.35
6068.00,1.35
6067.00,1.35
6066.00,1.36
6065.00,1.36
6064.00,1.36
6063.00,1.36
6062.00,1.36
6061.00,1.36
6060.00,1.36
6059.00,1.36
6058.00,1.36
6057.00,1.36
6056.00,1.36
6055.00,1.36
6054.00,1.36
6053.00,1.37
6052.00,1.37
6051.00,1.37
6050.00,1.37
6049.00,1.37
6048.00,1.37
6047.00,1.37
6046.00,1.37
6045.00,1.37
6044.00,1.37
6043.00,1.37
6042.00,1.37
6041.00,1.38
6040.00,1.38
6039.00,1.38
6038.00,1.38
6037.00,1.38
6036.00,1.38
6035.00,1.38
6034.00,1.38
6033.00,1.38
6032.00,1.38
6031.00,1.38
6030.00,1.38
6029.00,1.38
6028.00,1.38
6027.00,1.38
6026.00,1.38
6025.00,1.38
6024.00,1.38
6023.00,1.38
6022.00,1.38
6021.00,1.38
6020.00,1.38
6019.00,1.38
6018.00,1.38
6017.00,1.38
6016.00,1.38
6015.00,1.38
6014.00,1.38
6013.00,1.38
6012.00,1.37
6011.00,1.37
6010.00,1.37
6009.00,1.37
6008.00,1.37
6007.00,1.37
6006.00,1.37
6005.00,1.37
6004.00,1.37
6003.00,1.37
6002.00,1.37
6001.00,1.37
6000.00,1.37
5999.00,1.37
5998.00,1.37
5997.00,1.37
5996.00,1.37
5995.00,1.37
5994.00,1.37
5993.00,1.37
5992.00,1.37
5991.00,1.37
5990.00,1.37
5989.00,1.37
5988.00,1.37
5987.00,1.36
5986.00,1.36
5985.00,1.36
5984.00,1.36
5983.00,1.36
5982.00,1.36
5981.00,1.35
5980.00,1.35
5979.00,1.35
5978.00,1.35
5977.00,1.34
5976.00,1.34
5975.00,1.34
5974.00,1.33
5973.00,1.33
5972.00,1.33
5971.00,1.32
5970.00,1.32
5969.00,1.32
5968.00,1.31
5967.00,1.31
5966.00,1.30
5965.00,1.30
5964.00,1.29
5963.00,1.29
5962.00,1.28
5961.00,1.28
5960.00,1.27
5959.00,1.27
5958.00,1.26
5957.00,1.26
5956.00,1.25
5955.00,1.25
5954.00,1.25
5953.00,1.24
5952.00,1.24
5951.00,1.23
5950.00,1.23
5949.00,1.22
5948.00,1.22
5947.00,1.22
5946.00,1.21
5945.00,1.21
5944.00,1.21
5943.00,1.21
5942.00,1.21
5941.00,1.20
5940.00,1.20
5939.00,1.20
5938.00,1.20
5937.00,1.20
5936.00,1.20
5935.00,1.20
5934.00,1.20
5933.00,1.19
5932.00,1.19
5931.00,1.19
5930.00,1.19
5929.00,1.19
5928.00,1.19
5927.00,1.19
5926.00,1.19
5925.00,1.19
5924.00,1.19
5923.00,1.19
5922.00,1.18
5921.00,1.18
5920.00,1.18
5919.00,1.18
5918.00,1.18
5917.00,1.18
5916.00,1.17
5915.00,1.17
5914.00,1.17
5913.00,1.17
5912.00,1.17
5911.00,1.16
5910.00,1.16
5909.00,1.16
5908.00,1.16
5907.00,1.16
5906.00,1.16
5905.00,1.16
5904.00,1.15
5903.00,1.15
5902.00,1.15
5901.00,1.15
5900.00,1.15
5899.00,1.15
5898.00,1.16
5897.00,1.16
5896.00,1.16
5895.00,1.16
5894.00,1.16
5893.00,1.16
5892.00,1.16
5891.00,1.17
5890.00,1.17
5889.00,1.17
5888.00,1.17
5887.00,1.18
5886.00,1.18
5885.00,1.18
5884.00,1.19
5883.00,1.19
5882.00,1.19
5881.00,1.20
5880.00,1.20
5879.00,1.20
5878.00,1.20
5877.00,1.21
5876.00,1.21
5875.00,1.21
5874.00,1.21
5873.00,1.21
5872.00,1.22
5871.00,1.22
5870.00,1.22
5869.00,1.22
5868.00,1.22
5867.00,1.22
5866.00,1.22
5865.00,1.22
5864.00,1.22
5863.00,1.22
5862.00,1.22
5861.00,1.22
5860.00,1.22
5859.00,1.22
5858.00,1.22
5857.00,1.22
5856.00,1.22
5855.00,1.22
5854.00,1.22
5853.00,1.23
5852.00,1.23
5851.00,1.23
5850.00,1.23
5849.00,1.23
5848.00,1.23
5847.00,1.23
5846.00,1.23
5845.00,1.23
5844.00,1.23
5843.00,1.23
5842.00,1.23
5841.00,1.23
5840.00,1.23
5839.00,1.23
5838.00,1.23
5837.00,1.23
5836.00,1.23
5835.00,1.23
5834.00,1.23
5833.00,1.23
5832.00,1.23
5831.00,1.22
5830.00,1.22
5829.00,1.22
5828.00,1.22
5827.00,1.22
5826.00,1.22
5825.00,1.22
5824.00,1.22
5823.00,1.22
5822.00,1.22
5821.00,1.22
5820.00,1.22
5819.00,1.22
5818.00,1.22
5817.00,1.23
5816.00,1.23
5815.00,1.23
5814.00,1.23
5813.00,1.23
5812.00,1.23
5811.00,1.23
5810.00,1.23
5809.00,1.23
5808.00,1.23
5807.00,1.23
5806.00,1.23
5805.00,1.23
5804.00,1.23
5803.00,1.23
5802.00,1.23
5801.00,1.23
5800.00,1.23
5799.00,1.23
5798.00,1.23
5797.00,1.22
5796.00,1.22
5795.00,1.22
5794.00,1.22
5793.00,1.22
5792.00,1.22
5791.00,1.22
5790.00,1.21
5789.00,1.21
5788.00,1.21
5787.00,1.21
5786.00,1.21
5785.00,1.20
5784.00,1.20
5783.00,1.20
5782.00,1.20
5781.00,1.20
5780.00,1.20
5779.00,1.19
5778.00,1.19
5777.00,1.19
5776.00,1.19
5775.00,1.19
5774.00,1.19
5773.00,1.19
5772.00,1.19
5771.00,1.19
5770.00,1.19
5769.00,1.19
5768.00,1.19
5767.00,1.19
5766.00,1.19
5765.00,1.19
5764.00,1.19
5763.00,1.20
5762.00,1.20
5761.00,1.20
5760.00,1.20
5759.00,1.20
5758.00,1.20
5757.00,1.21
5756.00,1.21
5755.00,1.21
5754.00,1.21
5753.00,1.22
5752.00,1.22
5751.00,1.22
5750.00,1.22
5749.00,1.23
5748.00,1.23
5747.00,1.23
5746.00,1.23
5745.00,1.24
5744.00,1.24
5743.00,1.24
5742.00,1.24
5741.00,1.24
5740.00,1.25
5739.00,1.25
5738.00,1.25
5737.00,1.25
5736.00,1.25
5735.00,1.26
5734.00,1.26
5733.00,1.26
5732.00,1.26
5731.00,1.26
5730.00,1.26
5729.00,1.27
5728.00,1.27
5727.00,1.27
5726.00,1.27
5725.00,1.27
5724.00,1.27
5723.00,1.27
5722.00,1.27
5721.00,1.27
5720.00,1.27
5719.00,1.28
5718.00,1.28
5717.00,1.28
5716.00,1.28
5715.00,1.28
5714.00,1.28
5713.00,1.28
5712.00,1.28
5711.00,1.28
5710.00,1.27
5709.00,1.27
5708.00,1.27
5707.00,1.27
5706.00,1.27
5705.00,1.27
5704.00,1.27
5703.00,1.27
5702.00,1.27
5701.00,1.27
5700.00,1.27
5699.00,1.27
5698.00,1.27
5697.00,1.26
5696.00,1.26
5695.00,1.26
5694.00,1.26
5693.00,1.26
5692.00,1.26
5691.00,1.26
5690.00,1.26
5689.00,1.26
5688.00,1.26
5687.00,1.26
5686.00,1.25
5685.00,1.25
5684.00,1.25
5683.00,1.25
5682.00,1.25
5681.00,1.25
5680.00,1.25
5679.00,1.25
5678.00,1.25
5677.00,1.25
5676.00,1.25
5675.00,1.25
5674.00,1.25
5673.00,1.24
5672.00,1.24
5671.00,1.24
5670.00,1.24
5669.00,1.25
5668.00,1.25
5667.00,1.25
5666.00,1.25
5665.00,1.25
5664.00,1.25
5663.00,1.25
5662.00,1.25
5661.00,1.25
5660.00,1.25
5659.00,1.26
5658.00,1.26
5657.00,1.26
5656.00,1.26
5655.00,1.26
5654.00,1.26
5653.00,1.27
5652.00,1.27
5651.00,1.27
5650.00,1.27
5649.00,1.27
5648.00,1.27
5647.00,1.28
5646.00,1.28
5645.00,1.28
5644.00,1.28
5643.00,1.28
5642.00,1.29
5641.00,1.29
5640.00,1.29
5639.00,1.29
5638.00,1.29
5637.00,1.29
5636.00,1.29
5635.00,1.29
5634.00,1.30
5633.00,1.30
5632.00,1.30
5631.00,1.30
5630.00,1.30
5629.00,1.30
5628.00,1.30
5627.00,1.30
5626.00,1.30
5625.00,1.30
5624.00,1.30
5623.00,1.31
5622.00,1.31
5621.00,1.31
5620.00,1.31
5619.00,1.31
5618.00,1.31
5617.00,1.31
5616.00,1.31
5615.00,1.31
5614.00,1.31
5613.00,1.31
5612.00,1.31
5611.00,1.31
5610.00,1.32
5609.00,1.32
5608.00,1.32
5607.00,1.32
5606.00,1.32
5605.00,1.32
5604.00,1.32
5603.00,1.32
5602.00,1.32
5601.00,1.32
5600.00,1.33
5599.00,1.33
5598.00,1.33
5597.00,1.33
5596.00,1.33
5595.00,1.33
5594.00,1.33
5593.00,1.33
5592.00,1.34
5591.00,1.34
5590.00,1.34
5589.00,1.34
5588.00,1.34
5587.00,1.34
5586.00,1.34
5585.00,1.34
5584.00,1.34
5583.00,1.34
5582.00,1.35
5581.00,1.35
5580.00,1.35
5579.00,1.35
5578.00,1.35
5577.00,1.35
5576.00,1.35
5575.00,1.35
5574.00,1.35
5573.00,1.35
5572.00,1.35
5571.00,1.35
5570.00,1.36
5569.00,1.36
5568.00,1.36
5567.00,1.36
5566.00,1.36
5565.00,1.36
5564.00,1.36
5563.00,1.36
5562.00,1.36
5561.00,1.36
5560.00,1.36
5559.00,1.37
5558.00,1.37
5557.00,1.37
5556.00,1.37
5555.00,1.37
5554.00,1.37
5553.00,1.37
5552.00,1.38
5551.00,1.38
5550.00,1.38
5549.00,1.38
5548.00,1.38
5547.00,1.38
5546.00,1.38
5545.00,1.38
5544.00,1.38
5543.00,1.38
5542.00,1.38
5541.00,1.38
5540.00,1.39
5539.00,1.39
5538.00,1.39
5537.00,1.39
5536.00,1.39
5535.00,1.39
5534.00,1.39
5533.00,1.39
5532.00,1.39
5531.00,1.39
5530.00,1.39
5529.00,1.39
5528.00,1.39
5527.00,1.39
5526.00,1.39
5525.00,1.39
5524.00,1.39
5523.00,1.39
5522.00,1.39
5521.00,1.39
5520.00,1.39
5519.00,1.39
5518.00,1.39
5517.00,1.39
5516.00,1.39
5515.00,1.39
5514.00,1.39
5513.00,1.40
5512.00,1.40
5511.00,1.40
5510.00,1.40
5509.00,1.40
5508.00,1.40
5507.00,1.40
5506.00,1.40
5505.00,1.40
5504.00,1.40
5503.00,1.40
5502.00,1.40
5501.00,1.40
5500.00,1.41
5499.00,1.41
5498.00,1.41
5497.00,1.41
5496.00,1.41
5495.00,1.41
5494.00,1.41
5493.00,1.41
5492.00,1.41
5491.00,1.41
5490.00,1.41
5489.00,1.41
5488.00,1.41
5487.00,1.41
5486.00,1.41
5485.00,1.41
5484.00,1.41
5483.00,1.41
5482.00,1.41
5481.00,1.41
5480.00,1.42
5479.00,1.42
5478.00,1.42
5477.00,1.42
5476.00,1.42
5475.00,1.42
5474.00,1.42
5473.00,1.42
5472.00,1.42
5471.00,1.42
5470.00,1.42
5469.00,1.42
5468.00,1.42
5467.00,1.42
5466.00,1.42
5465.00,1.43
5464.00,1.43
5463.00,1.43
5462.00,1.43
5461.00,1.43
5460.00,1.43
5459.00,1.43
5458.00,1.43
5457.00,1.43
5456.00,1.43
5455.00,1.43
5454.00,1.43
5453.00,1.43
5452.00,1.43
5451.00,1.43
5450.00,1.43
5449.00,1.43
5448.00,1.43
5447.00,1.43
5446.00,1.43
5445.00,1.43
5444.00,1.44
5443.00,1.44
5442.00,1.44
5441.00,1.44
5440.00,1.44
5439.00,1.44
5438.00,1.44
5437.00,1.44
5436.00,1.44
5435.00,1.44
5434.00,1.44
5433.00,1.44
5432.00,1.44
5431.00,1.44
5430.00,1.44
5429.00,1.44
5428.00,1.44
5427.00,1.44
5426.00,1.44
5425.00,1.44
5424.00,1.44
5423.00,1.44
5422.00,1.44
5421.00,1.44
5420.00,1.44
5419.00,1.44
5418.00,1.44
5417.00,1.44
5416.00,1.44
5415.00,1.44
5414.00,1.44
5413.00,1.44
5412.00,1.44
5411.00,1.44
5410.00,1.44
5409.00,1.44
5408.00,1.44
5407.00,1.44
5406.00,1.44
5405.00,1.44
5404.00,1.44
5403.00,1.44
5402.00,1.44
5401.00,1.44
5400.00,1.44
5399.00,1.44
5398.00,1.44
5397.00,1.44
5396.00,1.44
5395.00,1.44
5394.00,1.44
5393.00,1.44
5392.00,1.44
5391.00,1.44
5390.00,1.44
5389.00,1.44
5388.00,1.44
5387.00,1.43
5386.00,1.43
5385.00,1.43
5384.00,1.43
5383.00,1.43
5382.00,1.43
5381.00,1.42
5380.00,1.42
5379.00,1.42
5378.00,1.42
5377.00,1.42
5376.00,1.42
5375.00,1.41
5374.00,1.41
5373.00,1.41
5372.00,1.41
5371.00,1.41
5370.00,1.40
5369.00,1.40
5368.00,1.40
5367.00,1.40
5366.00,1.40
5365.00,1.39
5364.00,1.39
5363.00,1.39
5362.00,1.39
5361.00,1.38
5360.00,1.38
5359.00,1.38
5358.00,1.37
5357.00,1.37
5356.00,1.36
5355.00,1.36
5354.00,1.35
5353.00,1.35
5352.00,1.34
5351.00,1.34
5350.00,1.33
5349.00,1.33
5348.00,1.32
5347.00,1.31
5346.00,1.31
5345.00,1.30
5344.00,1.29
5343.00,1.29
5342.00,1.28
5341.00,1.27
5340.00,1.27
5339.00,1.26
5338.00,1.25
5337.00,1.24
5336.00,1.24
5335.00,1.23
5334.00,1.22
5333.00,1.21
5332.00,1.20
5331.00,1.20
5330.00,1.19
5329.00,1.18
5328.00,1.17
5327.00,1.16
5326.00,1.15
5325.00,1.15
5324.00,1.14
5323.00,1.13
5322.00,1.12
5321.00,1.11
5320.00,1.10
5319.00,1.09
5318.00,1.08
5317.00,1.07
5316.00,1.06
5315.00,1.05
5314.00,1.04
5313.00,1.03
5312.00,1.02
5311.00,1.01
5310.00,1.00
5309.00,0.99
5308.00,0.98
5307.00,0.97
5306.00,0.97
5305.00,0.96
5304.00,0.95
5303.00,0.94
5302.00,0.93
5301.00,0.92
5300.00,0.91
5299.00,0.91
5298.00,0.90
5297.00,0.89
5296.00,0.89
5295.00,0.88
5294.00,0.87
5293.00,0.87
5292.00,0.86
5291.00,0.86
5290.00,0.85
5289.00,0.84
5288.00,0.84
5287.00,0.83
5286.00,0.83
5285.00,0.82
5284.00,0.82
5283.00,0.81
5282.00,0.81
5281.00,0.80
5280.00,0.80
5279.00,0.79
5278.00,0.79
5277.00,0.79
5276.00,0.78
5275.00,0.78
5274.00,0.77
5273.00,0.77
5272.00,0.77
5271.00,0.76
5270.00,0.76
5269.00,0.76
5268.00,0.76
5267.00,0.75
5266.00,0.75
5265.00,0.75
5264.00,0.75
5263.00,0.75
5262.00,0.75
5261.00,0.74
5260.00,0.74
5259.00,0.74
5258.00,0.74
5257.00,0.74
5256.00,0.74
5255.00,0.74
5254.00,0.73
5253.00,0.73
5252.00,0.73
5251.00,0.73
5250.00,0.73
5249.00,0.73
5248.00,0.73
5247.00,0.72
5246.00,0.72
5245.00,0.72
5244.00,0.72
5243.00,0.72
5242.00,0.72
5241.00,0.72
5240.00,0.71
5239.00,0.71
5238.00,0.71
5237.00,0.71
5236.00,0.71
5235.00,0.71
5234.00,0.71
5233.00,0.71
5232.00,0.71
5231.00,0.71
5230.00,0.71
5229.00,0.71
5228.00,0.71
5227.00,0.71
5226.00,0.71
5225.00,0.71
5224.00,0.71
5223.00,0.71
5222.00,0.70
5221.00,0.70
5220.00,0.70
5219.00,0.70
5218.00,0.70
5217.00,0.70
5216.00,0.70
5215.00,0.70
5214.00,0.70
5213.00,0.70
5212.00,0.70
5211.00,0.69
5210.00,0.69
5209.00,0.69
5208.00,0.69
5207.00,0.69
5206.00,0.70
5205.00,0.70
5204.00,0.70
5203.00,0.70
5202.00,0.70
5201.00,0.70
5200.00,0.70
5199.00,0.70
5198.00,0.70
5197.00,0.70
5196.00,0.70
5195.00,0.70
5194.00,0.70
5193.00,0.70
5192.00,0.70
5191.00,0.70
5190.00,0.70
5189.00,0.70
5188.00,0.70
5187.00,0.70
5186.00,0.70
5185.00,0.70
5184.00,0.70
5183.00,0.70
5182.00,0.70
5181.00,0.70
5180.00,0.70
5179.00,0.70
5178.00,0.70
5177.00,0.70
5176.00,0.70
5175.00,0.70
5174.00,0.70
5173.00,0.70
5172.00,0.70
5171.00,0.70
5170.00,0.70
5169.00,0.70
5168.00,0.70
5167.00,0.70
5166.00,0.70
5165.00,0.70
5164.00,0.70
5163.00,0.70
5162.00,0.70
5161.00,0.70
5160.00,0.70
5159.00,0.70
5158.00,0.70
5157.00,0.70
5156.00,0.70
5155.00,0.70
5154.00,0.70
5153.00,0.70
5152.00,0.70
5151.00,0.70
5150.00,0.70
5149.00,0.70
5148.00,0.70
5147.00,0.70
5146.00,0.70
5145.00,0.70
5144.00,0.70
5143.00,0.70
5142.00,0.71
5141.00,0.71
5140.00,0.71
5139.00,0.71
5138.00,0.71
5137.00,0.71
5136.00,0.71
5135.00,0.71
5134.00,0.71
5133.00,0.72
5132.00,0.72
5131.00,0.72
5130.00,0.72
5129.00,0.72
5128.00,0.72
5127.00,0.72
5126.00,0.72
5125.00,0.72
5124.00,0.72
5123.00,0.72
5122.00,0.72
5121.00,0.72
5120.00,0.73
5119.00,0.73
5118.00,0.73
5117.00,0.73
5116.00,0.73
5115.00,0.73
5114.00,0.73
5113.00,0.73
5112.00,0.73
5111.00,0.73
5110.00,0.73
5109.00,0.74
5108.00,0.74
5107.00,0.74
5106.00,0.74
5105.00,0.74
5104.00,0.74
5103.00,0.74
5102.00,0.74
5101.00,0.74
5100.00,0.75
5099.00,0.75
5098.00,0.75
5097.00,0.75
5096.00,0.75
5095.00,0.75
5094.00,0.75
5093.00,0.75
5092.00,0.75
5091.00,0.75
5090.00,0.75
5089.00,0.75
5088.00,0.75
5087.00,0.75
5086.00,0.76
5085.00,0.76
5084.00,0.76
5083.00,0.76
5082.00,0.76
5081.00,0.76
5080.00,0.76
5079.00,0.76
5078.00,0.76
5077.00,0.76
5076.00,0.76
5075.00,0.76
5074.00,0.77
5073.00,0.77
5072.00,0.77
5071.00,0.77
5070.00,0.77
5069.00,0.77
5068.00,0.77
5067.00,0.77
5066.00,0.77
5065.00,0.78
5064.00,0.78
5063.00,0.78
5062.00,0.78
5061.00,0.78
5060.00,0.78
5059.00,0.78
5058.00,0.78
5057.00,0.79
5056.00,0.79
5055.00,0.79
5054.00,0.79
5053.00,0.79
5052.00,0.79
5051.00,0.79
5050.00,0.79
5049.00,0.80
5048.00,0.80
5047.00,0.80
5046.00,0.80
5045.00,0.80
5044.00,0.80
5043.00,0.80
5042.00,0.80
5041.00,0.81
5040.00,0.81
5039.00,0.81
5038.00,0.81
5037.00,0.81
5036.00,0.81
5035.00,0.81
5034.00,0.82
5033.00,0.82
5032.00,0.82
5031.00,0.82
5030.00,0.82
5029.00,0.82
5028.00,0.83
5027.00,0.83
5026.00,0.83
5025.00,0.83
5024.00,0.83
5023.00,0.83
5022.00,0.83
5021.00,0.84
5020.00,0.84
5019.00,0.84
5018.00,0.84
5017.00,0.84
5016.00,0.84
5015.00,0.84
5014.00,0.84
5013.00,0.85
5012.00,0.85
5011.00,0.85
5010.00,0.85
5009.00,0.85
5008.00,0.85
5007.00,0.85
5006.00,0.86
5005.00,0.86
5004.00,0.86
5003.00,0.86
5002.00,0.86
5001.00,0.86
5000.00,0.87
4999.00,0.87
4998.00,0.87
4997.00,0.87
4996.00,0.87
4995.00,0.87
4994.00,0.87
4993.00,0.88
4992.00,0.88
4991.00,0.88
4990.00,0.88
4989.00,0.88
4988.00,0.88
4987.00,0.88
4986.00,0.89
4985.00,0.89
4984.00,0.89
4983.00,0.89
4982.00,0.89
4981.00,0.89
4980.00,0.90
4979.00,0.90
4978.00,0.90
4977.00,0.90
4976.00,0.90
4975.00,0.90
4974.00,0.90
4973.00,0.91
4972.00,0.91
4971.00,0.91
4970.00,0.91
4969.00,0.91
4968.00,0.91
4967.00,0.91
4966.00,0.91
4965.00,0.91
4964.00,0.92
4963.00,0.92
4962.00,0.92
4961.00,0.92
4960.00,0.92
4959.00,0.92
4958.00,0.92
4957.00,0.92
4956.00,0.93
4955.00,0.93
4954.00,0.93
4953.00,0.93
4952.00,0.93
4951.00,0.93
4950.00,0.94
4949.00,0.94
4948.00,0.94
4947.00,0.94
4946.00,0.94
4945.00,0.94
4944.00,0.94
4943.00,0.94
4942.00,0.94
4941.00,0.94
4940.00,0.94
4939.00,0.95
4938.00,0.95
4937.00,0.95
4936.00,0.95
4935.00,0.95
4934.00,0.95
4933.00,0.95
4932.00,0.95
4931.00,0.95
4930.00,0.95
4929.00,0.95
4928.00,0.95
4927.00,0.96
4926.00,0.96
4925.00,0.96
4924.00,0.96
4923.00,0.96
4922.00,0.96
4921.00,0.96
4920.00,0.97
4919.00,0.97
4918.00,0.97
4917.00,0.97
4916.00,0.97
4915.00,0.97
4914.00,0.97
4913.00,0.97
4912.00,0.98
4911.00,0.98
4910.00,0.98
4909.00,0.98
4908.00,0.98
4907.00,0.98
4906.00,0.98
4905.00,0.98
4904.00,0.98
4903.00,0.98
4902.00,0.98
4901.00,0.98
4900.00,0.98
4899.00,0.98
4898.00,0.98
4897.00,0.97
4896.00,0.97
4895.00,0.97
4894.00,0.97
4893.00,0.97
4892.00,0.97
4891.00,0.98
4890.00,0.98
4889.00,0.98
4888.00,0.98
4887.00,0.98
4886.00,0.98
4885.00,0.98
4884.00,0.98
4883.00,0.98
4882.00,0.98
4881.00,0.98
4880.00,0.98
4879.00,0.98
4878.00,0.99
4877.00,0.99
4876.00,0.99
4875.00,0.99
4874.00,0.99
4873.00,0.99
4872.00,0.99
4871.00,0.99
4870.00,0.99
4869.00,0.99
4868.00,1.00
4867.00,1.00
4866.00,1.00
4865.00,1.00
4864.00,1.00
4863.00,1.00
4862.00,1.00
4861.00,1.00
4860.00,1.00
4859.00,1.00
4858.00,1.00
4857.00,1.00
4856.00,1.00
4855.00,1.00
4854.00,1.00
4853.00,1.00
4852.00,1.00
4851.00,1.00
4850.00,1.00
4849.00,1.00
4848.00,1.00
4847.00,1.00
4846.00,1.00
4845.00,1.01
4844.00,1.01
4843.00,1.01
4842.00,1.01
4841.00,1.01
4840.00,1.01
4839.00,1.01
4838.00,1.01
4837.00,1.01
4836.00,1.01
4835.00,1.01
4834.00,1.02
4833.00,1.02
4832.00,1.02
4831.00,1.02
4830.00,1.02
4829.00,1.02
4828.00,1.02
4827.00,1.02
4826.00,1.03
4825.00,1.03
4824.00,1.03
4823.00,1.03
4822.00,1.03
4821.00,1.03
4820.00,1.03
4819.00,1.04
4818.00,1.04
4817.00,1.04
4816.00,1.04
4815.00,1.04
4814.00,1.04
4813.00,1.04
4812.00,1.05
4811.00,1.05
4810.00,1.05
4809.00,1.05
4808.00,1.05
4807.00,1.05
4806.00,1.06
4805.00,1.06
4804.00,1.06
4803.00,1.06
4802.00,1.06
4801.00,1.06
4800.00,1.07
4799.00,1.07
4798.00,1.07
4797.00,1.07
4796.00,1.07
4795.00,1.07
4794.00,1.08
4793.00,1.08
4792.00,1.08
4791.00,1.08
4790.00,1.08
4789.00,1.08
4788.00,1.08
4787.00,1.09
4786.00,1.09
4785.00,1.09
4784.00,1.09
4783.00,1.09
4782.00,1.09
4781.00,1.09
4780.00,1.09
4779.00,1.09
4778.00,1.10
4777.00,1.10
4776.00,1.10
4775.00,1.10
4774.00,1.10
4773.00,1.10
4772.00,1.10
4771.00,1.11
4770.00,1.11
4769.00,1.11
4768.00,1.11
4767.00,1.11
4766.00,1.12
4765.00,1.12
4764.00,1.12
4763.00,1.12
4762.00,1.12
4761.00,1.13
4760.00,1.13
4759.00,1.13
4758.00,1.13
4757.00,1.13
4756.00,1.13
4755.00,1.13
4754.00,1.14
4753.00,1.14
4752.00,1.14
4751.00,1.14
4750.00,1.14
4749.00,1.14
4748.00,1.14
4747.00,1.14
4746.00,1.14
4745.00,1.14
4744.00,1.15
4743.00,1.15
4742.00,1.15
4741.00,1.15
4740.00,1.15
4739.00,1.15
4738.00,1.15
4737.00,1.16
4736.00,1.16
4735.00,1.16
4734.00,1.16
4733.00,1.16
4732.00,1.17
4731.00,1.17
4730.00,1.17
4729.00,1.17
4728.00,1.17
4727.00,1.17
4726.00,1.18
4725.00,1.18
4724.00,1.18
4723.00,1.18
4722.00,1.19
4721.00,1.19
4720.00,1.19
4719.00,1.19
4718.00,1.20
4717.00,1.20
4716.00,1.20
4715.00,1.20
4714.00,1.20
4713.00,1.21
4712.00,1.21
4711.00,1.21
4710.00,1.21
4709.00,1.22
4708.00,1.22
4707.00,1.22
4706.00,1.22
4705.00,1.22
4704.00,1.23
4703.00,1.23
4702.00,1.23
4701.00,1.23
4700.00,1.23
4699.00,1.24
4698.00,1.24
4697.00,1.24
4696.00,1.24
4695.00,1.24
4694.00,1.24
4693.00,1.25
4692.00,1.25
4691.00,1.25
4690.00,1.25
4689.00,1.25
4688.00,1.25
4687.00,1.26
4686.00,1.26
4685.00,1.26
4684.00,1.26
4683.00,1.26
4682.00,1.26
4681.00,1.26
4680.00,1.27
4679.00,1.27
4678.00,1.27
4677.00,1.27
4676.00,1.27
4675.00,1.27
4674.00,1.28
4673.00,1.28
4672.00,1.28
4671.00,1.28
4670.00,1.28
4669.00,1.28
4668.00,1.29
4667.00,1.29
4666.00,1.29
4665.00,1.29
4664.00,1.30
4663.00,1.30
4662.00,1.30
4661.00,1.30
4660.00,1.30
4659.00,1.31
4658.00,1.31
4657.00,1.31
4656.00,1.31
4655.00,1.32
4654.00,1.32
4653.00,1.32
4652.00,1.32
4651.00,1.32
4650.00,1.33
4649.00,1.33
4648.00,1.33
4647.00,1.33
4646.00,1.33
4645.00,1.33
4644.00,1.34
4643.00,1.34
4642.00,1.34
4641.00,1.34
4640.00,1.34
4639.00,1.35
4638.00,1.35
4637.00,1.35
4636.00,1.35
4635.00,1.35
4634.00,1.35
4633.00,1.36
4632.00,1.36
4631.00,1.36
4630.00,1.36
4629.00,1.36
4628.00,1.36
4627.00,1.36
4626.00,1.36
4625.00,1.36
4624.00,1.36
4623.00,1.36
4622.00,1.36
4621.00,1.36
4620.00,1.36
4619.00,1.36
4618.00,1.36
4617.00,1.36
4616.00,1.36
4615.00,1.36
4614.00,1.36
4613.00,1.36
4612.00,1.36
4611.00,1.36
4610.00,1.37
4609.00,1.37
4608.00,1.37
4607.00,1.37
4606.00,1.37
4605.00,1.37
4604.00,1.37
4603.00,1.37
4602.00,1.37
4601.00,1.37
4600.00,1.37
4599.00,1.37
4598.00,1.37
4597.00,1.38
4596.00,1.38
4595.00,1.38
4594.00,1.38
4593.00,1.38
4592.00,1.38
4591.00,1.38
4590.00,1.38
4589.00,1.38
4588.00,1.38
4587.00,1.39
4586.00,1.39
4585.00,1.39
4584.00,1.39
4583.00,1.39
4582.00,1.39
4581.00,1.39
4580.00,1.40
4579.00,1.40
4578.00,1.40
4577.00,1.40
4576.00,1.40
4575.00,1.40
4574.00,1.41
4573.00,1.41
4572.00,1.41
4571.00,1.41
4570.00,1.41
4569.00,1.42
4568.00,1.42
4567.00,1.42
4566.00,1.42
4565.00,1.42
4564.00,1.42
4563.00,1.43
4562.00,1.43
4561.00,1.43
4560.00,1.43
4559.00,1.43
4558.00,1.43
4557.00,1.43
4556.00,1.43
4555.00,1.43
4554.00,1.43
4553.00,1.43
4552.00,1.43
4551.00,1.43
4550.00,1.43
4549.00,1.43
4548.00,1.43
4547.00,1.43
4546.00,1.43
4545.00,1.43
4544.00,1.43
4543.00,1.43
4542.00,1.43
4541.00,1.43
4540.00,1.43
4539.00,1.43
4538.00,1.44
4537.00,1.44
4536.00,1.44
4535.00,1.44
4534.00,1.44
4533.00,1.44
4532.00,1.44
4531.00,1.44
4530.00,1.44
4529.00,1.44
4528.00,1.44
4527.00,1.44
4526.00,1.44
4525.00,1.44
4524.00,1.44
4523.00,1.44
4522.00,1.44
4521.00,1.44
4520.00,1.44
4519.00,1.44
4518.00,1.44
4517.00,1.44
4516.00,1.44
4515.00,1.44
4514.00,1.44
4513.00,1.44
4512.00,1.44
4511.00,1.44
4510.00,1.44
4509.00,1.44
4508.00,1.44
4507.00,1.44
4506.00,1.44
4505.00,1.44
4504.00,1.44
4503.00,1.44
4502.00,1.44
4501.00,1.44
4500.00,1.44
4499.00,1.44
4498.00,1.44
4497.00,1.44
4496.00,1.44
4495.00,1.44
4494.00,1.44
4493.00,1.44
4492.00,1.44
4491.00,1.44
4490.00,1.44
4489.00,1.44
4488.00,1.44
4487.00,1.44
4486.00,1.44
4485.00,1.44
4484.00,1.44
4483.00,1.44
4482.00,1.44
4481.00,1.44
4480.00,1.44
4479.00,1.44
4478.00,1.43
4477.00,1.43
4476.00,1.43
4475.00,1.43
4474.00,1.43
4473.00,1.42
4472.00,1.42
4471.00,1.42
4470.00,1.41
4469.00,1.41
4468.00,1.41
4467.00,1.40
4466.00,1.40
4465.00,1.40
4464.00,1.39
4463.00,1.39
4462.00,1.39
4461.00,1.38
4460.00,1.38
4459.00,1.37
4458.00,1.37
4457.00,1.37
4456.00,1.36
4455.00,1.36
4454.00,1.35
4453.00,1.35
4452.00,1.34
4451.00,1.34
4450.00,1.33
4449.00,1.33
4448.00,1.32
4447.00,1.31
4446.00,1.31
4445.00,1.30
4444.00,1.29
4443.00,1.29
4442.00,1.28
4441.00,1.27
4440.00,1.26
4439.00,1.25
4438.00,1.25
4437.00,1.24
4436.00,1.23
4435.00,1.22
4434.00,1.21
4433.00,1.21
4432.00,1.20
4431.00,1.19
4430.00,1.18
4429.00,1.18
4428.00,1.17
4427.00,1.16
4426.00,1.16
4425.00,1.15
4424.00,1.15
4423.00,1.14
4422.00,1.13
4421.00,1.13
4420.00,1.13
4419.00,1.12
4418.00,1.12
4417.00,1.11
4416.00,1.11
4415.00,1.11
4414.00,1.11
4413.00,1.11
4412.00,1.11
4411.00,1.11
4410.00,1.11
4409.00,1.11
4408.00,1.11
4407.00,1.11
4406.00,1.11
4405.00,1.11
4404.00,1.11
4403.00,1.11
4402.00,1.11
4401.00,1.11
4400.00,1.12
4399.00,1.12
4398.00,1.12
4397.00,1.12
4396.00,1.12
4395.00,1.12
4394.00,1.13
4393.00,1.13
4392.00,1.13
4391.00,1.13
4390.00,1.14
4389.00,1.14
4388.00,1.14
4387.00,1.15
4386.00,1.15
4385.00,1.16
4384.00,1.16
4383.00,1.16
4382.00,1.17
4381.00,1.17
4380.00,1.18
4379.00,1.18
4378.00,1.18
4377.00,1.19
4376.00,1.19
4375.00,1.19
4374.00,1.19
4373.00,1.19
4372.00,1.19
4371.00,1.19
4370.00,1.20
4369.00,1.19
4368.00,1.19
4367.00,1.19
4366.00,1.19
4365.00,1.19
4364.00,1.19
4363.00,1.19
4362.00,1.19
4361.00,1.19
4360.00,1.18
4359.00,1.18
4358.00,1.18
4357.00,1.18
4356.00,1.18
4355.00,1.18
4354.00,1.17
4353.00,1.17
4352.00,1.17
4351.00,1.17
4350.00,1.17
4349.00,1.17
4348.00,1.17
4347.00,1.17
4346.00,1.16
4345.00,1.16
4344.00,1.16
4343.00,1.16
4342.00,1.16
4341.00,1.16
4340.00,1.16
4339.00,1.16
4338.00,1.16
4337.00,1.16
4336.00,1.16
4335.00,1.16
4334.00,1.16
4333.00,1.16
4332.00,1.16
4331.00,1.17
4330.00,1.17
4329.00,1.17
4328.00,1.17
4327.00,1.17
4326.00,1.17
4325.00,1.18
4324.00,1.18
4323.00,1.18
4322.00,1.18
4321.00,1.19
4320.00,1.19
4319.00,1.19
4318.00,1.20
4317.00,1.20
4316.00,1.21
4315.00,1.21
4314.00,1.22
4313.00,1.22
4312.00,1.23
4311.00,1.23
4310.00,1.24
4309.00,1.25
4308.00,1.25
4307.00,1.26
4306.00,1.26
4305.00,1.27
4304.00,1.27
4303.00,1.28
4302.00,1.28
4301.00,1.29
4300.00,1.29
4299.00,1.30
4298.00,1.30
4297.00,1.30
4296.00,1.31
4295.00,1.31
4294.00,1.31
4293.00,1.32
4292.00,1.32
4291.00,1.32
4290.00,1.32
4289.00,1.32
4288.00,1.33
4287.00,1.33
4286.00,1.33
4285.00,1.33
4284.00,1.33
4283.00,1.33
4282.00,1.33
4281.00,1.33
4280.00,1.33
4279.00,1.32
4278.00,1.32
4277.00,1.32
4276.00,1.32
4275.00,1.32
4274.00,1.32
4273.00,1.31
4272.00,1.31
4271.00,1.31
4270.00,1.31
4269.00,1.31
4268.00,1.30
4267.00,1.30
4266.00,1.30
4265.00,1.30
4264.00,1.30
4263.00,1.30
4262.00,1.30
4261.00,1.30
4260.00,1.29
4259.00,1.29
4258.00,1.29
4257.00,1.29
4256.00,1.29
4255.00,1.29
4254.00,1.29
4253.00,1.30
4252.00,1.30
4251.00,1.30
4250.00,1.30
4249.00,1.30
4248.00,1.30
4247.00,1.30
4246.00,1.30
4245.00,1.31
4244.00,1.31
4243.00,1.31
4242.00,1.31
4241.00,1.32
4240.00,1.32
4239.00,1.32
4238.00,1.33
4237.00,1.33
4236.00,1.33
4235.00,1.34
4234.00,1.34
4233.00,1.34
4232.00,1.35
4231.00,1.35
4230.00,1.35
4229.00,1.35
4228.00,1.36
4227.00,1.36
4226.00,1.36
4225.00,1.36
4224.00,1.36
4223.00,1.36
4222.00,1.37
4221.00,1.37
4220.00,1.37
4219.00,1.37
4218.00,1.37
4217.00,1.37
4216.00,1.38
4215.00,1.38
4214.00,1.38
4213.00,1.38
4212.00,1.38
4211.00,1.38
4210.00,1.39
4209.00,1.39
4208.00,1.39
4207.00,1.39
4206.00,1.39
4205.00,1.40
4204.00,1.40
4203.00,1.40
4202.00,1.40
4201.00,1.40
4200.00,1.40
4199.00,1.40
4198.00,1.40
4197.00,1.40
4196.00,1.40
4195.00,1.40
4194.00,1.40
4193.00,1.40
4192.00,1.40
4191.00,1.39
4190.00,1.39
4189.00,1.39
4188.00,1.39
4187.00,1.39
4186.00,1.38
4185.00,1.38
4184.00,1.38
4183.00,1.38
4182.00,1.38
4181.00,1.38
4180.00,1.37
4179.00,1.37
4178.00,1.37
4177.00,1.37
4176.00,1.37
4175.00,1.37
4174.00,1.37
4173.00,1.37
4172.00,1.37
4171.00,1.37
4170.00,1.37
4169.00,1.37
4168.00,1.37
4167.00,1.37
4166.00,1.37
4165.00,1.37
4164.00,1.37
4163.00,1.37
4162.00,1.37
4161.00,1.38
4160.00,1.38
4159.00,1.38
4158.00,1.37
4157.00,1.37
4156.00,1.37
4155.00,1.37
4154.00,1.37
4153.00,1.37
4152.00,1.37
4151.00,1.37
4150.00,1.37
4149.00,1.37
4148.00,1.37
4147.00,1.37
4146.00,1.37
4145.00,1.37
4144.00,1.37
4143.00,1.37
4142.00,1.37
4141.00,1.37
4140.00,1.37
4139.00,1.37
4138.00,1.37
4137.00,1.37
4136.00,1.37
4135.00,1.37
4134.00,1.37
4133.00,1.37
4132.00,1.37
4131.00,1.37
4130.00,1.38
4129.00,1.38
4128.00,1.38
4127.00,1.38
4126.00,1.38
4125.00,1.38
4124.00,1.38
4123.00,1.38
4122.00,1.39
4121.00,1.39
4120.00,1.39
4119.00,1.39
4118.00,1.39
4117.00,1.39
4116.00,1.38
4115.00,1.38
4114.00,1.38
4113.00,1.38
4112.00,1.38
4111.00,1.38
4110.00,1.38
4109.00,1.38
4108.00,1.38
4107.00,1.37
4106.00,1.37
4105.00,1.37
4104.00,1.37
4103.00,1.37
4102.00,1.38
4101.00,1.38
4100.00,1.38
4099.00,1.38
4098.00,1.38
4097.00,1.38
4096.00,1.38
4095.00,1.38
4094.00,1.38
4093.00,1.38
4092.00,1.38
4091.00,1.38
4090.00,1.38
4089.00,1.38
4088.00,1.38
4087.00,1.38
4086.00,1.38
4085.00,1.38
4084.00,1.37
4083.00,1.37
4082.00,1.37
4081.00,1.37
4080.00,1.37
4079.00,1.37
4078.00,1.37
4077.00,1.37
4076.00,1.37
4075.00,1.37
4074.00,1.37
4073.00,1.37
4072.00,1.37
4071.00,1.37
4070.00,1.37
4069.00,1.37
4068.00,1.37
4067.00,1.38
4066.00,1.38
4065.00,1.38
4064.00,1.38
4063.00,1.38
4062.00,1.38
4061.00,1.38
4060.00,1.39
4059.00,1.39
4058.00,1.39
4057.00,1.39
4056.00,1.39
4055.00,1.40
4054.00,1.40
4053.00,1.40
4052.00,1.40
4051.00,1.40
4050.00,1.40
4049.00,1.40
4048.00,1.40
4047.00,1.40
4046.00,1.40
4045.00,1.40
4044.00,1.40
4043.00,1.40
4042.00,1.40
4041.00,1.40
4040.00,1.40
4039.00,1.41
4038.00,1.41
4037.00,1.41
4036.00,1.41
4035.00,1.41
4034.00,1.41
4033.00,1.41
4032.00,1.41
4031.00,1.41
4030.00,1.41
4029.00,1.41
4028.00,1.41
4027.00,1.41
4026.00,1.41
4025.00,1.41
4024.00,1.41
4023.00,1.41
4022.00,1.42
4021.00,1.42
4020.00,1.42
4019.00,1.42
4018.00,1.42
4017.00,1.42
4016.00,1.42
4015.00,1.42
4014.00,1.42
4013.00,1.42
4012.00,1.42
4011.00,1.43
4010.00,1.43
4009.00,1.43
4008.00,1.43
4007.00,1.43
4006.00,1.43
4005.00,1.43
4004.00,1.44
4003.00,1.44
4002.00,1.44
4001.00,1.44
4000.00,1.45
