创建为新数据集,样品 321 用户 Administrator 日期 星期四, 三月 08 2018
cm-1,%T
10000.00,1.07
9999.00,1.08
9998.00,1.08
9997.00,1.09
9996.00,1.09
9995.00,1.10
9994.00,1.10
9993.00,1.10
9992.00,1.11
9991.00,1.11
9990.00,1.11
9989.00,1.12
9988.00,1.12
9987.00,1.12
9986.00,1.12
9985.00,1.12
9984.00,1.12
9983.00,1.12
9982.00,1.12
9981.00,1.12
9980.00,1.12
9979.00,1.12
9978.00,1.12
9977.00,1.11
9976.00,1.11
9975.00,1.11
9974.00,1.10
9973.00,1.10
9972.00,1.10
9971.00,1.09
9970.00,1.09
9969.00,1.09
9968.00,1.09
9967.00,1.09
9966.00,1.09
9965.00,1.09
9964.00,1.09
9963.00,1.08
9962.00,1.08
9961.00,1.08
9960.00,1.08
9959.00,1.09
9958.00,1.09
9957.00,1.09
9956.00,1.09
9955.00,1.09
9954.00,1.09
9953.00,1.09
9952.00,1.09
9951.00,1.10
9950.00,1.10
9949.00,1.10
9948.00,1.11
9947.00,1.11
9946.00,1.11
9945.00,1.12
9944.00,1.12
9943.00,1.12
9942.00,1.12
9941.00,1.12
9940.00,1.13
9939.00,1.13
9938.00,1.13
9937.00,1.12
9936.00,1.12
9935.00,1.12
9934.00,1.12
9933.00,1.12
9932.00,1.11
9931.00,1.11
9930.00,1.11
9929.00,1.10
9928.00,1.10
9927.00,1.10
9926.00,1.10
9925.00,1.10
9924.00,1.10
9923.00,1.09
9922.00,1.09
9921.00,1.09
9920.00,1.09
9919.00,1.09
9918.00,1.09
9917.00,1.09
9916.00,1.09
9915.00,1.09
9914.00,1.09
9913.00,1.09
9912.00,1.09
9911.00,1.09
9910.00,1.09
9909.00,1.08
9908.00,1.08
9907.00,1.08
9906.00,1.08
9905.00,1.08
9904.00,1.08
9903.00,1.08
9902.00,1.08
9901.00,1.08
9900.00,1.08
9899.00,1.08
9898.00,1.08
9897.00,1.08
9896.00,1.08
9895.00,1.08
9894.00,1.08
9893.00,1.08
9892.00,1.08
9891.00,1.08
9890.00,1.08
9889.00,1.08
9888.00,1.09
9887.00,1.09
9886.00,1.09
9885.00,1.09
9884.00,1.09
9883.00,1.09
9882.00,1.09
9881.00,1.09
9880.00,1.09
9879.00,1.09
9878.00,1.09
9877.00,1.09
9876.00,1.09
9875.00,1.09
9874.00,1.09
9873.00,1.09
9872.00,1.09
9871.00,1.09
9870.00,1.09
9869.00,1.09
9868.00,1.09
9867.00,1.09
9866.00,1.09
9865.00,1.09
9864.00,1.09
9863.00,1.09
9862.00,1.09
9861.00,1.09
9860.00,1.09
9859.00,1.09
9858.00,1.09
9857.00,1.09
9856.00,1.09
9855.00,1.09
9854.00,1.09
9853.00,1.09
9852.00,1.09
9851.00,1.09
9850.00,1.09
9849.00,1.09
9848.00,1.09
9847.00,1.10
9846.00,1.10
9845.00,1.10
9844.00,1.10
9843.00,1.10
9842.00,1.11
9841.00,1.11
9840.00,1.11
9839.00,1.11
9838.00,1.11
9837.00,1.11
9836.00,1.11
9835.00,1.12
9834.00,1.12
9833.00,1.12
9832.00,1.12
9831.00,1.12
9830.00,1.12
9829.00,1.12
9828.00,1.12
9827.00,1.12
9826.00,1.12
9825.00,1.12
9824.00,1.12
9823.00,1.12
9822.00,1.12
9821.00,1.11
9820.00,1.11
9819.00,1.11
9818.00,1.11
9817.00,1.11
9816.00,1.11
9815.00,1.11
9814.00,1.11
9813.00,1.11
9812.00,1.10
9811.00,1.10
9810.00,1.10
9809.00,1.10
9808.00,1.10
9807.00,1.10
9806.00,1.10
9805.00,1.10
9804.00,1.10
9803.00,1.10
9802.00,1.10
9801.00,1.10
9800.00,1.10
9799.00,1.10
9798.00,1.10
9797.00,1.10
9796.00,1.10
9795.00,1.10
9794.00,1.11
9793.00,1.11
9792.00,1.11
9791.00,1.11
9790.00,1.11
9789.00,1.11
9788.00,1.11
9787.00,1.11
9786.00,1.11
9785.00,1.11
9784.00,1.11
9783.00,1.11
9782.00,1.11
9781.00,1.10
9780.00,1.10
9779.00,1.10
9778.00,1.09
9777.00,1.09
9776.00,1.09
9775.00,1.09
9774.00,1.08
9773.00,1.08
9772.00,1.08
9771.00,1.08
9770.00,1.08
9769.00,1.08
9768.00,1.08
9767.00,1.08
9766.00,1.08
9765.00,1.08
9764.00,1.08
9763.00,1.08
9762.00,1.08
9761.00,1.09
9760.00,1.09
9759.00,1.09
9758.00,1.09
9757.00,1.09
9756.00,1.09
9755.00,1.09
9754.00,1.09
9753.00,1.08
9752.00,1.08
9751.00,1.08
9750.00,1.08
9749.00,1.08
9748.00,1.08
9747.00,1.08
9746.00,1.07
9745.00,1.07
9744.00,1.07
9743.00,1.07
9742.00,1.07
9741.00,1.07
9740.00,1.07
9739.00,1.07
9738.00,1.07
9737.00,1.07
9736.00,1.07
9735.00,1.07
9734.00,1.08
9733.00,1.08
9732.00,1.08
9731.00,1.08
9730.00,1.09
9729.00,1.09
9728.00,1.09
9727.00,1.09
9726.00,1.10
9725.00,1.10
9724.00,1.10
9723.00,1.10
9722.00,1.11
9721.00,1.11
9720.00,1.11
9719.00,1.11
9718.00,1.11
9717.00,1.11
9716.00,1.11
9715.00,1.11
9714.00,1.11
9713.00,1.11
9712.00,1.11
9711.00,1.11
9710.00,1.10
9709.00,1.10
9708.00,1.10
9707.00,1.09
9706.00,1.09
9705.00,1.09
9704.00,1.09
9703.00,1.08
9702.00,1.08
9701.00,1.08
9700.00,1.08
9699.00,1.08
9698.00,1.08
9697.00,1.08
9696.00,1.08
9695.00,1.08
9694.00,1.08
9693.00,1.09
9692.00,1.09
9691.00,1.09
9690.00,1.09
9689.00,1.10
9688.00,1.10
9687.00,1.10
9686.00,1.10
9685.00,1.10
9684.00,1.11
9683.00,1.11
9682.00,1.11
9681.00,1.11
9680.00,1.11
9679.00,1.11
9678.00,1.11
9677.00,1.11
9676.00,1.11
9675.00,1.11
9674.00,1.11
9673.00,1.11
9672.00,1.11
9671.00,1.11
9670.00,1.11
9669.00,1.11
9668.00,1.11
9667.00,1.11
9666.00,1.11
9665.00,1.11
9664.00,1.11
9663.00,1.11
9662.00,1.11
9661.00,1.11
9660.00,1.11
9659.00,1.11
9658.00,1.10
9657.00,1.10
9656.00,1.10
9655.00,1.10
9654.00,1.09
9653.00,1.09
9652.00,1.09
9651.00,1.08
9650.00,1.08
9649.00,1.08
9648.00,1.07
9647.00,1.07
9646.00,1.07
9645.00,1.06
9644.00,1.06
9643.00,1.06
9642.00,1.06
9641.00,1.05
9640.00,1.05
9639.00,1.05
9638.00,1.05
9637.00,1.05
9636.00,1.05
9635.00,1.05
9634.00,1.05
9633.00,1.05
9632.00,1.05
9631.00,1.06
9630.00,1.06
9629.00,1.06
9628.00,1.06
9627.00,1.06
9626.00,1.06
9625.00,1.06
9624.00,1.07
9623.00,1.07
9622.00,1.07
9621.00,1.07
9620.00,1.07
9619.00,1.07
9618.00,1.07
9617.00,1.08
9616.00,1.08
9615.00,1.08
9614.00,1.08
9613.00,1.08
9612.00,1.08
9611.00,1.08
9610.00,1.08
9609.00,1.08
9608.00,1.08
9607.00,1.09
9606.00,1.09
9605.00,1.09
9604.00,1.09
9603.00,1.09
9602.00,1.09
9601.00,1.09
9600.00,1.09
9599.00,1.09
9598.00,1.09
9597.00,1.09
9596.00,1.09
9595.00,1.09
9594.00,1.09
9593.00,1.10
9592.00,1.10
9591.00,1.10
9590.00,1.10
9589.00,1.11
9588.00,1.11
9587.00,1.11
9586.00,1.11
9585.00,1.12
9584.00,1.12
9583.00,1.12
9582.00,1.12
9581.00,1.12
9580.00,1.12
9579.00,1.13
9578.00,1.13
9577.00,1.12
9576.00,1.12
9575.00,1.12
9574.00,1.12
9573.00,1.12
9572.00,1.11
9571.00,1.11
9570.00,1.11
9569.00,1.11
9568.00,1.10
9567.00,1.10
9566.00,1.10
9565.00,1.09
9564.00,1.09
9563.00,1.09
9562.00,1.09
9561.00,1.09
9560.00,1.08
9559.00,1.08
9558.00,1.08
9557.00,1.08
9556.00,1.08
9555.00,1.07
9554.00,1.07
9553.00,1.07
9552.00,1.07
9551.00,1.07
9550.00,1.07
9549.00,1.07
9548.00,1.07
9547.00,1.07
9546.00,1.07
9545.00,1.07
9544.00,1.07
9543.00,1.08
9542.00,1.08
9541.00,1.08
9540.00,1.08
9539.00,1.08
9538.00,1.08
9537.00,1.08
9536.00,1.09
9535.00,1.09
9534.00,1.09
9533.00,1.09
9532.00,1.09
9531.00,1.09
9530.00,1.09
9529.00,1.09
9528.00,1.09
9527.00,1.09
9526.00,1.10
9525.00,1.10
9524.00,1.10
9523.00,1.10
9522.00,1.10
9521.00,1.10
9520.00,1.10
9519.00,1.10
9518.00,1.11
9517.00,1.11
9516.00,1.11
9515.00,1.11
9514.00,1.11
9513.00,1.11
9512.00,1.11
9511.00,1.11
9510.00,1.11
9509.00,1.11
9508.00,1.11
9507.00,1.10
9506.00,1.10
9505.00,1.10
9504.00,1.10
9503.00,1.10
9502.00,1.10
9501.00,1.10
9500.00,1.10
9499.00,1.10
9498.00,1.10
9497.00,1.10
9496.00,1.11
9495.00,1.11
9494.00,1.11
9493.00,1.11
9492.00,1.11
9491.00,1.12
9490.00,1.12
9489.00,1.12
9488.00,1.12
9487.00,1.12
9486.00,1.13
9485.00,1.13
9484.00,1.13
9483.00,1.13
9482.00,1.13
9481.00,1.12
9480.00,1.12
9479.00,1.12
9478.00,1.12
9477.00,1.12
9476.00,1.12
9475.00,1.12
9474.00,1.11
9473.00,1.11
9472.00,1.11
9471.00,1.11
9470.00,1.11
9469.00,1.10
9468.00,1.10
9467.00,1.10
9466.00,1.10
9465.00,1.10
9464.00,1.09
9463.00,1.09
9462.00,1.09
9461.00,1.09
9460.00,1.09
9459.00,1.09
9458.00,1.09
9457.00,1.09
9456.00,1.09
9455.00,1.09
9454.00,1.09
9453.00,1.09
9452.00,1.09
9451.00,1.09
9450.00,1.09
9449.00,1.09
9448.00,1.09
9447.00,1.09
9446.00,1.09
9445.00,1.09
9444.00,1.09
9443.00,1.09
9442.00,1.09
9441.00,1.09
9440.00,1.09
9439.00,1.09
9438.00,1.09
9437.00,1.09
9436.00,1.09
9435.00,1.09
9434.00,1.09
9433.00,1.09
9432.00,1.09
9431.00,1.09
9430.00,1.09
9429.00,1.09
9428.00,1.09
9427.00,1.09
9426.00,1.09
9425.00,1.09
9424.00,1.09
9423.00,1.09
9422.00,1.09
9421.00,1.09
9420.00,1.09
9419.00,1.09
9418.00,1.09
9417.00,1.09
9416.00,1.09
9415.00,1.09
9414.00,1.09
9413.00,1.09
9412.00,1.09
9411.00,1.08
9410.00,1.08
9409.00,1.08
9408.00,1.08
9407.00,1.08
9406.00,1.08
9405.00,1.08
9404.00,1.07
9403.00,1.07
9402.00,1.07
9401.00,1.07
9400.00,1.07
9399.00,1.07
9398.00,1.07
9397.00,1.07
9396.00,1.08
9395.00,1.08
9394.00,1.08
9393.00,1.08
9392.00,1.08
9391.00,1.09
9390.00,1.09
9389.00,1.09
9388.00,1.09
9387.00,1.09
9386.00,1.10
9385.00,1.10
9384.00,1.10
9383.00,1.10
9382.00,1.10
9381.00,1.10
9380.00,1.10
9379.00,1.10
9378.00,1.10
9377.00,1.10
9376.00,1.10
9375.00,1.10
9374.00,1.10
9373.00,1.10
9372.00,1.10
9371.00,1.10
9370.00,1.10
9369.00,1.10
9368.00,1.09
9367.00,1.09
9366.00,1.09
9365.00,1.09
9364.00,1.09
9363.00,1.09
9362.00,1.09
9361.00,1.09
9360.00,1.09
9359.00,1.09
9358.00,1.09
9357.00,1.09
9356.00,1.09
9355.00,1.09
9354.00,1.09
9353.00,1.09
9352.00,1.09
9351.00,1.09
9350.00,1.09
9349.00,1.09
9348.00,1.09
9347.00,1.08
9346.00,1.08
9345.00,1.08
9344.00,1.08
9343.00,1.08
9342.00,1.08
9341.00,1.08
9340.00,1.08
9339.00,1.08
9338.00,1.08
9337.00,1.08
9336.00,1.09
9335.00,1.09
9334.00,1.09
9333.00,1.09
9332.00,1.09
9331.00,1.09
9330.00,1.09
9329.00,1.09
9328.00,1.09
9327.00,1.09
9326.00,1.09
9325.00,1.09
9324.00,1.09
9323.00,1.09
9322.00,1.09
9321.00,1.09
9320.00,1.09
9319.00,1.09
9318.00,1.09
9317.00,1.09
9316.00,1.09
9315.00,1.09
9314.00,1.09
9313.00,1.09
9312.00,1.09
9311.00,1.09
9310.00,1.09
9309.00,1.10
9308.00,1.10
9307.00,1.10
9306.00,1.10
9305.00,1.10
9304.00,1.10
9303.00,1.10
9302.00,1.10
9301.00,1.10
9300.00,1.10
9299.00,1.10
9298.00,1.10
9297.00,1.09
9296.00,1.09
9295.00,1.09
9294.00,1.09
9293.00,1.09
9292.00,1.09
9291.00,1.09
9290.00,1.09
9289.00,1.09
9288.00,1.09
9287.00,1.09
9286.00,1.09
9285.00,1.09
9284.00,1.09
9283.00,1.09
9282.00,1.09
9281.00,1.09
9280.00,1.09
9279.00,1.10
9278.00,1.10
9277.00,1.10
9276.00,1.10
9275.00,1.10
9274.00,1.10
9273.00,1.11
9272.00,1.11
9271.00,1.11
9270.00,1.11
9269.00,1.11
9268.00,1.11
9267.00,1.11
9266.00,1.11
9265.00,1.11
9264.00,1.11
9263.00,1.11
9262.00,1.10
9261.00,1.10
9260.00,1.10
9259.00,1.10
9258.00,1.10
9257.00,1.10
9256.00,1.10
9255.00,1.10
9254.00,1.10
9253.00,1.10
9252.00,1.10
9251.00,1.10
9250.00,1.10
9249.00,1.10
9248.00,1.10
9247.00,1.10
9246.00,1.10
9245.00,1.10
9244.00,1.10
9243.00,1.10
9242.00,1.10
9241.00,1.10
9240.00,1.10
9239.00,1.10
9238.00,1.10
9237.00,1.10
9236.00,1.10
9235.00,1.10
9234.00,1.11
9233.00,1.11
9232.00,1.11
9231.00,1.11
9230.00,1.11
9229.00,1.11
9228.00,1.11
9227.00,1.11
9226.00,1.11
9225.00,1.11
9224.00,1.11
9223.00,1.11
9222.00,1.11
9221.00,1.11
9220.00,1.11
9219.00,1.11
9218.00,1.11
9217.00,1.11
9216.00,1.11
9215.00,1.11
9214.00,1.11
9213.00,1.12
9212.00,1.12
9211.00,1.12
9210.00,1.12
9209.00,1.12
9208.00,1.12
9207.00,1.12
9206.00,1.12
9205.00,1.12
9204.00,1.12
9203.00,1.12
9202.00,1.11
9201.00,1.11
9200.00,1.11
9199.00,1.11
9198.00,1.11
9197.00,1.10
9196.00,1.10
9195.00,1.10
9194.00,1.10
9193.00,1.09
9192.00,1.09
9191.00,1.09
9190.00,1.09
9189.00,1.09
9188.00,1.09
9187.00,1.08
9186.00,1.08
9185.00,1.08
9184.00,1.08
9183.00,1.08
9182.00,1.09
9181.00,1.09
9180.00,1.09
9179.00,1.09
9178.00,1.09
9177.00,1.10
9176.00,1.10
9175.00,1.10
9174.00,1.10
9173.00,1.11
9172.00,1.11
9171.00,1.11
9170.00,1.11
9169.00,1.11
9168.00,1.11
9167.00,1.11
9166.00,1.11
9165.00,1.11
9164.00,1.11
9163.00,1.11
9162.00,1.11
9161.00,1.11
9160.00,1.11
9159.00,1.11
9158.00,1.11
9157.00,1.11
9156.00,1.11
9155.00,1.10
9154.00,1.10
9153.00,1.10
9152.00,1.10
9151.00,1.10
9150.00,1.10
9149.00,1.10
9148.00,1.10
9147.00,1.10
9146.00,1.10
9145.00,1.10
9144.00,1.10
9143.00,1.10
9142.00,1.10
9141.00,1.10
9140.00,1.10
9139.00,1.10
9138.00,1.10
9137.00,1.10
9136.00,1.10
9135.00,1.10
9134.00,1.10
9133.00,1.10
9132.00,1.10
9131.00,1.10
9130.00,1.10
9129.00,1.10
9128.00,1.10
9127.00,1.10
9126.00,1.10
9125.00,1.10
9124.00,1.09
9123.00,1.09
9122.00,1.09
9121.00,1.09
9120.00,1.09
9119.00,1.09
9118.00,1.09
9117.00,1.09
9116.00,1.09
9115.00,1.09
9114.00,1.09
9113.00,1.09
9112.00,1.09
9111.00,1.10
9110.00,1.10
9109.00,1.10
9108.00,1.10
9107.00,1.10
9106.00,1.10
9105.00,1.10
9104.00,1.10
9103.00,1.10
9102.00,1.10
9101.00,1.10
9100.00,1.10
9099.00,1.10
9098.00,1.10
9097.00,1.10
9096.00,1.10
9095.00,1.11
9094.00,1.11
9093.00,1.11
9092.00,1.11
9091.00,1.11
9090.00,1.11
9089.00,1.11
9088.00,1.11
9087.00,1.11
9086.00,1.11
9085.00,1.11
9084.00,1.11
9083.00,1.11
9082.00,1.11
9081.00,1.10
9080.00,1.10
9079.00,1.10
9078.00,1.10
9077.00,1.10
9076.00,1.10
9075.00,1.10
9074.00,1.10
9073.00,1.10
9072.00,1.10
9071.00,1.10
9070.00,1.10
9069.00,1.10
9068.00,1.10
9067.00,1.10
9066.00,1.10
9065.00,1.10
9064.00,1.10
9063.00,1.10
9062.00,1.10
9061.00,1.10
9060.00,1.10
9059.00,1.10
9058.00,1.10
9057.00,1.10
9056.00,1.10
9055.00,1.11
9054.00,1.11
9053.00,1.11
9052.00,1.11
9051.00,1.11
9050.00,1.11
9049.00,1.11
9048.00,1.12
9047.00,1.12
9046.00,1.12
9045.00,1.12
9044.00,1.12
9043.00,1.12
9042.00,1.12
9041.00,1.12
9040.00,1.12
9039.00,1.12
9038.00,1.12
9037.00,1.12
9036.00,1.12
9035.00,1.12
9034.00,1.12
9033.00,1.12
9032.00,1.12
9031.00,1.12
9030.00,1.13
9029.00,1.13
9028.00,1.13
9027.00,1.13
9026.00,1.13
9025.00,1.13
9024.00,1.13
9023.00,1.12
9022.00,1.12
9021.00,1.12
9020.00,1.12
9019.00,1.12
9018.00,1.12
9017.00,1.12
9016.00,1.11
9015.00,1.11
9014.00,1.11
9013.00,1.11
9012.00,1.11
9011.00,1.11
9010.00,1.11
9009.00,1.11
9008.00,1.11
9007.00,1.11
9006.00,1.10
9005.00,1.10
9004.00,1.10
9003.00,1.10
9002.00,1.10
9001.00,1.10
9000.00,1.10
8999.00,1.10
8998.00,1.10
8997.00,1.10
8996.00,1.10
8995.00,1.10
8994.00,1.10
8993.00,1.10
8992.00,1.10
8991.00,1.10
8990.00,1.10
8989.00,1.10
8988.00,1.10
8987.00,1.10
8986.00,1.10
8985.00,1.10
8984.00,1.11
8983.00,1.11
8982.00,1.11
8981.00,1.11
8980.00,1.11
8979.00,1.11
8978.00,1.11
8977.00,1.11
8976.00,1.11
8975.00,1.11
8974.00,1.11
8973.00,1.11
8972.00,1.11
8971.00,1.11
8970.00,1.11
8969.00,1.11
8968.00,1.11
8967.00,1.11
8966.00,1.11
8965.00,1.11
8964.00,1.12
8963.00,1.12
8962.00,1.12
8961.00,1.12
8960.00,1.12
8959.00,1.12
8958.00,1.12
8957.00,1.12
8956.00,1.12
8955.00,1.12
8954.00,1.12
8953.00,1.12
8952.00,1.12
8951.00,1.12
8950.00,1.12
8949.00,1.12
8948.00,1.12
8947.00,1.12
8946.00,1.12
8945.00,1.12
8944.00,1.12
8943.00,1.12
8942.00,1.12
8941.00,1.12
8940.00,1.12
8939.00,1.11
8938.00,1.11
8937.00,1.11
8936.00,1.11
8935.00,1.11
8934.00,1.10
8933.00,1.10
8932.00,1.10
8931.00,1.10
8930.00,1.10
8929.00,1.10
8928.00,1.10
8927.00,1.10
8926.00,1.10
8925.00,1.10
8924.00,1.10
8923.00,1.10
8922.00,1.10
8921.00,1.10
8920.00,1.10
8919.00,1.11
8918.00,1.11
8917.00,1.11
8916.00,1.11
8915.00,1.11
8914.00,1.11
8913.00,1.12
8912.00,1.12
8911.00,1.12
8910.00,1.12
8909.00,1.12
8908.00,1.12
8907.00,1.12
8906.00,1.12
8905.00,1.12
8904.00,1.12
8903.00,1.12
8902.00,1.12
8901.00,1.12
8900.00,1.12
8899.00,1.12
8898.00,1.12
8897.00,1.12
8896.00,1.12
8895.00,1.12
8894.00,1.12
8893.00,1.12
8892.00,1.11
8891.00,1.11
8890.00,1.11
8889.00,1.11
8888.00,1.11
8887.00,1.11
8886.00,1.11
8885.00,1.11
8884.00,1.11
8883.00,1.11
8882.00,1.11
8881.00,1.12
8880.00,1.12
8879.00,1.12
8878.00,1.12
8877.00,1.12
8876.00,1.12
8875.00,1.12
8874.00,1.12
8873.00,1.12
8872.00,1.12
8871.00,1.12
8870.00,1.12
8869.00,1.12
8868.00,1.12
8867.00,1.11
8866.00,1.11
8865.00,1.11
8864.00,1.11
8863.00,1.11
8862.00,1.11
8861.00,1.11
8860.00,1.10
8859.00,1.10
8858.00,1.10
8857.00,1.10
8856.00,1.10
8855.00,1.10
8854.00,1.10
8853.00,1.10
8852.00,1.10
8851.00,1.10
8850.00,1.10
8849.00,1.10
8848.00,1.10
8847.00,1.10
8846.00,1.10
8845.00,1.10
8844.00,1.10
8843.00,1.10
8842.00,1.10
8841.00,1.10
8840.00,1.10
8839.00,1.10
8838.00,1.10
8837.00,1.10
8836.00,1.10
8835.00,1.10
8834.00,1.10
8833.00,1.10
8832.00,1.10
8831.00,1.10
8830.00,1.10
8829.00,1.10
8828.00,1.10
8827.00,1.10
8826.00,1.10
8825.00,1.10
8824.00,1.10
8823.00,1.10
8822.00,1.10
8821.00,1.10
8820.00,1.10
8819.00,1.10
8818.00,1.10
8817.00,1.10
8816.00,1.10
8815.00,1.10
8814.00,1.10
8813.00,1.10
8812.00,1.10
8811.00,1.10
8810.00,1.10
8809.00,1.10
8808.00,1.10
8807.00,1.09
8806.00,1.09
8805.00,1.09
8804.00,1.09
8803.00,1.08
8802.00,1.08
8801.00,1.08
8800.00,1.08
8799.00,1.07
8798.00,1.07
8797.00,1.07
8796.00,1.07
8795.00,1.07
8794.00,1.07
8793.00,1.07
8792.00,1.07
8791.00,1.07
8790.00,1.07
8789.00,1.07
8788.00,1.07
8787.00,1.07
8786.00,1.07
8785.00,1.08
8784.00,1.08
8783.00,1.08
8782.00,1.08
8781.00,1.09
8780.00,1.09
8779.00,1.09
8778.00,1.09
8777.00,1.10
8776.00,1.10
8775.00,1.10
8774.00,1.10
8773.00,1.10
8772.00,1.10
8771.00,1.10
8770.00,1.10
8769.00,1.09
8768.00,1.09
8767.00,1.09
8766.00,1.09
8765.00,1.08
8764.00,1.08
8763.00,1.08
8762.00,1.07
8761.00,1.07
8760.00,1.07
8759.00,1.06
8758.00,1.06
8757.00,1.06
8756.00,1.05
8755.00,1.05
8754.00,1.05
8753.00,1.05
8752.00,1.05
8751.00,1.04
8750.00,1.04
8749.00,1.04
8748.00,1.04
8747.00,1.04
8746.00,1.04
8745.00,1.04
8744.00,1.04
8743.00,1.04
8742.00,1.05
8741.00,1.05
8740.00,1.05
8739.00,1.05
8738.00,1.05
8737.00,1.05
8736.00,1.05
8735.00,1.06
8734.00,1.06
8733.00,1.06
8732.00,1.06
8731.00,1.06
8730.00,1.06
8729.00,1.06
8728.00,1.07
8727.00,1.07
8726.00,1.07
8725.00,1.07
8724.00,1.07
8723.00,1.07
8722.00,1.07
8721.00,1.07
8720.00,1.07
8719.00,1.07
8718.00,1.07
8717.00,1.08
8716.00,1.08
8715.00,1.07
8714.00,1.07
8713.00,1.07
8712.00,1.07
8711.00,1.07
8710.00,1.07
8709.00,1.07
8708.00,1.07
8707.00,1.07
8706.00,1.07
8705.00,1.07
8704.00,1.07
8703.00,1.06
8702.00,1.06
8701.00,1.06
8700.00,1.06
8699.00,1.06
8698.00,1.06
8697.00,1.06
8696.00,1.06
8695.00,1.06
8694.00,1.06
8693.00,1.06
8692.00,1.06
8691.00,1.06
8690.00,1.06
8689.00,1.06
8688.00,1.06
8687.00,1.06
8686.00,1.06
8685.00,1.06
8684.00,1.06
8683.00,1.06
8682.00,1.06
8681.00,1.06
8680.00,1.06
8679.00,1.06
8678.00,1.06
8677.00,1.06
8676.00,1.06
8675.00,1.06
8674.00,1.06
8673.00,1.06
8672.00,1.06
8671.00,1.06
8670.00,1.06
8669.00,1.06
8668.00,1.06
8667.00,1.06
8666.00,1.06
8665.00,1.06
8664.00,1.06
8663.00,1.06
8662.00,1.06
8661.00,1.06
8660.00,1.06
8659.00,1.05
8658.00,1.05
8657.00,1.05
8656.00,1.05
8655.00,1.05
8654.00,1.05
8653.00,1.05
8652.00,1.05
8651.00,1.05
8650.00,1.05
8649.00,1.05
8648.00,1.05
8647.00,1.05
8646.00,1.05
8645.00,1.05
8644.00,1.05
8643.00,1.05
8642.00,1.05
8641.00,1.05
8640.00,1.05
8639.00,1.05
8638.00,1.05
8637.00,1.05
8636.00,1.05
8635.00,1.05
8634.00,1.05
8633.00,1.05
8632.00,1.05
8631.00,1.05
8630.00,1.05
8629.00,1.05
8628.00,1.05
8627.00,1.05
8626.00,1.05
8625.00,1.05
8624.00,1.05
8623.00,1.05
8622.00,1.05
8621.00,1.05
8620.00,1.05
8619.00,1.05
8618.00,1.04
8617.00,1.04
8616.00,1.04
8615.00,1.04
8614.00,1.04
8613.00,1.04
8612.00,1.04
8611.00,1.04
8610.00,1.04
8609.00,1.04
8608.00,1.04
8607.00,1.04
8606.00,1.04
8605.00,1.04
8604.00,1.04
8603.00,1.04
8602.00,1.04
8601.00,1.04
8600.00,1.04
8599.00,1.04
8598.00,1.04
8597.00,1.04
8596.00,1.04
8595.00,1.04
8594.00,1.04
8593.00,1.04
8592.00,1.03
8591.00,1.03
8590.00,1.03
8589.00,1.03
8588.00,1.03
8587.00,1.03
8586.00,1.03
8585.00,1.03
8584.00,1.03
8583.00,1.03
8582.00,1.02
8581.00,1.02
8580.00,1.02
8579.00,1.02
8578.00,1.02
8577.00,1.02
8576.00,1.01
8575.00,1.01
8574.00,1.01
8573.00,1.01
8572.00,1.01
8571.00,1.01
8570.00,1.01
8569.00,1.01
8568.00,1.01
8567.00,1.01
8566.00,1.01
8565.00,1.01
8564.00,1.01
8563.00,1.01
8562.00,1.02
8561.00,1.02
8560.00,1.02
8559.00,1.02
8558.00,1.02
8557.00,1.02
8556.00,1.02
8555.00,1.02
8554.00,1.02
8553.00,1.02
8552.00,1.02
8551.00,1.02
8550.00,1.02
8549.00,1.02
8548.00,1.02
8547.00,1.02
8546.00,1.02
8545.00,1.02
8544.00,1.02
8543.00,1.01
8542.00,1.01
8541.00,1.01
8540.00,1.01
8539.00,1.01
8538.00,1.01
8537.00,1.01
8536.00,1.01
8535.00,1.01
8534.00,1.01
8533.00,1.01
8532.00,1.01
8531.00,1.01
8530.00,1.01
8529.00,1.01
8528.00,1.01
8527.00,1.01
8526.00,1.01
8525.00,1.01
8524.00,1.01
8523.00,1.01
8522.00,1.01
8521.00,1.00
8520.00,1.00
8519.00,1.00
8518.00,1.00
8517.00,1.00
8516.00,1.00
8515.00,1.00
8514.00,0.99
8513.00,0.99
8512.00,0.99
8511.00,0.99
8510.00,0.99
8509.00,0.99
8508.00,0.99
8507.00,0.99
8506.00,0.99
8505.00,0.99
8504.00,0.99
8503.00,0.99
8502.00,0.99
8501.00,0.99
8500.00,0.99
8499.00,0.99
8498.00,0.99
8497.00,0.99
8496.00,0.99
8495.00,0.99
8494.00,0.99
8493.00,0.99
8492.00,0.99
8491.00,0.99
8490.00,0.99
8489.00,0.99
8488.00,0.99
8487.00,0.99
8486.00,0.99
8485.00,0.99
8484.00,0.98
8483.00,0.98
8482.00,0.98
8481.00,0.98
8480.00,0.98
8479.00,0.98
8478.00,0.98
8477.00,0.97
8476.00,0.97
8475.00,0.97
8474.00,0.97
8473.00,0.97
8472.00,0.97
8471.00,0.97
8470.00,0.97
8469.00,0.97
8468.00,0.97
8467.00,0.97
8466.00,0.97
8465.00,0.98
8464.00,0.98
8463.00,0.98
8462.00,0.98
8461.00,0.98
8460.00,0.98
8459.00,0.98
8458.00,0.98
8457.00,0.98
8456.00,0.98
8455.00,0.98
8454.00,0.98
8453.00,0.97
8452.00,0.97
8451.00,0.97
8450.00,0.97
8449.00,0.97
8448.00,0.97
8447.00,0.97
8446.00,0.97
8445.00,0.97
8444.00,0.97
8443.00,0.97
8442.00,0.97
8441.00,0.97
8440.00,0.97
8439.00,0.97
8438.00,0.97
8437.00,0.97
8436.00,0.97
8435.00,0.97
8434.00,0.97
8433.00,0.97
8432.00,0.97
8431.00,0.97
8430.00,0.97
8429.00,0.97
8428.00,0.97
8427.00,0.97
8426.00,0.97
8425.00,0.97
8424.00,0.97
8423.00,0.97
8422.00,0.97
8421.00,0.97
8420.00,0.97
8419.00,0.97
8418.00,0.97
8417.00,0.97
8416.00,0.97
8415.00,0.97
8414.00,0.97
8413.00,0.97
8412.00,0.97
8411.00,0.97
8410.00,0.97
8409.00,0.97
8408.00,0.97
8407.00,0.97
8406.00,0.98
8405.00,0.98
8404.00,0.98
8403.00,0.98
8402.00,0.98
8401.00,0.98
8400.00,0.98
8399.00,0.98
8398.00,0.98
8397.00,0.98
8396.00,0.98
8395.00,0.98
8394.00,0.98
8393.00,0.98
8392.00,0.98
8391.00,0.98
8390.00,0.98
8389.00,0.98
8388.00,0.98
8387.00,0.98
8386.00,0.98
8385.00,0.98
8384.00,0.98
8383.00,0.98
8382.00,0.98
8381.00,0.99
8380.00,0.99
8379.00,0.99
8378.00,0.99
8377.00,1.00
8376.00,1.00
8375.00,1.00
8374.00,1.00
8373.00,1.00
8372.00,1.01
8371.00,1.01
8370.00,1.01
8369.00,1.01
8368.00,1.01
8367.00,1.01
8366.00,1.01
8365.00,1.01
8364.00,1.01
8363.00,1.01
8362.00,1.01
8361.00,1.01
8360.00,1.01
8359.00,1.01
8358.00,1.01
8357.00,1.01
8356.00,1.01
8355.00,1.01
8354.00,1.01
8353.00,1.01
8352.00,1.01
8351.00,1.01
8350.00,1.01
8349.00,1.01
8348.00,1.01
8347.00,1.01
8346.00,1.01
8345.00,1.01
8344.00,1.01
8343.00,1.01
8342.00,1.01
8341.00,1.01
8340.00,1.01
8339.00,1.01
8338.00,1.01
8337.00,1.01
8336.00,1.01
8335.00,1.01
8334.00,1.01
8333.00,1.01
8332.00,1.01
8331.00,1.01
8330.00,1.01
8329.00,1.01
8328.00,1.01
8327.00,1.01
8326.00,1.01
8325.00,1.01
8324.00,1.01
8323.00,1.01
8322.00,1.01
8321.00,1.01
8320.00,1.01
8319.00,1.01
8318.00,1.01
8317.00,1.01
8316.00,1.01
8315.00,1.01
8314.00,1.01
8313.00,1.01
8312.00,1.01
8311.00,1.01
8310.00,1.01
8309.00,1.01
8308.00,1.01
8307.00,1.01
8306.00,1.01
8305.00,1.01
8304.00,1.01
8303.00,1.01
8302.00,1.01
8301.00,1.01
8300.00,1.01
8299.00,1.01
8298.00,1.01
8297.00,1.01
8296.00,1.01
8295.00,1.01
8294.00,1.01
8293.00,1.01
8292.00,1.01
8291.00,1.01
8290.00,1.02
8289.00,1.02
8288.00,1.02
8287.00,1.02
8286.00,1.02
8285.00,1.02
8284.00,1.02
8283.00,1.02
8282.00,1.02
8281.00,1.02
8280.00,1.02
8279.00,1.02
8278.00,1.02
8277.00,1.02
8276.00,1.02
8275.00,1.02
8274.00,1.02
8273.00,1.02
8272.00,1.02
8271.00,1.02
8270.00,1.02
8269.00,1.02
8268.00,1.01
8267.00,1.01
8266.00,1.01
8265.00,1.01
8264.00,1.01
8263.00,1.01
8262.00,1.01
8261.00,1.01
8260.00,1.01
8259.00,1.01
8258.00,1.01
8257.00,1.01
8256.00,1.01
8255.00,1.01
8254.00,1.01
8253.00,1.02
8252.00,1.02
8251.00,1.02
8250.00,1.02
8249.00,1.02
8248.00,1.02
8247.00,1.02
8246.00,1.02
8245.00,1.02
8244.00,1.02
8243.00,1.02
8242.00,1.02
8241.00,1.02
8240.00,1.02
8239.00,1.02
8238.00,1.02
8237.00,1.02
8236.00,1.02
8235.00,1.02
8234.00,1.02
8233.00,1.02
8232.00,1.02
8231.00,1.02
8230.00,1.02
8229.00,1.03
8228.00,1.03
8227.00,1.03
8226.00,1.03
8225.00,1.03
8224.00,1.03
8223.00,1.03
8222.00,1.03
8221.00,1.03
8220.00,1.03
8219.00,1.03
8218.00,1.03
8217.00,1.03
8216.00,1.03
8215.00,1.03
8214.00,1.03
8213.00,1.03
8212.00,1.03
8211.00,1.03
8210.00,1.03
8209.00,1.03
8208.00,1.03
8207.00,1.03
8206.00,1.03
8205.00,1.03
8204.00,1.03
8203.00,1.03
8202.00,1.03
8201.00,1.03
8200.00,1.03
8199.00,1.03
8198.00,1.03
8197.00,1.03
8196.00,1.03
8195.00,1.04
8194.00,1.04
8193.00,1.04
8192.00,1.04
8191.00,1.04
8190.00,1.04
8189.00,1.04
8188.00,1.05
8187.00,1.05
8186.00,1.05
8185.00,1.05
8184.00,1.05
8183.00,1.05
8182.00,1.05
8181.00,1.05
8180.00,1.05
8179.00,1.05
8178.00,1.05
8177.00,1.05
8176.00,1.05
8175.00,1.05
8174.00,1.05
8173.00,1.05
8172.00,1.05
8171.00,1.05
8170.00,1.05
8169.00,1.05
8168.00,1.05
8167.00,1.05
8166.00,1.05
8165.00,1.05
8164.00,1.05
8163.00,1.05
8162.00,1.05
8161.00,1.05
8160.00,1.05
8159.00,1.05
8158.00,1.05
8157.00,1.05
8156.00,1.05
8155.00,1.05
8154.00,1.05
8153.00,1.05
8152.00,1.04
8151.00,1.04
8150.00,1.04
8149.00,1.04
8148.00,1.04
8147.00,1.04
8146.00,1.04
8145.00,1.04
8144.00,1.04
8143.00,1.04
8142.00,1.04
8141.00,1.04
8140.00,1.04
8139.00,1.04
8138.00,1.04
8137.00,1.04
8136.00,1.05
8135.00,1.05
8134.00,1.05
8133.00,1.05
8132.00,1.05
8131.00,1.05
8130.00,1.06
8129.00,1.06
8128.00,1.06
8127.00,1.06
8126.00,1.06
8125.00,1.06
8124.00,1.06
8123.00,1.06
8122.00,1.06
8121.00,1.06
8120.00,1.06
8119.00,1.06
8118.00,1.06
8117.00,1.06
8116.00,1.06
8115.00,1.06
8114.00,1.06
8113.00,1.06
8112.00,1.06
8111.00,1.06
8110.00,1.06
8109.00,1.07
8108.00,1.07
8107.00,1.07
8106.00,1.07
8105.00,1.07
8104.00,1.07
8103.00,1.07
8102.00,1.07
8101.00,1.07
8100.00,1.07
8099.00,1.07
8098.00,1.07
8097.00,1.07
8096.00,1.07
8095.00,1.07
8094.00,1.07
8093.00,1.07
8092.00,1.07
8091.00,1.07
8090.00,1.07
8089.00,1.07
8088.00,1.07
8087.00,1.07
8086.00,1.07
8085.00,1.07
8084.00,1.08
8083.00,1.08
8082.00,1.08
8081.00,1.08
8080.00,1.08
8079.00,1.08
8078.00,1.08
8077.00,1.08
8076.00,1.08
8075.00,1.08
8074.00,1.08
8073.00,1.08
8072.00,1.08
8071.00,1.08
8070.00,1.08
8069.00,1.08
8068.00,1.08
8067.00,1.08
8066.00,1.08
8065.00,1.08
8064.00,1.08
8063.00,1.08
8062.00,1.08
8061.00,1.08
8060.00,1.08
8059.00,1.08
8058.00,1.08
8057.00,1.08
8056.00,1.08
8055.00,1.08
8054.00,1.09
8053.00,1.09
8052.00,1.09
8051.00,1.09
8050.00,1.09
8049.00,1.09
8048.00,1.09
8047.00,1.09
8046.00,1.09
8045.00,1.09
8044.00,1.09
8043.00,1.09
8042.00,1.09
8041.00,1.09
8040.00,1.09
8039.00,1.09
8038.00,1.08
8037.00,1.08
8036.00,1.08
8035.00,1.08
8034.00,1.08
8033.00,1.08
8032.00,1.08
8031.00,1.08
8030.00,1.08
8029.00,1.08
8028.00,1.08
8027.00,1.08
8026.00,1.08
8025.00,1.08
8024.00,1.08
8023.00,1.08
8022.00,1.08
8021.00,1.08
8020.00,1.08
8019.00,1.08
8018.00,1.08
8017.00,1.08
8016.00,1.08
8015.00,1.08
8014.00,1.08
8013.00,1.08
8012.00,1.08
8011.00,1.08
8010.00,1.08
8009.00,1.08
8008.00,1.08
8007.00,1.08
8006.00,1.09
8005.00,1.09
8004.00,1.09
8003.00,1.09
8002.00,1.09
8001.00,1.09
8000.00,1.09
7999.00,1.09
7998.00,1.09
7997.00,1.09
7996.00,1.09
7995.00,1.09
7994.00,1.09
7993.00,1.09
7992.00,1.09
7991.00,1.09
7990.00,1.10
7989.00,1.10
7988.00,1.10
7987.00,1.10
7986.00,1.10
7985.00,1.10
7984.00,1.10
7983.00,1.10
7982.00,1.10
7981.00,1.10
7980.00,1.10
7979.00,1.10
7978.00,1.10
7977.00,1.10
7976.00,1.10
7975.00,1.10
7974.00,1.10
7973.00,1.10
7972.00,1.10
7971.00,1.10
7970.00,1.10
7969.00,1.10
7968.00,1.10
7967.00,1.10
7966.00,1.10
7965.00,1.10
7964.00,1.10
7963.00,1.10
7962.00,1.10
7961.00,1.10
7960.00,1.10
7959.00,1.10
7958.00,1.09
7957.00,1.09
7956.00,1.09
7955.00,1.09
7954.00,1.09
7953.00,1.09
7952.00,1.09
7951.00,1.09
7950.00,1.09
7949.00,1.09
7948.00,1.09
7947.00,1.09
7946.00,1.09
7945.00,1.09
7944.00,1.09
7943.00,1.09
7942.00,1.09
7941.00,1.09
7940.00,1.09
7939.00,1.09
7938.00,1.10
7937.00,1.10
7936.00,1.10
7935.00,1.10
7934.00,1.10
7933.00,1.10
7932.00,1.10
7931.00,1.10
7930.00,1.10
7929.00,1.11
7928.00,1.11
7927.00,1.11
7926.00,1.11
7925.00,1.11
7924.00,1.11
7923.00,1.11
7922.00,1.11
7921.00,1.11
7920.00,1.11
7919.00,1.11
7918.00,1.11
7917.00,1.11
7916.00,1.11
7915.00,1.11
7914.00,1.11
7913.00,1.11
7912.00,1.11
7911.00,1.11
7910.00,1.11
7909.00,1.11
7908.00,1.11
7907.00,1.11
7906.00,1.11
7905.00,1.11
7904.00,1.11
7903.00,1.11
7902.00,1.11
7901.00,1.11
7900.00,1.11
7899.00,1.10
7898.00,1.10
7897.00,1.10
7896.00,1.10
7895.00,1.10
7894.00,1.10
7893.00,1.10
7892.00,1.10
7891.00,1.10
7890.00,1.10
7889.00,1.10
7888.00,1.10
7887.00,1.10
7886.00,1.10
7885.00,1.10
7884.00,1.10
7883.00,1.10
7882.00,1.10
7881.00,1.10
7880.00,1.10
7879.00,1.10
7878.00,1.10
7877.00,1.10
7876.00,1.10
7875.00,1.10
7874.00,1.10
7873.00,1.10
7872.00,1.10
7871.00,1.10
7870.00,1.10
7869.00,1.10
7868.00,1.10
7867.00,1.10
7866.00,1.10
7865.00,1.10
7864.00,1.10
7863.00,1.10
7862.00,1.10
7861.00,1.10
7860.00,1.10
7859.00,1.09
7858.00,1.09
7857.00,1.09
7856.00,1.09
7855.00,1.09
7854.00,1.09
7853.00,1.09
7852.00,1.09
7851.00,1.10
7850.00,1.10
7849.00,1.10
7848.00,1.10
7847.00,1.10
7846.00,1.10
7845.00,1.10
7844.00,1.10
7843.00,1.11
7842.00,1.11
7841.00,1.11
7840.00,1.11
7839.00,1.11
7838.00,1.11
7837.00,1.11
7836.00,1.12
7835.00,1.12
7834.00,1.12
7833.00,1.12
7832.00,1.12
7831.00,1.12
7830.00,1.12
7829.00,1.12
7828.00,1.12
7827.00,1.12
7826.00,1.12
7825.00,1.12
7824.00,1.12
7823.00,1.12
7822.00,1.12
7821.00,1.12
7820.00,1.12
7819.00,1.12
7818.00,1.12
7817.00,1.12
7816.00,1.12
7815.00,1.12
7814.00,1.12
7813.00,1.12
7812.00,1.12
7811.00,1.12
7810.00,1.12
7809.00,1.12
7808.00,1.12
7807.00,1.12
7806.00,1.12
7805.00,1.12
7804.00,1.12
7803.00,1.12
7802.00,1.12
7801.00,1.12
7800.00,1.12
7799.00,1.12
7798.00,1.12
7797.00,1.12
7796.00,1.12
7795.00,1.12
7794.00,1.12
7793.00,1.12
7792.00,1.12
7791.00,1.12
7790.00,1.12
7789.00,1.11
7788.00,1.11
7787.00,1.11
7786.00,1.11
7785.00,1.11
7784.00,1.11
7783.00,1.11
7782.00,1.11
7781.00,1.11
7780.00,1.11
7779.00,1.11
7778.00,1.11
7777.00,1.11
7776.00,1.11
7775.00,1.11
7774.00,1.12
7773.00,1.12
7772.00,1.12
7771.00,1.12
7770.00,1.12
7769.00,1.12
7768.00,1.12
7767.00,1.12
7766.00,1.12
7765.00,1.13
7764.00,1.13
7763.00,1.13
7762.00,1.13
7761.00,1.13
7760.00,1.13
7759.00,1.13
7758.00,1.13
7757.00,1.13
7756.00,1.13
7755.00,1.12
7754.00,1.12
7753.00,1.12
7752.00,1.12
7751.00,1.12
7750.00,1.12
7749.00,1.12
7748.00,1.12
7747.00,1.12
7746.00,1.12
7745.00,1.12
7744.00,1.12
7743.00,1.12
7742.00,1.11
7741.00,1.11
7740.00,1.11
7739.00,1.11
7738.00,1.12
7737.00,1.12
7736.00,1.12
7735.00,1.12
7734.00,1.12
7733.00,1.12
7732.00,1.12
7731.00,1.12
7730.00,1.12
7729.00,1.12
7728.00,1.12
7727.00,1.12
7726.00,1.12
7725.00,1.12
7724.00,1.12
7723.00,1.12
7722.00,1.12
7721.00,1.12
7720.00,1.12
7719.00,1.12
7718.00,1.12
7717.00,1.12
7716.00,1.12
7715.00,1.12
7714.00,1.12
7713.00,1.12
7712.00,1.12
7711.00,1.12
7710.00,1.12
7709.00,1.12
7708.00,1.12
7707.00,1.12
7706.00,1.12
7705.00,1.12
7704.00,1.12
7703.00,1.12
7702.00,1.12
7701.00,1.12
7700.00,1.12
7699.00,1.12
7698.00,1.12
7697.00,1.12
7696.00,1.12
7695.00,1.12
7694.00,1.12
7693.00,1.12
7692.00,1.12
7691.00,1.12
7690.00,1.12
7689.00,1.12
7688.00,1.12
7687.00,1.12
7686.00,1.12
7685.00,1.12
7684.00,1.12
7683.00,1.12
7682.00,1.12
7681.00,1.12
7680.00,1.12
7679.00,1.12
7678.00,1.12
7677.00,1.12
7676.00,1.11
7675.00,1.11
7674.00,1.11
7673.00,1.11
7672.00,1.11
7671.00,1.11
7670.00,1.12
7669.00,1.12
7668.00,1.12
7667.00,1.12
7666.00,1.12
7665.00,1.12
7664.00,1.12
7663.00,1.12
7662.00,1.12
7661.00,1.12
7660.00,1.12
7659.00,1.12
7658.00,1.13
7657.00,1.13
7656.00,1.13
7655.00,1.13
7654.00,1.13
7653.00,1.13
7652.00,1.13
7651.00,1.13
7650.00,1.13
7649.00,1.13
7648.00,1.13
7647.00,1.13
7646.00,1.13
7645.00,1.13
7644.00,1.12
7643.00,1.12
7642.00,1.12
7641.00,1.12
7640.00,1.12
7639.00,1.12
7638.00,1.12
7637.00,1.12
7636.00,1.12
7635.00,1.12
7634.00,1.12
7633.00,1.12
7632.00,1.12
7631.00,1.12
7630.00,1.12
7629.00,1.13
7628.00,1.13
7627.00,1.13
7626.00,1.13
7625.00,1.13
7624.00,1.13
7623.00,1.13
7622.00,1.13
7621.00,1.13
7620.00,1.13
7619.00,1.13
7618.00,1.13
7617.00,1.13
7616.00,1.13
7615.00,1.13
7614.00,1.12
7613.00,1.12
7612.00,1.12
7611.00,1.12
7610.00,1.12
7609.00,1.12
7608.00,1.12
7607.00,1.12
7606.00,1.12
7605.00,1.12
7604.00,1.12
7603.00,1.12
7602.00,1.12
7601.00,1.12
7600.00,1.12
7599.00,1.12
7598.00,1.12
7597.00,1.12
7596.00,1.12
7595.00,1.12
7594.00,1.12
7593.00,1.12
7592.00,1.12
7591.00,1.12
7590.00,1.12
7589.00,1.12
7588.00,1.12
7587.00,1.12
7586.00,1.12
7585.00,1.12
7584.00,1.12
7583.00,1.12
7582.00,1.12
7581.00,1.12
7580.00,1.12
7579.00,1.12
7578.00,1.12
7577.00,1.12
7576.00,1.11
7575.00,1.11
7574.00,1.11
7573.00,1.11
7572.00,1.11
7571.00,1.11
7570.00,1.11
7569.00,1.11
7568.00,1.11
7567.00,1.11
7566.00,1.11
7565.00,1.11
7564.00,1.11
7563.00,1.11
7562.00,1.11
7561.00,1.11
7560.00,1.11
7559.00,1.11
7558.00,1.11
7557.00,1.11
7556.00,1.11
7555.00,1.11
7554.00,1.11
7553.00,1.11
7552.00,1.11
7551.00,1.11
7550.00,1.11
7549.00,1.11
7548.00,1.11
7547.00,1.11
7546.00,1.11
7545.00,1.11
7544.00,1.11
7543.00,1.11
7542.00,1.11
7541.00,1.11
7540.00,1.11
7539.00,1.11
7538.00,1.11
7537.00,1.11
7536.00,1.11
7535.00,1.11
7534.00,1.11
7533.00,1.11
7532.00,1.11
7531.00,1.11
7530.00,1.11
7529.00,1.11
7528.00,1.11
7527.00,1.11
7526.00,1.11
7525.00,1.11
7524.00,1.11
7523.00,1.11
7522.00,1.11
7521.00,1.11
7520.00,1.11
7519.00,1.11
7518.00,1.11
7517.00,1.11
7516.00,1.11
7515.00,1.11
7514.00,1.11
7513.00,1.11
7512.00,1.11
7511.00,1.11
7510.00,1.11
7509.00,1.11
7508.00,1.11
7507.00,1.11
7506.00,1.11
7505.00,1.11
7504.00,1.11
7503.00,1.11
7502.00,1.11
7501.00,1.10
7500.00,1.10
7499.00,1.10
7498.00,1.10
7497.00,1.10
7496.00,1.10
7495.00,1.10
7494.00,1.10
7493.00,1.10
7492.00,1.10
7491.00,1.10
7490.00,1.10
7489.00,1.10
7488.00,1.10
7487.00,1.10
7486.00,1.10
7485.00,1.10
7484.00,1.10
7483.00,1.10
7482.00,1.10
7481.00,1.10
7480.00,1.10
7479.00,1.10
7478.00,1.10
7477.00,1.10
7476.00,1.10
7475.00,1.10
7474.00,1.10
7473.00,1.10
7472.00,1.10
7471.00,1.09
7470.00,1.09
7469.00,1.09
7468.00,1.09
7467.00,1.09
7466.00,1.09
7465.00,1.09
7464.00,1.09
7463.00,1.09
7462.00,1.09
7461.00,1.09
7460.00,1.09
7459.00,1.09
7458.00,1.09
7457.00,1.09
7456.00,1.09
7455.00,1.09
7454.00,1.09
7453.00,1.09
7452.00,1.08
7451.00,1.08
7450.00,1.08
7449.00,1.08
7448.00,1.08
7447.00,1.08
7446.00,1.08
7445.00,1.08
7444.00,1.08
7443.00,1.08
7442.00,1.08
7441.00,1.08
7440.00,1.08
7439.00,1.08
7438.00,1.08
7437.00,1.08
7436.00,1.08
7435.00,1.08
7434.00,1.08
7433.00,1.07
7432.00,1.07
7431.00,1.07
7430.00,1.07
7429.00,1.07
7428.00,1.07
7427.00,1.07
7426.00,1.07
7425.00,1.07
7424.00,1.07
7423.00,1.07
7422.00,1.07
7421.00,1.07
7420.00,1.07
7419.00,1.07
7418.00,1.07
7417.00,1.07
7416.00,1.07
7415.00,1.07
7414.00,1.07
7413.00,1.06
7412.00,1.06
7411.00,1.06
7410.00,1.06
7409.00,1.06
7408.00,1.06
7407.00,1.06
7406.00,1.06
7405.00,1.06
7404.00,1.06
7403.00,1.06
7402.00,1.06
7401.00,1.06
7400.00,1.05
7399.00,1.05
7398.00,1.05
7397.00,1.05
7396.00,1.05
7395.00,1.05
7394.00,1.05
7393.00,1.05
7392.00,1.05
7391.00,1.04
7390.00,1.04
7389.00,1.04
7388.00,1.04
7387.00,1.04
7386.00,1.04
7385.00,1.03
7384.00,1.03
7383.00,1.03
7382.00,1.03
7381.00,1.03
7380.00,1.03
7379.00,1.03
7378.00,1.03
7377.00,1.03
7376.00,1.03
7375.00,1.03
7374.00,1.03
7373.00,1.03
7372.00,1.03
7371.00,1.03
7370.00,1.02
7369.00,1.02
7368.00,1.02
7367.00,1.02
7366.00,1.02
7365.00,1.02
7364.00,1.02
7363.00,1.02
7362.00,1.02
7361.00,1.02
7360.00,1.02
7359.00,1.02
7358.00,1.02
7357.00,1.02
7356.00,1.02
7355.00,1.01
7354.00,1.01
7353.00,1.01
7352.00,1.01
7351.00,1.01
7350.00,1.01
7349.00,1.01
7348.00,1.01
7347.00,1.01
7346.00,1.01
7345.00,1.01
7344.00,1.01
7343.00,1.01
7342.00,1.01
7341.00,1.01
7340.00,1.01
7339.00,1.01
7338.00,1.01
7337.00,1.01
7336.00,1.01
7335.00,1.01
7334.00,1.01
7333.00,1.01
7332.00,1.01
7331.00,1.01
7330.00,1.01
7329.00,1.01
7328.00,1.01
7327.00,1.01
7326.00,1.01
7325.00,1.01
7324.00,1.01
7323.00,1.01
7322.00,1.01
7321.00,1.01
7320.00,1.01
7319.00,1.01
7318.00,1.01
7317.00,1.01
7316.00,1.01
7315.00,1.01
7314.00,1.01
7313.00,1.01
7312.00,1.01
7311.00,1.01
7310.00,1.01
7309.00,1.01
7308.00,1.01
7307.00,1.01
7306.00,1.01
7305.00,1.01
7304.00,1.01
7303.00,1.00
7302.00,1.00
7301.00,1.00
7300.00,1.00
7299.00,1.00
7298.00,1.00
7297.00,1.00
7296.00,1.00
7295.00,1.00
7294.00,1.00
7293.00,1.00
7292.00,1.00
7291.00,1.00
7290.00,0.99
7289.00,0.99
7288.00,0.99
7287.00,0.99
7286.00,0.99
7285.00,0.99
7284.00,0.99
7283.00,0.99
7282.00,0.99
7281.00,0.99
7280.00,0.99
7279.00,0.98
7278.00,0.98
7277.00,0.98
7276.00,0.98
7275.00,0.98
7274.00,0.98
7273.00,0.98
7272.00,0.98
7271.00,0.98
7270.00,0.98
7269.00,0.97
7268.00,0.97
7267.00,0.97
7266.00,0.97
7265.00,0.97
7264.00,0.97
7263.00,0.97
7262.00,0.97
7261.00,0.96
7260.00,0.96
7259.00,0.96
7258.00,0.96
7257.00,0.96
7256.00,0.96
7255.00,0.96
7254.00,0.96
7253.00,0.96
7252.00,0.96
7251.00,0.95
7250.00,0.95
7249.00,0.95
7248.00,0.95
7247.00,0.95
7246.00,0.95
7245.00,0.95
7244.00,0.95
7243.00,0.94
7242.00,0.94
7241.00,0.94
7240.00,0.94
7239.00,0.93
7238.00,0.93
7237.00,0.93
7236.00,0.93
7235.00,0.92
7234.00,0.92
7233.00,0.92
7232.00,0.91
7231.00,0.91
7230.00,0.91
7229.00,0.91
7228.00,0.90
7227.00,0.90
7226.00,0.90
7225.00,0.89
7224.00,0.89
7223.00,0.89
7222.00,0.88
7221.00,0.88
7220.00,0.88
7219.00,0.88
7218.00,0.87
7217.00,0.87
7216.00,0.87
7215.00,0.87
7214.00,0.86
7213.00,0.86
7212.00,0.86
7211.00,0.86
7210.00,0.85
7209.00,0.85
7208.00,0.85
7207.00,0.85
7206.00,0.84
7205.00,0.84
7204.00,0.84
7203.00,0.84
7202.00,0.83
7201.00,0.83
7200.00,0.83
7199.00,0.83
7198.00,0.82
7197.00,0.82
7196.00,0.82
7195.00,0.81
7194.00,0.81
7193.00,0.81
7192.00,0.81
7191.00,0.80
7190.00,0.80
7189.00,0.80
7188.00,0.80
7187.00,0.79
7186.00,0.79
7185.00,0.79
7184.00,0.79
7183.00,0.78
7182.00,0.78
7181.00,0.78
7180.00,0.78
7179.00,0.78
7178.00,0.77
7177.00,0.77
7176.00,0.77
7175.00,0.77
7174.00,0.77
7173.00,0.76
7172.00,0.76
7171.00,0.76
7170.00,0.76
7169.00,0.75
7168.00,0.75
7167.00,0.75
7166.00,0.75
7165.00,0.74
7164.00,0.74
7163.00,0.74
7162.00,0.74
7161.00,0.74
7160.00,0.73
7159.00,0.73
7158.00,0.73
7157.00,0.73
7156.00,0.73
7155.00,0.73
7154.00,0.73
7153.00,0.73
7152.00,0.72
7151.00,0.72
7150.00,0.72
7149.00,0.72
7148.00,0.72
7147.00,0.72
7146.00,0.72
7145.00,0.71
7144.00,0.71
7143.00,0.71
7142.00,0.71
7141.00,0.71
7140.00,0.70
7139.00,0.70
7138.00,0.70
7137.00,0.70
7136.00,0.70
7135.00,0.69
7134.00,0.69
7133.00,0.69
7132.00,0.69
7131.00,0.69
7130.00,0.69
7129.00,0.68
7128.00,0.68
7127.00,0.68
7126.00,0.68
7125.00,0.68
7124.00,0.67
7123.00,0.67
7122.00,0.67
7121.00,0.67
7120.00,0.67
7119.00,0.67
7118.00,0.66
7117.00,0.66
7116.00,0.66
7115.00,0.66
7114.00,0.66
7113.00,0.65
7112.00,0.65
7111.00,0.65
7110.00,0.65
7109.00,0.65
7108.00,0.64
7107.00,0.64
7106.00,0.64
7105.00,0.64
7104.00,0.63
7103.00,0.63
7102.00,0.63
7101.00,0.63
7100.00,0.63
7099.00,0.62
7098.00,0.62
7097.00,0.62
7096.00,0.62
7095.00,0.62
7094.00,0.61
7093.00,0.61
7092.00,0.61
7091.00,0.61
7090.00,0.61
7089.00,0.61
7088.00,0.61
7087.00,0.60
7086.00,0.60
7085.00,0.60
7084.00,0.60
7083.00,0.60
7082.00,0.60
7081.00,0.60
7080.00,0.60
7079.00,0.60
7078.00,0.59
7077.00,0.59
7076.00,0.59
7075.00,0.59
7074.00,0.59
7073.00,0.59
7072.00,0.59
7071.00,0.58
7070.00,0.58
7069.00,0.58
7068.00,0.58
7067.00,0.58
7066.00,0.58
7065.00,0.58
7064.00,0.57
7063.00,0.57
7062.00,0.57
7061.00,0.57
7060.00,0.57
7059.00,0.57
7058.00,0.57
7057.00,0.57
7056.00,0.56
7055.00,0.56
7054.00,0.56
7053.00,0.56
7052.00,0.56
7051.00,0.56
7050.00,0.56
7049.00,0.56
7048.00,0.56
7047.00,0.55
7046.00,0.55
7045.00,0.55
7044.00,0.55
7043.00,0.55
7042.00,0.55
7041.00,0.55
7040.00,0.55
7039.00,0.55
7038.00,0.54
7037.00,0.54
7036.00,0.54
7035.00,0.54
7034.00,0.54
7033.00,0.54
7032.00,0.54
7031.00,0.54
7030.00,0.54
7029.00,0.54
7028.00,0.54
7027.00,0.54
7026.00,0.54
7025.00,0.54
7024.00,0.54
7023.00,0.54
7022.00,0.54
7021.00,0.54
7020.00,0.54
7019.00,0.54
7018.00,0.54
7017.00,0.54
7016.00,0.54
7015.00,0.54
7014.00,0.53
7013.00,0.53
7012.00,0.53
7011.00,0.53
7010.00,0.53
7009.00,0.53
7008.00,0.53
7007.00,0.53
7006.00,0.53
7005.00,0.53
7004.00,0.52
7003.00,0.52
7002.00,0.52
7001.00,0.52
7000.00,0.52
6999.00,0.52
6998.00,0.52
6997.00,0.52
6996.00,0.52
6995.00,0.52
6994.00,0.52
6993.00,0.52
6992.00,0.52
6991.00,0.52
6990.00,0.52
6989.00,0.52
6988.00,0.52
6987.00,0.52
6986.00,0.52
6985.00,0.52
6984.00,0.52
6983.00,0.52
6982.00,0.52
6981.00,0.52
6980.00,0.52
6979.00,0.52
6978.00,0.52
6977.00,0.52
6976.00,0.52
6975.00,0.52
6974.00,0.52
6973.00,0.52
6972.00,0.52
6971.00,0.52
6970.00,0.51
6969.00,0.51
6968.00,0.51
6967.00,0.51
6966.00,0.51
6965.00,0.51
6964.00,0.51
6963.00,0.51
6962.00,0.51
6961.00,0.51
6960.00,0.51
6959.00,0.50
6958.00,0.50
6957.00,0.50
6956.00,0.50
6955.00,0.50
6954.00,0.50
6953.00,0.50
6952.00,0.50
6951.00,0.50
6950.00,0.50
6949.00,0.50
6948.00,0.50
6947.00,0.50
6946.00,0.50
6945.00,0.50
6944.00,0.50
6943.00,0.50
6942.00,0.50
6941.00,0.50
6940.00,0.50
6939.00,0.50
6938.00,0.50
6937.00,0.50
6936.00,0.50
6935.00,0.50
6934.00,0.50
6933.00,0.50
6932.00,0.50
6931.00,0.50
6930.00,0.50
6929.00,0.50
6928.00,0.50
6927.00,0.50
6926.00,0.50
6925.00,0.50
6924.00,0.50
6923.00,0.50
6922.00,0.50
6921.00,0.49
6920.00,0.49
6919.00,0.49
6918.00,0.49
6917.00,0.49
6916.00,0.49
6915.00,0.49
6914.00,0.49
6913.00,0.49
6912.00,0.49
6911.00,0.49
6910.00,0.49
6909.00,0.49
6908.00,0.49
6907.00,0.49
6906.00,0.49
6905.00,0.49
6904.00,0.49
6903.00,0.49
6902.00,0.49
6901.00,0.49
6900.00,0.49
6899.00,0.49
6898.00,0.49
6897.00,0.49
6896.00,0.49
6895.00,0.49
6894.00,0.49
6893.00,0.49
6892.00,0.49
6891.00,0.49
6890.00,0.49
6889.00,0.49
6888.00,0.49
6887.00,0.49
6886.00,0.49
6885.00,0.49
6884.00,0.49
6883.00,0.49
6882.00,0.49
6881.00,0.49
6880.00,0.49
6879.00,0.49
6878.00,0.49
6877.00,0.49
6876.00,0.49
6875.00,0.49
6874.00,0.49
6873.00,0.49
6872.00,0.49
6871.00,0.49
6870.00,0.49
6869.00,0.49
6868.00,0.49
6867.00,0.49
6866.00,0.49
6865.00,0.49
6864.00,0.49
6863.00,0.49
6862.00,0.49
6861.00,0.49
6860.00,0.49
6859.00,0.49
6858.00,0.49
6857.00,0.49
6856.00,0.49
6855.00,0.49
6854.00,0.49
6853.00,0.49
6852.00,0.49
6851.00,0.49
6850.00,0.49
6849.00,0.49
6848.00,0.48
6847.00,0.48
6846.00,0.48
6845.00,0.48
6844.00,0.48
6843.00,0.48
6842.00,0.49
6841.00,0.49
6840.00,0.49
6839.00,0.49
6838.00,0.49
6837.00,0.49
6836.00,0.49
6835.00,0.49
6834.00,0.49
6833.00,0.49
6832.00,0.49
6831.00,0.49
6830.00,0.50
6829.00,0.50
6828.00,0.50
6827.00,0.50
6826.00,0.50
6825.00,0.50
6824.00,0.50
6823.00,0.50
6822.00,0.50
6821.00,0.50
6820.00,0.50
6819.00,0.50
6818.00,0.50
6817.00,0.50
6816.00,0.50
6815.00,0.50
6814.00,0.50
6813.00,0.49
6812.00,0.49
6811.00,0.49
6810.00,0.49
6809.00,0.49
6808.00,0.49
6807.00,0.49
6806.00,0.49
6805.00,0.49
6804.00,0.49
6803.00,0.49
6802.00,0.49
6801.00,0.49
6800.00,0.49
6799.00,0.49
6798.00,0.49
6797.00,0.49
6796.00,0.49
6795.00,0.49
6794.00,0.49
6793.00,0.49
6792.00,0.49
6791.00,0.49
6790.00,0.49
6789.00,0.49
6788.00,0.49
6787.00,0.49
6786.00,0.49
6785.00,0.50
6784.00,0.50
6783.00,0.50
6782.00,0.50
6781.00,0.50
6780.00,0.50
6779.00,0.50
6778.00,0.50
6777.00,0.50
6776.00,0.50
6775.00,0.50
6774.00,0.50
6773.00,0.50
6772.00,0.50
6771.00,0.50
6770.00,0.50
6769.00,0.50
6768.00,0.50
6767.00,0.50
6766.00,0.50
6765.00,0.50
6764.00,0.51
6763.00,0.51
6762.00,0.51
6761.00,0.51
6760.00,0.51
6759.00,0.51
6758.00,0.51
6757.00,0.51
6756.00,0.51
6755.00,0.51
6754.00,0.51
6753.00,0.51
6752.00,0.51
6751.00,0.51
6750.00,0.51
6749.00,0.51
6748.00,0.51
6747.00,0.51
6746.00,0.51
6745.00,0.51
6744.00,0.51
6743.00,0.51
6742.00,0.51
6741.00,0.52
6740.00,0.52
6739.00,0.52
6738.00,0.52
6737.00,0.52
6736.00,0.52
6735.00,0.52
6734.00,0.52
6733.00,0.52
6732.00,0.52
6731.00,0.52
6730.00,0.52
6729.00,0.52
6728.00,0.52
6727.00,0.52
6726.00,0.52
6725.00,0.52
6724.00,0.52
6723.00,0.53
6722.00,0.53
6721.00,0.53
6720.00,0.53
6719.00,0.53
6718.00,0.53
6717.00,0.53
6716.00,0.53
6715.00,0.53
6714.00,0.53
6713.00,0.53
6712.00,0.53
6711.00,0.53
6710.00,0.53
6709.00,0.53
6708.00,0.54
6707.00,0.54
6706.00,0.54
6705.00,0.54
6704.00,0.54
6703.00,0.54
6702.00,0.54
6701.00,0.54
6700.00,0.54
6699.00,0.54
6698.00,0.54
6697.00,0.54
6696.00,0.54
6695.00,0.54
6694.00,0.54
6693.00,0.54
6692.00,0.55
6691.00,0.55
6690.00,0.55
6689.00,0.55
6688.00,0.55
6687.00,0.55
6686.00,0.55
6685.00,0.55
6684.00,0.55
6683.00,0.55
6682.00,0.55
6681.00,0.55
6680.00,0.55
6679.00,0.55
6678.00,0.55
6677.00,0.55
6676.00,0.55
6675.00,0.56
6674.00,0.56
6673.00,0.56
6672.00,0.56
6671.00,0.56
6670.00,0.56
6669.00,0.56
6668.00,0.56
6667.00,0.56
6666.00,0.56
6665.00,0.56
6664.00,0.56
6663.00,0.57
6662.00,0.57
6661.00,0.57
6660.00,0.57
6659.00,0.57
6658.00,0.57
6657.00,0.57
6656.00,0.57
6655.00,0.57
6654.00,0.57
6653.00,0.57
6652.00,0.57
6651.00,0.57
6650.00,0.57
6649.00,0.57
6648.00,0.57
6647.00,0.57
6646.00,0.57
6645.00,0.57
6644.00,0.57
6643.00,0.58
6642.00,0.58
6641.00,0.58
6640.00,0.58
6639.00,0.58
6638.00,0.58
6637.00,0.58
6636.00,0.58
6635.00,0.58
6634.00,0.58
6633.00,0.59
6632.00,0.59
6631.00,0.59
6630.00,0.59
6629.00,0.59
6628.00,0.59
6627.00,0.59
6626.00,0.59
6625.00,0.59
6624.00,0.59
6623.00,0.59
6622.00,0.59
6621.00,0.60
6620.00,0.60
6619.00,0.60
6618.00,0.60
6617.00,0.60
6616.00,0.60
6615.00,0.60
6614.00,0.60
6613.00,0.60
6612.00,0.60
6611.00,0.60
6610.00,0.60
6609.00,0.60
6608.00,0.60
6607.00,0.60
6606.00,0.60
6605.00,0.60
6604.00,0.60
6603.00,0.60
6602.00,0.60
6601.00,0.61
6600.00,0.61
6599.00,0.61
6598.00,0.61
6597.00,0.61
6596.00,0.61
6595.00,0.61
6594.00,0.61
6593.00,0.61
6592.00,0.61
6591.00,0.61
6590.00,0.61
6589.00,0.62
6588.00,0.62
6587.00,0.62
6586.00,0.62
6585.00,0.62
6584.00,0.62
6583.00,0.62
6582.00,0.62
6581.00,0.62
6580.00,0.62
6579.00,0.62
6578.00,0.62
6577.00,0.62
6576.00,0.62
6575.00,0.62
6574.00,0.62
6573.00,0.62
6572.00,0.62
6571.00,0.63
6570.00,0.63
6569.00,0.63
6568.00,0.63
6567.00,0.63
6566.00,0.63
6565.00,0.63
6564.00,0.63
6563.00,0.63
6562.00,0.63
6561.00,0.63
6560.00,0.63
6559.00,0.63
6558.00,0.63
6557.00,0.63
6556.00,0.64
6555.00,0.64
6554.00,0.64
6553.00,0.64
6552.00,0.64
6551.00,0.64
6550.00,0.64
6549.00,0.64
6548.00,0.64
6547.00,0.65
6546.00,0.65
6545.00,0.65
6544.00,0.65
6543.00,0.65
6542.00,0.65
6541.00,0.65
6540.00,0.65
6539.00,0.65
6538.00,0.65
6537.00,0.65
6536.00,0.65
6535.00,0.65
6534.00,0.65
6533.00,0.65
6532.00,0.65
6531.00,0.65
6530.00,0.65
6529.00,0.65
6528.00,0.65
6527.00,0.65
6526.00,0.65
6525.00,0.65
6524.00,0.65
6523.00,0.65
6522.00,0.65
6521.00,0.65
6520.00,0.65
6519.00,0.66
6518.00,0.66
6517.00,0.66
6516.00,0.66
6515.00,0.66
6514.00,0.66
6513.00,0.66
6512.00,0.66
6511.00,0.66
6510.00,0.66
6509.00,0.66
6508.00,0.66
6507.00,0.66
6506.00,0.66
6505.00,0.66
6504.00,0.66
6503.00,0.66
6502.00,0.66
6501.00,0.67
6500.00,0.67
6499.00,0.67
6498.00,0.67
6497.00,0.67
6496.00,0.67
6495.00,0.67
6494.00,0.67
6493.00,0.67
6492.00,0.67
6491.00,0.67
6490.00,0.67
6489.00,0.67
6488.00,0.67
6487.00,0.67
6486.00,0.67
6485.00,0.67
6484.00,0.68
6483.00,0.68
6482.00,0.68
6481.00,0.68
6480.00,0.68
6479.00,0.68
6478.00,0.68
6477.00,0.68
6476.00,0.68
6475.00,0.68
6474.00,0.68
6473.00,0.68
6472.00,0.68
6471.00,0.69
6470.00,0.69
6469.00,0.69
6468.00,0.69
6467.00,0.69
6466.00,0.69
6465.00,0.69
6464.00,0.69
6463.00,0.69
6462.00,0.69
6461.00,0.69
6460.00,0.69
6459.00,0.69
6458.00,0.69
6457.00,0.69
6456.00,0.69
6455.00,0.69
6454.00,0.69
6453.00,0.69
6452.00,0.69
6451.00,0.69
6450.00,0.69
6449.00,0.69
6448.00,0.69
6447.00,0.69
6446.00,0.69
6445.00,0.69
6444.00,0.69
6443.00,0.69
6442.00,0.69
6441.00,0.69
6440.00,0.69
6439.00,0.70
6438.00,0.70
6437.00,0.70
6436.00,0.70
6435.00,0.70
6434.00,0.70
6433.00,0.70
6432.00,0.70
6431.00,0.70
6430.00,0.70
6429.00,0.70
6428.00,0.70
6427.00,0.70
6426.00,0.70
6425.00,0.70
6424.00,0.70
6423.00,0.70
6422.00,0.70
6421.00,0.70
6420.00,0.70
6419.00,0.70
6418.00,0.70
6417.00,0.70
6416.00,0.70
6415.00,0.70
6414.00,0.70
6413.00,0.71
6412.00,0.71
6411.00,0.71
6410.00,0.71
6409.00,0.71
6408.00,0.71
6407.00,0.71
6406.00,0.71
6405.00,0.71
6404.00,0.71
6403.00,0.71
6402.00,0.71
6401.00,0.71
6400.00,0.71
6399.00,0.71
6398.00,0.72
6397.00,0.72
6396.00,0.72
6395.00,0.72
6394.00,0.72
6393.00,0.72
6392.00,0.72
6391.00,0.72
6390.00,0.72
6389.00,0.72
6388.00,0.72
6387.00,0.72
6386.00,0.72
6385.00,0.72
6384.00,0.72
6383.00,0.72
6382.00,0.72
6381.00,0.72
6380.00,0.72
6379.00,0.72
6378.00,0.72
6377.00,0.72
6376.00,0.72
6375.00,0.72
6374.00,0.72
6373.00,0.72
6372.00,0.72
6371.00,0.72
6370.00,0.73
6369.00,0.73
6368.00,0.73
6367.00,0.73
6366.00,0.73
6365.00,0.73
6364.00,0.73
6363.00,0.73
6362.00,0.73
6361.00,0.73
6360.00,0.73
6359.00,0.74
6358.00,0.74
6357.00,0.74
6356.00,0.74
6355.00,0.74
6354.00,0.74
6353.00,0.74
6352.00,0.74
6351.00,0.74
6350.00,0.74
6349.00,0.74
6348.00,0.74
6347.00,0.74
6346.00,0.74
6345.00,0.74
6344.00,0.74
6343.00,0.74
6342.00,0.74
6341.00,0.74
6340.00,0.74
6339.00,0.74
6338.00,0.74
6337.00,0.74
6336.00,0.74
6335.00,0.74
6334.00,0.74
6333.00,0.74
6332.00,0.74
6331.00,0.74
6330.00,0.74
6329.00,0.74
6328.00,0.74
6327.00,0.75
6326.00,0.75
6325.00,0.75
6324.00,0.75
6323.00,0.75
6322.00,0.75
6321.00,0.75
6320.00,0.75
6319.00,0.75
6318.00,0.76
6317.00,0.76
6316.00,0.76
6315.00,0.76
6314.00,0.76
6313.00,0.76
6312.00,0.76
6311.00,0.76
6310.00,0.76
6309.00,0.77
6308.00,0.77
6307.00,0.77
6306.00,0.77
6305.00,0.77
6304.00,0.77
6303.00,0.77
6302.00,0.77
6301.00,0.77
6300.00,0.77
6299.00,0.77
6298.00,0.77
6297.00,0.77
6296.00,0.78
6295.00,0.78
6294.00,0.78
6293.00,0.78
6292.00,0.78
6291.00,0.78
6290.00,0.78
6289.00,0.78
6288.00,0.78
6287.00,0.78
6286.00,0.78
6285.00,0.78
6284.00,0.79
6283.00,0.79
6282.00,0.79
6281.00,0.79
6280.00,0.79
6279.00,0.79
6278.00,0.79
6277.00,0.79
6276.00,0.79
6275.00,0.79
6274.00,0.79
6273.00,0.79
6272.00,0.80
6271.00,0.80
6270.00,0.80
6269.00,0.80
6268.00,0.80
6267.00,0.80
6266.00,0.80
6265.00,0.80
6264.00,0.81
6263.00,0.81
6262.00,0.81
6261.00,0.81
6260.00,0.81
6259.00,0.81
6258.00,0.81
6257.00,0.81
6256.00,0.81
6255.00,0.82
6254.00,0.82
6253.00,0.82
6252.00,0.82
6251.00,0.82
6250.00,0.82
6249.00,0.82
6248.00,0.82
6247.00,0.82
6246.00,0.82
6245.00,0.82
6244.00,0.82
6243.00,0.82
6242.00,0.82
6241.00,0.82
6240.00,0.82
6239.00,0.82
6238.00,0.82
6237.00,0.82
6236.00,0.82
6235.00,0.83
6234.00,0.83
6233.00,0.83
6232.00,0.83
6231.00,0.83
6230.00,0.83
6229.00,0.83
6228.00,0.83
6227.00,0.83
6226.00,0.84
6225.00,0.84
6224.00,0.84
6223.00,0.84
6222.00,0.84
6221.00,0.84
6220.00,0.84
6219.00,0.84
6218.00,0.84
6217.00,0.85
6216.00,0.85
6215.00,0.85
6214.00,0.85
6213.00,0.85
6212.00,0.85
6211.00,0.85
6210.00,0.85
6209.00,0.85
6208.00,0.85
6207.00,0.85
6206.00,0.86
6205.00,0.86
6204.00,0.86
6203.00,0.86
6202.00,0.86
6201.00,0.86
6200.00,0.86
6199.00,0.86
6198.00,0.86
6197.00,0.86
6196.00,0.87
6195.00,0.87
6194.00,0.87
6193.00,0.87
6192.00,0.87
6191.00,0.87
6190.00,0.87
6189.00,0.87
6188.00,0.87
6187.00,0.87
6186.00,0.87
6185.00,0.87
6184.00,0.88
6183.00,0.88
6182.00,0.88
6181.00,0.88
6180.00,0.88
6179.00,0.88
6178.00,0.88
6177.00,0.88
6176.00,0.88
6175.00,0.89
6174.00,0.89
6173.00,0.89
6172.00,0.89
6171.00,0.89
6170.00,0.89
6169.00,0.89
6168.00,0.90
6167.00,0.90
6166.00,0.90
6165.00,0.90
6164.00,0.90
6163.00,0.90
6162.00,0.90
6161.00,0.90
6160.00,0.91
6159.00,0.91
6158.00,0.91
6157.00,0.91
6156.00,0.91
6155.00,0.91
6154.00,0.91
6153.00,0.91
6152.00,0.91
6151.00,0.91
6150.00,0.91
6149.00,0.92
6148.00,0.92
6147.00,0.92
6146.00,0.92
6145.00,0.92
6144.00,0.92
6143.00,0.92
6142.00,0.92
6141.00,0.92
6140.00,0.92
6139.00,0.92
6138.00,0.93
6137.00,0.93
6136.00,0.93
6135.00,0.93
6134.00,0.93
6133.00,0.93
6132.00,0.93
6131.00,0.94
6130.00,0.94
6129.00,0.94
6128.00,0.94
6127.00,0.94
6126.00,0.95
6125.00,0.95
6124.00,0.95
6123.00,0.95
6122.00,0.95
6121.00,0.95
6120.00,0.95
6119.00,0.96
6118.00,0.96
6117.00,0.96
6116.00,0.96
6115.00,0.96
6114.00,0.96
6113.00,0.96
6112.00,0.96
6111.00,0.96
6110.00,0.96
6109.00,0.96
6108.00,0.96
6107.00,0.97
6106.00,0.97
6105.00,0.97
6104.00,0.97
6103.00,0.97
6102.00,0.97
6101.00,0.97
6100.00,0.97
6099.00,0.98
6098.00,0.98
6097.00,0.98
6096.00,0.98
6095.00,0.98
6094.00,0.98
6093.00,0.98
6092.00,0.98
6091.00,0.99
6090.00,0.99
6089.00,0.99
6088.00,0.99
6087.00,0.99
6086.00,0.99
6085.00,0.99
6084.00,0.99
6083.00,0.99
6082.00,0.99
6081.00,0.99
6080.00,0.99
6079.00,1.00
6078.00,1.00
6077.00,1.00
6076.00,1.00
6075.00,1.00
6074.00,1.00
6073.00,1.00
6072.00,1.00
6071.00,1.00
6070.00,1.00
6069.00,1.00
6068.00,1.00
6067.00,1.00
6066.00,1.00
6065.00,1.00
6064.00,1.00
6063.00,1.00
6062.00,1.00
6061.00,1.01
6060.00,1.01
6059.00,1.01
6058.00,1.01
6057.00,1.01
6056.00,1.01
6055.00,1.01
6054.00,1.01
6053.00,1.01
6052.00,1.01
6051.00,1.01
6050.00,1.01
6049.00,1.02
6048.00,1.02
6047.00,1.02
6046.00,1.02
6045.00,1.02
6044.00,1.02
6043.00,1.02
6042.00,1.02
6041.00,1.02
6040.00,1.02
6039.00,1.02
6038.00,1.02
6037.00,1.02
6036.00,1.03
6035.00,1.03
6034.00,1.03
6033.00,1.03
6032.00,1.03
6031.00,1.03
6030.00,1.03
6029.00,1.03
6028.00,1.03
6027.00,1.03
6026.00,1.03
6025.00,1.03
6024.00,1.03
6023.00,1.03
6022.00,1.03
6021.00,1.03
6020.00,1.03
6019.00,1.03
6018.00,1.03
6017.00,1.03
6016.00,1.03
6015.00,1.03
6014.00,1.03
6013.00,1.03
6012.00,1.03
6011.00,1.03
6010.00,1.03
6009.00,1.03
6008.00,1.03
6007.00,1.03
6006.00,1.03
6005.00,1.03
6004.00,1.03
6003.00,1.03
6002.00,1.03
6001.00,1.03
6000.00,1.03
5999.00,1.03
5998.00,1.03
5997.00,1.03
5996.00,1.03
5995.00,1.03
5994.00,1.03
5993.00,1.03
5992.00,1.02
5991.00,1.02
5990.00,1.02
5989.00,1.02
5988.00,1.02
5987.00,1.01
5986.00,1.01
5985.00,1.01
5984.00,1.01
5983.00,1.00
5982.00,1.00
5981.00,1.00
5980.00,1.00
5979.00,0.99
5978.00,0.99
5977.00,0.99
5976.00,0.98
5975.00,0.98
5974.00,0.98
5973.00,0.97
5972.00,0.97
5971.00,0.97
5970.00,0.96
5969.00,0.96
5968.00,0.95
5967.00,0.95
5966.00,0.94
5965.00,0.94
5964.00,0.93
5963.00,0.93
5962.00,0.92
5961.00,0.91
5960.00,0.91
5959.00,0.90
5958.00,0.90
5957.00,0.89
5956.00,0.89
5955.00,0.88
5954.00,0.87
5953.00,0.87
5952.00,0.86
5951.00,0.86
5950.00,0.85
5949.00,0.85
5948.00,0.85
5947.00,0.84
5946.00,0.84
5945.00,0.84
5944.00,0.83
5943.00,0.83
5942.00,0.83
5941.00,0.83
5940.00,0.83
5939.00,0.82
5938.00,0.82
5937.00,0.82
5936.00,0.82
5935.00,0.82
5934.00,0.82
5933.00,0.82
5932.00,0.82
5931.00,0.82
5930.00,0.82
5929.00,0.82
5928.00,0.81
5927.00,0.81
5926.00,0.81
5925.00,0.81
5924.00,0.81
5923.00,0.81
5922.00,0.81
5921.00,0.80
5920.00,0.80
5919.00,0.80
5918.00,0.80
5917.00,0.80
5916.00,0.80
5915.00,0.79
5914.00,0.79
5913.00,0.79
5912.00,0.79
5911.00,0.79
5910.00,0.79
5909.00,0.78
5908.00,0.78
5907.00,0.78
5906.00,0.78
5905.00,0.78
5904.00,0.78
5903.00,0.78
5902.00,0.78
5901.00,0.78
5900.00,0.78
5899.00,0.78
5898.00,0.78
5897.00,0.78
5896.00,0.78
5895.00,0.78
5894.00,0.79
5893.00,0.79
5892.00,0.79
5891.00,0.79
5890.00,0.79
5889.00,0.80
5888.00,0.80
5887.00,0.80
5886.00,0.80
5885.00,0.81
5884.00,0.81
5883.00,0.81
5882.00,0.81
5881.00,0.82
5880.00,0.82
5879.00,0.82
5878.00,0.82
5877.00,0.82
5876.00,0.83
5875.00,0.83
5874.00,0.83
5873.00,0.83
5872.00,0.83
5871.00,0.84
5870.00,0.84
5869.00,0.84
5868.00,0.84
5867.00,0.84
5866.00,0.84
5865.00,0.84
5864.00,0.84
5863.00,0.85
5862.00,0.85
5861.00,0.85
5860.00,0.85
5859.00,0.85
5858.00,0.85
5857.00,0.85
5856.00,0.85
5855.00,0.85
5854.00,0.86
5853.00,0.86
5852.00,0.86
5851.00,0.86
5850.00,0.86
5849.00,0.86
5848.00,0.86
5847.00,0.86
5846.00,0.86
5845.00,0.86
5844.00,0.86
5843.00,0.86
5842.00,0.86
5841.00,0.86
5840.00,0.86
5839.00,0.86
5838.00,0.86
5837.00,0.86
5836.00,0.86
5835.00,0.86
5834.00,0.86
5833.00,0.86
5832.00,0.86
5831.00,0.86
5830.00,0.86
5829.00,0.86
5828.00,0.86
5827.00,0.86
5826.00,0.86
5825.00,0.86
5824.00,0.86
5823.00,0.86
5822.00,0.86
5821.00,0.86
5820.00,0.86
5819.00,0.86
5818.00,0.86
5817.00,0.86
5816.00,0.86
5815.00,0.86
5814.00,0.86
5813.00,0.86
5812.00,0.86
5811.00,0.86
5810.00,0.86
5809.00,0.86
5808.00,0.86
5807.00,0.86
5806.00,0.86
5805.00,0.86
5804.00,0.86
5803.00,0.86
5802.00,0.86
5801.00,0.86
5800.00,0.86
5799.00,0.85
5798.00,0.85
5797.00,0.85
5796.00,0.85
5795.00,0.85
5794.00,0.85
5793.00,0.85
5792.00,0.85
5791.00,0.84
5790.00,0.84
5789.00,0.84
5788.00,0.84
5787.00,0.84
5786.00,0.84
5785.00,0.83
5784.00,0.83
5783.00,0.83
5782.00,0.83
5781.00,0.83
5780.00,0.83
5779.00,0.83
5778.00,0.83
5777.00,0.83
5776.00,0.82
5775.00,0.82
5774.00,0.82
5773.00,0.82
5772.00,0.82
5771.00,0.82
5770.00,0.82
5769.00,0.82
5768.00,0.83
5767.00,0.83
5766.00,0.83
5765.00,0.83
5764.00,0.83
5763.00,0.83
5762.00,0.83
5761.00,0.84
5760.00,0.84
5759.00,0.84
5758.00,0.84
5757.00,0.85
5756.00,0.85
5755.00,0.85
5754.00,0.85
5753.00,0.86
5752.00,0.86
5751.00,0.86
5750.00,0.87
5749.00,0.87
5748.00,0.87
5747.00,0.87
5746.00,0.88
5745.00,0.88
5744.00,0.88
5743.00,0.88
5742.00,0.89
5741.00,0.89
5740.00,0.89
5739.00,0.89
5738.00,0.89
5737.00,0.90
5736.00,0.90
5735.00,0.90
5734.00,0.90
5733.00,0.90
5732.00,0.91
5731.00,0.91
5730.00,0.91
5729.00,0.91
5728.00,0.91
5727.00,0.91
5726.00,0.91
5725.00,0.91
5724.00,0.91
5723.00,0.91
5722.00,0.91
5721.00,0.91
5720.00,0.91
5719.00,0.91
5718.00,0.91
5717.00,0.91
5716.00,0.91
5715.00,0.91
5714.00,0.91
5713.00,0.91
5712.00,0.91
5711.00,0.91
5710.00,0.91
5709.00,0.91
5708.00,0.91
5707.00,0.91
5706.00,0.91
5705.00,0.91
5704.00,0.91
5703.00,0.91
5702.00,0.91
5701.00,0.90
5700.00,0.90
5699.00,0.90
5698.00,0.90
5697.00,0.90
5696.00,0.90
5695.00,0.90
5694.00,0.90
5693.00,0.90
5692.00,0.89
5691.00,0.89
5690.00,0.89
5689.00,0.89
5688.00,0.89
5687.00,0.89
5686.00,0.89
5685.00,0.89
5684.00,0.89
5683.00,0.89
5682.00,0.89
5681.00,0.89
5680.00,0.89
5679.00,0.89
5678.00,0.89
5677.00,0.89
5676.00,0.89
5675.00,0.89
5674.00,0.89
5673.00,0.89
5672.00,0.89
5671.00,0.89
5670.00,0.89
5669.00,0.89
5668.00,0.89
5667.00,0.89
5666.00,0.89
5665.00,0.89
5664.00,0.89
5663.00,0.89
5662.00,0.89
5661.00,0.90
5660.00,0.90
5659.00,0.90
5658.00,0.90
5657.00,0.90
5656.00,0.90
5655.00,0.90
5654.00,0.91
5653.00,0.91
5652.00,0.91
5651.00,0.91
5650.00,0.91
5649.00,0.91
5648.00,0.92
5647.00,0.92
5646.00,0.92
5645.00,0.92
5644.00,0.92
5643.00,0.93
5642.00,0.93
5641.00,0.93
5640.00,0.93
5639.00,0.93
5638.00,0.93
5637.00,0.94
5636.00,0.94
5635.00,0.94
5634.00,0.94
5633.00,0.94
5632.00,0.94
5631.00,0.94
5630.00,0.95
5629.00,0.95
5628.00,0.95
5627.00,0.95
5626.00,0.95
5625.00,0.95
5624.00,0.95
5623.00,0.95
5622.00,0.95
5621.00,0.96
5620.00,0.96
5619.00,0.96
5618.00,0.96
5617.00,0.96
5616.00,0.96
5615.00,0.96
5614.00,0.96
5613.00,0.96
5612.00,0.96
5611.00,0.97
5610.00,0.97
5609.00,0.97
5608.00,0.97
5607.00,0.97
5606.00,0.97
5605.00,0.97
5604.00,0.98
5603.00,0.98
5602.00,0.98
5601.00,0.98
5600.00,0.98
5599.00,0.98
5598.00,0.99
5597.00,0.99
5596.00,0.99
5595.00,0.99
5594.00,0.99
5593.00,0.99
5592.00,0.99
5591.00,0.99
5590.00,0.99
5589.00,0.99
5588.00,1.00
5587.00,1.00
5586.00,1.00
5585.00,1.00
5584.00,1.00
5583.00,1.00
5582.00,1.00
5581.00,1.00
5580.00,1.00
5579.00,1.00
5578.00,1.01
5577.00,1.01
5576.00,1.01
5575.00,1.01
5574.00,1.01
5573.00,1.01
5572.00,1.01
5571.00,1.02
5570.00,1.02
5569.00,1.02
5568.00,1.02
5567.00,1.02
5566.00,1.02
5565.00,1.02
5564.00,1.03
5563.00,1.03
5562.00,1.03
5561.00,1.03
5560.00,1.03
5559.00,1.03
5558.00,1.03
5557.00,1.03
5556.00,1.03
5555.00,1.04
5554.00,1.04
5553.00,1.04
5552.00,1.04
5551.00,1.04
5550.00,1.04
5549.00,1.04
5548.00,1.04
5547.00,1.04
5546.00,1.04
5545.00,1.04
5544.00,1.05
5543.00,1.05
5542.00,1.05
5541.00,1.05
5540.00,1.05
5539.00,1.05
5538.00,1.05
5537.00,1.06
5536.00,1.06
5535.00,1.06
5534.00,1.06
5533.00,1.06
5532.00,1.06
5531.00,1.06
5530.00,1.06
5529.00,1.06
5528.00,1.06
5527.00,1.07
5526.00,1.07
5525.00,1.07
5524.00,1.07
5523.00,1.07
5522.00,1.07
5521.00,1.07
5520.00,1.07
5519.00,1.07
5518.00,1.07
5517.00,1.07
5516.00,1.07
5515.00,1.07
5514.00,1.07
5513.00,1.07
5512.00,1.07
5511.00,1.07
5510.00,1.07
5509.00,1.07
5508.00,1.07
5507.00,1.07
5506.00,1.07
5505.00,1.07
5504.00,1.07
5503.00,1.07
5502.00,1.07
5501.00,1.07
5500.00,1.07
5499.00,1.07
5498.00,1.07
5497.00,1.07
5496.00,1.08
5495.00,1.08
5494.00,1.08
5493.00,1.08
5492.00,1.08
5491.00,1.08
5490.00,1.08
5489.00,1.08
5488.00,1.08
5487.00,1.08
5486.00,1.08
5485.00,1.08
5484.00,1.09
5483.00,1.09
5482.00,1.09
5481.00,1.09
5480.00,1.09
5479.00,1.09
5478.00,1.09
5477.00,1.09
5476.00,1.09
5475.00,1.10
5474.00,1.10
5473.00,1.10
5472.00,1.10
5471.00,1.10
5470.00,1.10
5469.00,1.10
5468.00,1.10
5467.00,1.10
5466.00,1.10
5465.00,1.11
5464.00,1.11
5463.00,1.11
5462.00,1.11
5461.00,1.11
5460.00,1.11
5459.00,1.11
5458.00,1.11
5457.00,1.12
5456.00,1.12
5455.00,1.12
5454.00,1.12
5453.00,1.12
5452.00,1.12
5451.00,1.12
5450.00,1.12
5449.00,1.12
5448.00,1.12
5447.00,1.12
5446.00,1.12
5445.00,1.12
5444.00,1.12
5443.00,1.12
5442.00,1.12
5441.00,1.12
5440.00,1.12
5439.00,1.12
5438.00,1.12
5437.00,1.12
5436.00,1.12
5435.00,1.12
5434.00,1.12
5433.00,1.12
5432.00,1.12
5431.00,1.12
5430.00,1.12
5429.00,1.12
5428.00,1.12
5427.00,1.12
5426.00,1.12
5425.00,1.12
5424.00,1.12
5423.00,1.13
5422.00,1.13
5421.00,1.13
5420.00,1.13
5419.00,1.13
5418.00,1.13
5417.00,1.13
5416.00,1.13
5415.00,1.13
5414.00,1.12
5413.00,1.12
5412.00,1.12
5411.00,1.12
5410.00,1.12
5409.00,1.13
5408.00,1.13
5407.00,1.13
5406.00,1.13
5405.00,1.13
5404.00,1.13
5403.00,1.13
5402.00,1.13
5401.00,1.13
5400.00,1.13
5399.00,1.13
5398.00,1.13
5397.00,1.13
5396.00,1.13
5395.00,1.13
5394.00,1.12
5393.00,1.12
5392.00,1.12
5391.00,1.12
5390.00,1.12
5389.00,1.12
5388.00,1.12
5387.00,1.12
5386.00,1.11
5385.00,1.11
5384.00,1.11
5383.00,1.11
5382.00,1.11
5381.00,1.10
5380.00,1.10
5379.00,1.10
5378.00,1.10
5377.00,1.09
5376.00,1.09
5375.00,1.09
5374.00,1.09
5373.00,1.08
5372.00,1.08
5371.00,1.08
5370.00,1.07
5369.00,1.07
5368.00,1.07
5367.00,1.06
5366.00,1.06
5365.00,1.06
5364.00,1.05
5363.00,1.05
5362.00,1.04
5361.00,1.04
5360.00,1.03
5359.00,1.03
5358.00,1.03
5357.00,1.02
5356.00,1.01
5355.00,1.01
5354.00,1.00
5353.00,1.00
5352.00,0.99
5351.00,0.99
5350.00,0.98
5349.00,0.97
5348.00,0.97
5347.00,0.96
5346.00,0.95
5345.00,0.95
5344.00,0.94
5343.00,0.93
5342.00,0.93
5341.00,0.92
5340.00,0.91
5339.00,0.91
5338.00,0.90
5337.00,0.89
5336.00,0.88
5335.00,0.87
5334.00,0.87
5333.00,0.86
5332.00,0.85
5331.00,0.84
5330.00,0.83
5329.00,0.83
5328.00,0.82
5327.00,0.81
5326.00,0.80
5325.00,0.79
5324.00,0.79
5323.00,0.78
5322.00,0.77
5321.00,0.76
5320.00,0.76
5319.00,0.75
5318.00,0.74
5317.00,0.74
5316.00,0.73
5315.00,0.72
5314.00,0.72
5313.00,0.71
5312.00,0.70
5311.00,0.70
5310.00,0.69
5309.00,0.69
5308.00,0.68
5307.00,0.67
5306.00,0.67
5305.00,0.66
5304.00,0.66
5303.00,0.66
5302.00,0.65
5301.00,0.65
5300.00,0.64
5299.00,0.64
5298.00,0.64
5297.00,0.63
5296.00,0.63
5295.00,0.63
5294.00,0.62
5293.00,0.62
5292.00,0.62
5291.00,0.61
5290.00,0.61
5289.00,0.61
5288.00,0.61
5287.00,0.61
5286.00,0.60
5285.00,0.60
5284.00,0.60
5283.00,0.60
5282.00,0.60
5281.00,0.60
5280.00,0.59
5279.00,0.59
5278.00,0.59
5277.00,0.59
5276.00,0.59
5275.00,0.59
5274.00,0.59
5273.00,0.59
5272.00,0.59
5271.00,0.58
5270.00,0.58
5269.00,0.58
5268.00,0.58
5267.00,0.58
5266.00,0.58
5265.00,0.58
5264.00,0.58
5263.00,0.58
5262.00,0.58
5261.00,0.58
5260.00,0.58
5259.00,0.58
5258.00,0.58
5257.00,0.58
5256.00,0.58
5255.00,0.58
5254.00,0.58
5253.00,0.58
5252.00,0.58
5251.00,0.58
5250.00,0.57
5249.00,0.57
5248.00,0.57
5247.00,0.57
5246.00,0.57
5245.00,0.57
5244.00,0.57
5243.00,0.58
5242.00,0.58
5241.00,0.58
5240.00,0.58
5239.00,0.58
5238.00,0.58
5237.00,0.58
5236.00,0.58
5235.00,0.58
5234.00,0.58
5233.00,0.58
5232.00,0.58
5231.00,0.58
5230.00,0.58
5229.00,0.58
5228.00,0.58
5227.00,0.58
5226.00,0.58
5225.00,0.58
5224.00,0.58
5223.00,0.58
5222.00,0.58
5221.00,0.58
5220.00,0.58
5219.00,0.58
5218.00,0.58
5217.00,0.58
5216.00,0.58
5215.00,0.58
5214.00,0.58
5213.00,0.58
5212.00,0.58
5211.00,0.58
5210.00,0.59
5209.00,0.59
5208.00,0.59
5207.00,0.59
5206.00,0.59
5205.00,0.59
5204.00,0.59
5203.00,0.59
5202.00,0.59
5201.00,0.59
5200.00,0.59
5199.00,0.59
5198.00,0.59
5197.00,0.59
5196.00,0.59
5195.00,0.59
5194.00,0.59
5193.00,0.59
5192.00,0.59
5191.00,0.59
5190.00,0.59
5189.00,0.59
5188.00,0.59
5187.00,0.59
5186.00,0.59
5185.00,0.59
5184.00,0.59
5183.00,0.59
5182.00,0.59
5181.00,0.59
5180.00,0.59
5179.00,0.59
5178.00,0.59
5177.00,0.59
5176.00,0.59
5175.00,0.60
5174.00,0.60
5173.00,0.60
5172.00,0.60
5171.00,0.60
5170.00,0.60
5169.00,0.60
5168.00,0.60
5167.00,0.60
5166.00,0.60
5165.00,0.60
5164.00,0.60
5163.00,0.60
5162.00,0.60
5161.00,0.60
5160.00,0.60
5159.00,0.60
5158.00,0.60
5157.00,0.60
5156.00,0.60
5155.00,0.60
5154.00,0.60
5153.00,0.60
5152.00,0.60
5151.00,0.61
5150.00,0.61
5149.00,0.61
5148.00,0.61
5147.00,0.61
5146.00,0.61
5145.00,0.61
5144.00,0.61
5143.00,0.61
5142.00,0.61
5141.00,0.61
5140.00,0.61
5139.00,0.61
5138.00,0.61
5137.00,0.61
5136.00,0.61
5135.00,0.61
5134.00,0.61
5133.00,0.62
5132.00,0.62
5131.00,0.62
5130.00,0.62
5129.00,0.62
5128.00,0.62
5127.00,0.62
5126.00,0.62
5125.00,0.62
5124.00,0.62
5123.00,0.62
5122.00,0.62
5121.00,0.62
5120.00,0.62
5119.00,0.62
5118.00,0.62
5117.00,0.62
5116.00,0.62
5115.00,0.62
5114.00,0.62
5113.00,0.62
5112.00,0.62
5111.00,0.62
5110.00,0.62
5109.00,0.62
5108.00,0.62
5107.00,0.62
5106.00,0.62
5105.00,0.62
5104.00,0.62
5103.00,0.62
5102.00,0.62
5101.00,0.62
5100.00,0.63
5099.00,0.63
5098.00,0.63
5097.00,0.63
5096.00,0.63
5095.00,0.63
5094.00,0.63
5093.00,0.63
5092.00,0.63
5091.00,0.63
5090.00,0.63
5089.00,0.63
5088.00,0.63
5087.00,0.63
5086.00,0.63
5085.00,0.63
5084.00,0.63
5083.00,0.63
5082.00,0.63
5081.00,0.63
5080.00,0.63
5079.00,0.63
5078.00,0.63
5077.00,0.63
5076.00,0.64
5075.00,0.64
5074.00,0.64
5073.00,0.64
5072.00,0.64
5071.00,0.64
5070.00,0.64
5069.00,0.64
5068.00,0.64
5067.00,0.64
5066.00,0.64
5065.00,0.64
5064.00,0.64
5063.00,0.64
5062.00,0.64
5061.00,0.64
5060.00,0.64
5059.00,0.64
5058.00,0.64
5057.00,0.64
5056.00,0.64
5055.00,0.64
5054.00,0.64
5053.00,0.64
5052.00,0.64
5051.00,0.65
5050.00,0.65
5049.00,0.65
5048.00,0.65
5047.00,0.65
5046.00,0.65
5045.00,0.65
5044.00,0.65
5043.00,0.65
5042.00,0.65
5041.00,0.65
5040.00,0.65
5039.00,0.65
5038.00,0.65
5037.00,0.65
5036.00,0.65
5035.00,0.65
5034.00,0.65
5033.00,0.65
5032.00,0.65
5031.00,0.65
5030.00,0.65
5029.00,0.65
5028.00,0.65
5027.00,0.65
5026.00,0.66
5025.00,0.66
5024.00,0.66
5023.00,0.66
5022.00,0.66
5021.00,0.66
5020.00,0.66
5019.00,0.66
5018.00,0.66
5017.00,0.66
5016.00,0.66
5015.00,0.66
5014.00,0.67
5013.00,0.67
5012.00,0.67
5011.00,0.67
5010.00,0.67
5009.00,0.67
5008.00,0.67
5007.00,0.67
5006.00,0.67
5005.00,0.67
5004.00,0.67
5003.00,0.67
5002.00,0.68
5001.00,0.68
5000.00,0.68
4999.00,0.68
4998.00,0.68
4997.00,0.68
4996.00,0.68
4995.00,0.68
4994.00,0.68
4993.00,0.68
4992.00,0.68
4991.00,0.68
4990.00,0.68
4989.00,0.68
4988.00,0.68
4987.00,0.68
4986.00,0.68
4985.00,0.68
4984.00,0.68
4983.00,0.68
4982.00,0.69
4981.00,0.69
4980.00,0.69
4979.00,0.69
4978.00,0.69
4977.00,0.69
4976.00,0.69
4975.00,0.69
4974.00,0.69
4973.00,0.69
4972.00,0.69
4971.00,0.69
4970.00,0.69
4969.00,0.69
4968.00,0.69
4967.00,0.69
4966.00,0.69
4965.00,0.69
4964.00,0.70
4963.00,0.70
4962.00,0.70
4961.00,0.70
4960.00,0.70
4959.00,0.70
4958.00,0.70
4957.00,0.70
4956.00,0.70
4955.00,0.70
4954.00,0.70
4953.00,0.71
4952.00,0.71
4951.00,0.71
4950.00,0.71
4949.00,0.71
4948.00,0.71
4947.00,0.71
4946.00,0.71
4945.00,0.71
4944.00,0.71
4943.00,0.71
4942.00,0.72
4941.00,0.72
4940.00,0.72
4939.00,0.72
4938.00,0.72
4937.00,0.72
4936.00,0.72
4935.00,0.72
4934.00,0.72
4933.00,0.72
4932.00,0.72
4931.00,0.72
4930.00,0.72
4929.00,0.72
4928.00,0.72
4927.00,0.72
4926.00,0.72
4925.00,0.72
4924.00,0.72
4923.00,0.72
4922.00,0.72
4921.00,0.72
4920.00,0.73
4919.00,0.73
4918.00,0.73
4917.00,0.73
4916.00,0.73
4915.00,0.73
4914.00,0.73
4913.00,0.73
4912.00,0.73
4911.00,0.73
4910.00,0.73
4909.00,0.73
4908.00,0.73
4907.00,0.73
4906.00,0.73
4905.00,0.73
4904.00,0.73
4903.00,0.73
4902.00,0.73
4901.00,0.73
4900.00,0.73
4899.00,0.73
4898.00,0.73
4897.00,0.73
4896.00,0.73
4895.00,0.74
4894.00,0.74
4893.00,0.74
4892.00,0.74
4891.00,0.74
4890.00,0.74
4889.00,0.74
4888.00,0.74
4887.00,0.74
4886.00,0.74
4885.00,0.74
4884.00,0.74
4883.00,0.74
4882.00,0.74
4881.00,0.75
4880.00,0.75
4879.00,0.75
4878.00,0.75
4877.00,0.75
4876.00,0.75
4875.00,0.75
4874.00,0.75
4873.00,0.75
4872.00,0.75
4871.00,0.75
4870.00,0.75
4869.00,0.75
4868.00,0.75
4867.00,0.75
4866.00,0.75
4865.00,0.75
4864.00,0.75
4863.00,0.75
4862.00,0.75
4861.00,0.75
4860.00,0.75
4859.00,0.75
4858.00,0.75
4857.00,0.75
4856.00,0.75
4855.00,0.75
4854.00,0.75
4853.00,0.75
4852.00,0.75
4851.00,0.75
4850.00,0.75
4849.00,0.75
4848.00,0.75
4847.00,0.75
4846.00,0.75
4845.00,0.75
4844.00,0.76
4843.00,0.76
4842.00,0.76
4841.00,0.76
4840.00,0.76
4839.00,0.76
4838.00,0.76
4837.00,0.76
4836.00,0.76
4835.00,0.76
4834.00,0.76
4833.00,0.76
4832.00,0.76
4831.00,0.76
4830.00,0.76
4829.00,0.76
4828.00,0.76
4827.00,0.76
4826.00,0.77
4825.00,0.77
4824.00,0.77
4823.00,0.77
4822.00,0.77
4821.00,0.77
4820.00,0.77
4819.00,0.77
4818.00,0.77
4817.00,0.77
4816.00,0.77
4815.00,0.77
4814.00,0.78
4813.00,0.78
4812.00,0.78
4811.00,0.78
4810.00,0.78
4809.00,0.78
4808.00,0.78
4807.00,0.78
4806.00,0.78
4805.00,0.78
4804.00,0.78
4803.00,0.79
4802.00,0.79
4801.00,0.79
4800.00,0.79
4799.00,0.79
4798.00,0.79
4797.00,0.79
4796.00,0.79
4795.00,0.79
4794.00,0.79
4793.00,0.79
4792.00,0.79
4791.00,0.79
4790.00,0.79
4789.00,0.79
4788.00,0.79
4787.00,0.79
4786.00,0.79
4785.00,0.79
4784.00,0.79
4783.00,0.79
4782.00,0.80
4781.00,0.80
4780.00,0.80
4779.00,0.80
4778.00,0.80
4777.00,0.80
4776.00,0.80
4775.00,0.80
4774.00,0.80
4773.00,0.80
4772.00,0.81
4771.00,0.81
4770.00,0.81
4769.00,0.81
4768.00,0.81
4767.00,0.81
4766.00,0.81
4765.00,0.81
4764.00,0.81
4763.00,0.81
4762.00,0.81
4761.00,0.82
4760.00,0.82
4759.00,0.82
4758.00,0.82
4757.00,0.82
4756.00,0.82
4755.00,0.82
4754.00,0.82
4753.00,0.82
4752.00,0.83
4751.00,0.83
4750.00,0.83
4749.00,0.83
4748.00,0.83
4747.00,0.83
4746.00,0.83
4745.00,0.83
4744.00,0.83
4743.00,0.84
4742.00,0.84
4741.00,0.84
4740.00,0.84
4739.00,0.84
4738.00,0.84
4737.00,0.84
4736.00,0.84
4735.00,0.84
4734.00,0.84
4733.00,0.84
4732.00,0.84
4731.00,0.84
4730.00,0.84
4729.00,0.84
4728.00,0.84
4727.00,0.84
4726.00,0.85
4725.00,0.85
4724.00,0.85
4723.00,0.85
4722.00,0.85
4721.00,0.85
4720.00,0.85
4719.00,0.86
4718.00,0.86
4717.00,0.86
4716.00,0.86
4715.00,0.86
4714.00,0.86
4713.00,0.86
4712.00,0.87
4711.00,0.87
4710.00,0.87
4709.00,0.87
4708.00,0.87
4707.00,0.87
4706.00,0.87
4705.00,0.87
4704.00,0.88
4703.00,0.88
4702.00,0.88
4701.00,0.88
4700.00,0.88
4699.00,0.88
4698.00,0.88
4697.00,0.89
4696.00,0.89
4695.00,0.89
4694.00,0.89
4693.00,0.89
4692.00,0.89
4691.00,0.89
4690.00,0.89
4689.00,0.89
4688.00,0.89
4687.00,0.90
4686.00,0.90
4685.00,0.90
4684.00,0.90
4683.00,0.90
4682.00,0.90
4681.00,0.90
4680.00,0.90
4679.00,0.90
4678.00,0.91
4677.00,0.91
4676.00,0.91
4675.00,0.91
4674.00,0.91
4673.00,0.91
4672.00,0.91
4671.00,0.91
4670.00,0.92
4669.00,0.92
4668.00,0.92
4667.00,0.92
4666.00,0.92
4665.00,0.92
4664.00,0.92
4663.00,0.92
4662.00,0.92
4661.00,0.92
4660.00,0.92
4659.00,0.92
4658.00,0.92
4657.00,0.92
4656.00,0.93
4655.00,0.93
4654.00,0.93
4653.00,0.93
4652.00,0.93
4651.00,0.93
4650.00,0.93
4649.00,0.93
4648.00,0.93
4647.00,0.93
4646.00,0.93
4645.00,0.93
4644.00,0.94
4643.00,0.94
4642.00,0.94
4641.00,0.94
4640.00,0.94
4639.00,0.94
4638.00,0.94
4637.00,0.94
4636.00,0.94
4635.00,0.94
4634.00,0.94
4633.00,0.94
4632.00,0.94
4631.00,0.94
4630.00,0.95
4629.00,0.95
4628.00,0.95
4627.00,0.95
4626.00,0.95
4625.00,0.95
4624.00,0.95
4623.00,0.95
4622.00,0.96
4621.00,0.96
4620.00,0.96
4619.00,0.96
4618.00,0.96
4617.00,0.96
4616.00,0.96
4615.00,0.96
4614.00,0.96
4613.00,0.97
4612.00,0.97
4611.00,0.97
4610.00,0.97
4609.00,0.97
4608.00,0.97
4607.00,0.97
4606.00,0.97
4605.00,0.97
4604.00,0.97
4603.00,0.97
4602.00,0.97
4601.00,0.97
4600.00,0.97
4599.00,0.97
4598.00,0.97
4597.00,0.97
4596.00,0.97
4595.00,0.97
4594.00,0.97
4593.00,0.97
4592.00,0.97
4591.00,0.98
4590.00,0.98
4589.00,0.98
4588.00,0.98
4587.00,0.98
4586.00,0.98
4585.00,0.98
4584.00,0.98
4583.00,0.99
4582.00,0.99
4581.00,0.99
4580.00,0.99
4579.00,0.99
4578.00,0.99
4577.00,0.99
4576.00,0.99
4575.00,0.99
4574.00,0.99
4573.00,0.99
4572.00,0.99
4571.00,1.00
4570.00,1.00
4569.00,1.00
4568.00,1.00
4567.00,1.00
4566.00,1.00
4565.00,1.00
4564.00,1.00
4563.00,1.00
4562.00,1.00
4561.00,1.00
4560.00,1.00
4559.00,1.00
4558.00,1.00
4557.00,1.00
4556.00,1.00
4555.00,1.00
4554.00,1.00
4553.00,1.00
4552.00,1.00
4551.00,1.00
4550.00,1.00
4549.00,1.00
4548.00,1.00
4547.00,1.00
4546.00,1.01
4545.00,1.01
4544.00,1.01
4543.00,1.01
4542.00,1.01
4541.00,1.01
4540.00,1.01
4539.00,1.01
4538.00,1.01
4537.00,1.01
4536.00,1.01
4535.00,1.01
4534.00,1.02
4533.00,1.02
4532.00,1.02
4531.00,1.02
4530.00,1.02
4529.00,1.02
4528.00,1.02
4527.00,1.02
4526.00,1.02
4525.00,1.02
4524.00,1.02
4523.00,1.02
4522.00,1.02
4521.00,1.02
4520.00,1.02
4519.00,1.02
4518.00,1.02
4517.00,1.02
4516.00,1.02
4515.00,1.02
4514.00,1.02
4513.00,1.02
4512.00,1.02
4511.00,1.02
4510.00,1.02
4509.00,1.02
4508.00,1.02
4507.00,1.03
4506.00,1.03
4505.00,1.03
4504.00,1.03
4503.00,1.03
4502.00,1.03
4501.00,1.03
4500.00,1.03
4499.00,1.02
4498.00,1.02
4497.00,1.02
4496.00,1.02
4495.00,1.02
4494.00,1.02
4493.00,1.02
4492.00,1.02
4491.00,1.02
4490.00,1.02
4489.00,1.02
4488.00,1.02
4487.00,1.02
4486.00,1.02
4485.00,1.01
4484.00,1.01
4483.00,1.01
4482.00,1.01
4481.00,1.01
4480.00,1.01
4479.00,1.01
4478.00,1.01
4477.00,1.00
4476.00,1.00
4475.00,1.00
4474.00,1.00
4473.00,1.00
4472.00,1.00
4471.00,1.00
4470.00,0.99
4469.00,0.99
4468.00,0.99
4467.00,0.99
4466.00,0.99
4465.00,0.99
4464.00,0.99
4463.00,0.98
4462.00,0.98
4461.00,0.98
4460.00,0.98
4459.00,0.98
4458.00,0.97
4457.00,0.97
4456.00,0.97
4455.00,0.97
4454.00,0.97
4453.00,0.97
4452.00,0.96
4451.00,0.96
4450.00,0.96
4449.00,0.96
4448.00,0.96
4447.00,0.96
4446.00,0.95
4445.00,0.95
4444.00,0.95
4443.00,0.95
4442.00,0.94
4441.00,0.94
4440.00,0.94
4439.00,0.94
4438.00,0.94
4437.00,0.93
4436.00,0.93
4435.00,0.93
4434.00,0.93
4433.00,0.92
4432.00,0.92
4431.00,0.92
4430.00,0.92
4429.00,0.91
4428.00,0.91
4427.00,0.91
4426.00,0.91
4425.00,0.91
4424.00,0.91
4423.00,0.91
4422.00,0.91
4421.00,0.91
4420.00,0.91
4419.00,0.91
4418.00,0.90
4417.00,0.90
4416.00,0.91
4415.00,0.91
4414.00,0.91
4413.00,0.91
4412.00,0.91
4411.00,0.91
4410.00,0.91
4409.00,0.91
4408.00,0.91
4407.00,0.91
4406.00,0.91
4405.00,0.91
4404.00,0.91
4403.00,0.91
4402.00,0.91
4401.00,0.91
4400.00,0.91
4399.00,0.91
4398.00,0.91
4397.00,0.91
4396.00,0.92
4395.00,0.92
4394.00,0.92
4393.00,0.92
4392.00,0.92
4391.00,0.92
4390.00,0.92
4389.00,0.92
4388.00,0.92
4387.00,0.92
4386.00,0.93
4385.00,0.93
4384.00,0.93
4383.00,0.93
4382.00,0.93
4381.00,0.93
4380.00,0.93
4379.00,0.93
4378.00,0.94
4377.00,0.94
4376.00,0.94
4375.00,0.94
4374.00,0.94
4373.00,0.94
4372.00,0.94
4371.00,0.94
4370.00,0.95
4369.00,0.95
4368.00,0.95
4367.00,0.95
4366.00,0.95
4365.00,0.95
4364.00,0.95
4363.00,0.95
4362.00,0.95
4361.00,0.95
4360.00,0.95
4359.00,0.95
4358.00,0.95
4357.00,0.95
4356.00,0.95
4355.00,0.95
4354.00,0.95
4353.00,0.95
4352.00,0.95
4351.00,0.95
4350.00,0.94
4349.00,0.94
4348.00,0.94
4347.00,0.94
4346.00,0.94
4345.00,0.94
4344.00,0.94
4343.00,0.94
4342.00,0.94
4341.00,0.94
4340.00,0.94
4339.00,0.95
4338.00,0.95
4337.00,0.95
4336.00,0.95
4335.00,0.95
4334.00,0.95
4333.00,0.95
4332.00,0.95
4331.00,0.95
4330.00,0.95
4329.00,0.95
4328.00,0.96
4327.00,0.96
4326.00,0.96
4325.00,0.96
4324.00,0.96
4323.00,0.96
4322.00,0.96
4321.00,0.96
4320.00,0.96
4319.00,0.97
4318.00,0.97
4317.00,0.97
4316.00,0.97
4315.00,0.97
4314.00,0.97
4313.00,0.97
4312.00,0.98
4311.00,0.98
4310.00,0.98
4309.00,0.98
4308.00,0.98
4307.00,0.98
4306.00,0.98
4305.00,0.99
4304.00,0.99
4303.00,0.99
4302.00,0.99
4301.00,0.99
4300.00,0.99
4299.00,0.99
4298.00,0.99
4297.00,0.99
4296.00,0.99
4295.00,0.99
4294.00,0.99
4293.00,0.99
4292.00,0.99
4291.00,0.99
4290.00,0.99
4289.00,0.99
4288.00,0.99
4287.00,0.99
4286.00,0.99
4285.00,0.99
4284.00,0.99
4283.00,0.99
4282.00,0.99
4281.00,1.00
4280.00,1.00
4279.00,1.00
4278.00,1.00
4277.00,1.00
4276.00,1.00
4275.00,1.00
4274.00,1.00
4273.00,1.00
4272.00,1.00
4271.00,1.00
4270.00,1.00
4269.00,1.00
4268.00,0.99
4267.00,0.99
4266.00,0.99
4265.00,0.99
4264.00,0.99
4263.00,0.99
4262.00,0.99
4261.00,0.99
4260.00,0.99
4259.00,0.99
4258.00,0.99
4257.00,0.99
4256.00,0.99
4255.00,0.99
4254.00,0.99
4253.00,1.00
4252.00,1.00
4251.00,1.00
4250.00,1.00
4249.00,1.00
4248.00,1.00
4247.00,1.00
4246.00,1.00
4245.00,1.01
4244.00,1.01
4243.00,1.01
4242.00,1.01
4241.00,1.01
4240.00,1.01
4239.00,1.01
4238.00,1.01
4237.00,1.01
4236.00,1.01
4235.00,1.01
4234.00,1.01
4233.00,1.02
4232.00,1.02
4231.00,1.02
4230.00,1.02
4229.00,1.02
4228.00,1.02
4227.00,1.02
4226.00,1.02
4225.00,1.02
4224.00,1.02
4223.00,1.02
4222.00,1.03
4221.00,1.03
4220.00,1.03
4219.00,1.03
4218.00,1.03
4217.00,1.03
4216.00,1.03
4215.00,1.03
4214.00,1.03
4213.00,1.03
4212.00,1.03
4211.00,1.03
4210.00,1.03
4209.00,1.03
4208.00,1.03
4207.00,1.03
4206.00,1.03
4205.00,1.03
4204.00,1.03
4203.00,1.03
4202.00,1.03
4201.00,1.03
4200.00,1.03
4199.00,1.03
4198.00,1.03
4197.00,1.03
4196.00,1.03
4195.00,1.04
4194.00,1.04
4193.00,1.04
4192.00,1.04
4191.00,1.04
4190.00,1.04
4189.00,1.04
4188.00,1.04
4187.00,1.05
4186.00,1.05
4185.00,1.05
4184.00,1.05
4183.00,1.05
4182.00,1.05
4181.00,1.05
4180.00,1.05
4179.00,1.05
4178.00,1.05
4177.00,1.05
4176.00,1.05
4175.00,1.05
4174.00,1.05
4173.00,1.05
4172.00,1.05
4171.00,1.05
4170.00,1.05
4169.00,1.05
4168.00,1.05
4167.00,1.05
4166.00,1.05
4165.00,1.05
4164.00,1.05
4163.00,1.05
4162.00,1.06
4161.00,1.06
4160.00,1.06
4159.00,1.06
4158.00,1.06
4157.00,1.06
4156.00,1.06
4155.00,1.06
4154.00,1.06
4153.00,1.05
4152.00,1.05
4151.00,1.05
4150.00,1.05
4149.00,1.05
4148.00,1.05
4147.00,1.05
4146.00,1.05
4145.00,1.05
4144.00,1.05
4143.00,1.05
4142.00,1.05
4141.00,1.05
4140.00,1.05
4139.00,1.05
4138.00,1.05
4137.00,1.05
4136.00,1.05
4135.00,1.05
4134.00,1.06
4133.00,1.06
4132.00,1.06
4131.00,1.06
4130.00,1.06
4129.00,1.06
4128.00,1.06
4127.00,1.07
4126.00,1.07
4125.00,1.07
4124.00,1.07
4123.00,1.07
4122.00,1.07
4121.00,1.08
4120.00,1.08
4119.00,1.08
4118.00,1.08
4117.00,1.08
4116.00,1.08
4115.00,1.08
4114.00,1.09
4113.00,1.09
4112.00,1.09
4111.00,1.09
4110.00,1.09
4109.00,1.09
4108.00,1.09
4107.00,1.09
4106.00,1.09
4105.00,1.09
4104.00,1.09
4103.00,1.08
4102.00,1.08
4101.00,1.08
4100.00,1.08
4099.00,1.08
4098.00,1.08
4097.00,1.08
4096.00,1.08
4095.00,1.08
4094.00,1.08
4093.00,1.08
4092.00,1.08
4091.00,1.08
4090.00,1.08
4089.00,1.08
4088.00,1.08
4087.00,1.08
4086.00,1.08
4085.00,1.08
4084.00,1.08
4083.00,1.08
4082.00,1.08
4081.00,1.08
4080.00,1.08
4079.00,1.08
4078.00,1.08
4077.00,1.09
4076.00,1.09
4075.00,1.09
4074.00,1.09
4073.00,1.09
4072.00,1.09
4071.00,1.09
4070.00,1.09
4069.00,1.09
4068.00,1.10
4067.00,1.10
4066.00,1.10
4065.00,1.10
4064.00,1.10
4063.00,1.10
4062.00,1.10
4061.00,1.11
4060.00,1.11
4059.00,1.11
4058.00,1.11
4057.00,1.11
4056.00,1.11
4055.00,1.11
4054.00,1.11
4053.00,1.11
4052.00,1.11
4051.00,1.11
4050.00,1.10
4049.00,1.10
4048.00,1.10
4047.00,1.10
4046.00,1.10
4045.00,1.10
4044.00,1.10
4043.00,1.11
4042.00,1.11
4041.00,1.11
4040.00,1.11
4039.00,1.11
4038.00,1.11
4037.00,1.11
4036.00,1.11
4035.00,1.11
4034.00,1.11
4033.00,1.11
4032.00,1.11
4031.00,1.11
4030.00,1.11
4029.00,1.12
4028.00,1.12
4027.00,1.12
4026.00,1.12
4025.00,1.12
4024.00,1.12
4023.00,1.12
4022.00,1.12
4021.00,1.12
4020.00,1.12
4019.00,1.12
4018.00,1.12
4017.00,1.12
4016.00,1.13
4015.00,1.13
4014.00,1.13
4013.00,1.13
4012.00,1.13
4011.00,1.13
4010.00,1.13
4009.00,1.13
4008.00,1.13
4007.00,1.13
4006.00,1.13
4005.00,1.13
4004.00,1.13
4003.00,1.13
4002.00,1.13
4001.00,1.13
4000.00,1.13
