创建为新数据集,样品 327 用户 Administrator 日期 星期四, 三月 08 2018
cm-1,%T
10000.00,1.51
9999.00,1.51
9998.00,1.50
9997.00,1.50
9996.00,1.50
9995.00,1.50
9994.00,1.50
9993.00,1.50
9992.00,1.50
9991.00,1.50
9990.00,1.49
9989.00,1.49
9988.00,1.49
9987.00,1.49
9986.00,1.49
9985.00,1.49
9984.00,1.49
9983.00,1.48
9982.00,1.48
9981.00,1.48
9980.00,1.48
9979.00,1.48
9978.00,1.48
9977.00,1.48
9976.00,1.48
9975.00,1.48
9974.00,1.48
9973.00,1.48
9972.00,1.48
9971.00,1.48
9970.00,1.48
9969.00,1.48
9968.00,1.48
9967.00,1.48
9966.00,1.48
9965.00,1.48
9964.00,1.48
9963.00,1.48
9962.00,1.48
9961.00,1.48
9960.00,1.48
9959.00,1.48
9958.00,1.48
9957.00,1.47
9956.00,1.47
9955.00,1.47
9954.00,1.47
9953.00,1.47
9952.00,1.47
9951.00,1.47
9950.00,1.47
9949.00,1.47
9948.00,1.47
9947.00,1.47
9946.00,1.47
9945.00,1.47
9944.00,1.47
9943.00,1.48
9942.00,1.48
9941.00,1.48
9940.00,1.48
9939.00,1.48
9938.00,1.48
9937.00,1.47
9936.00,1.47
9935.00,1.47
9934.00,1.47
9933.00,1.47
9932.00,1.47
9931.00,1.47
9930.00,1.47
9929.00,1.47
9928.00,1.47
9927.00,1.47
9926.00,1.47
9925.00,1.47
9924.00,1.47
9923.00,1.47
9922.00,1.47
9921.00,1.47
9920.00,1.47
9919.00,1.48
9918.00,1.48
9917.00,1.48
9916.00,1.48
9915.00,1.48
9914.00,1.49
9913.00,1.49
9912.00,1.49
9911.00,1.49
9910.00,1.49
9909.00,1.49
9908.00,1.50
9907.00,1.50
9906.00,1.50
9905.00,1.50
9904.00,1.50
9903.00,1.50
9902.00,1.50
9901.00,1.50
9900.00,1.50
9899.00,1.50
9898.00,1.50
9897.00,1.50
9896.00,1.50
9895.00,1.50
9894.00,1.50
9893.00,1.50
9892.00,1.50
9891.00,1.50
9890.00,1.50
9889.00,1.50
9888.00,1.50
9887.00,1.50
9886.00,1.50
9885.00,1.50
9884.00,1.49
9883.00,1.49
9882.00,1.49
9881.00,1.49
9880.00,1.49
9879.00,1.49
9878.00,1.49
9877.00,1.49
9876.00,1.49
9875.00,1.49
9874.00,1.49
9873.00,1.49
9872.00,1.49
9871.00,1.49
9870.00,1.49
9869.00,1.49
9868.00,1.49
9867.00,1.48
9866.00,1.48
9865.00,1.48
9864.00,1.48
9863.00,1.48
9862.00,1.48
9861.00,1.48
9860.00,1.48
9859.00,1.48
9858.00,1.47
9857.00,1.47
9856.00,1.47
9855.00,1.47
9854.00,1.47
9853.00,1.47
9852.00,1.46
9851.00,1.46
9850.00,1.46
9849.00,1.46
9848.00,1.46
9847.00,1.46
9846.00,1.46
9845.00,1.46
9844.00,1.46
9843.00,1.46
9842.00,1.46
9841.00,1.46
9840.00,1.46
9839.00,1.46
9838.00,1.47
9837.00,1.47
9836.00,1.47
9835.00,1.47
9834.00,1.47
9833.00,1.47
9832.00,1.47
9831.00,1.48
9830.00,1.48
9829.00,1.48
9828.00,1.48
9827.00,1.48
9826.00,1.49
9825.00,1.49
9824.00,1.49
9823.00,1.49
9822.00,1.49
9821.00,1.49
9820.00,1.49
9819.00,1.50
9818.00,1.50
9817.00,1.50
9816.00,1.50
9815.00,1.50
9814.00,1.50
9813.00,1.50
9812.00,1.50
9811.00,1.49
9810.00,1.49
9809.00,1.49
9808.00,1.49
9807.00,1.49
9806.00,1.49
9805.00,1.49
9804.00,1.49
9803.00,1.48
9802.00,1.48
9801.00,1.48
9800.00,1.48
9799.00,1.48
9798.00,1.48
9797.00,1.48
9796.00,1.48
9795.00,1.48
9794.00,1.48
9793.00,1.48
9792.00,1.49
9791.00,1.49
9790.00,1.49
9789.00,1.49
9788.00,1.49
9787.00,1.49
9786.00,1.49
9785.00,1.50
9784.00,1.50
9783.00,1.50
9782.00,1.50
9781.00,1.50
9780.00,1.50
9779.00,1.50
9778.00,1.50
9777.00,1.50
9776.00,1.50
9775.00,1.50
9774.00,1.49
9773.00,1.49
9772.00,1.49
9771.00,1.49
9770.00,1.49
9769.00,1.48
9768.00,1.48
9767.00,1.48
9766.00,1.48
9765.00,1.48
9764.00,1.47
9763.00,1.47
9762.00,1.47
9761.00,1.47
9760.00,1.47
9759.00,1.47
9758.00,1.47
9757.00,1.47
9756.00,1.47
9755.00,1.47
9754.00,1.48
9753.00,1.48
9752.00,1.48
9751.00,1.48
9750.00,1.48
9749.00,1.48
9748.00,1.48
9747.00,1.48
9746.00,1.49
9745.00,1.49
9744.00,1.49
9743.00,1.49
9742.00,1.49
9741.00,1.48
9740.00,1.48
9739.00,1.48
9738.00,1.48
9737.00,1.48
9736.00,1.48
9735.00,1.48
9734.00,1.47
9733.00,1.47
9732.00,1.47
9731.00,1.47
9730.00,1.46
9729.00,1.46
9728.00,1.46
9727.00,1.46
9726.00,1.46
9725.00,1.45
9724.00,1.45
9723.00,1.45
9722.00,1.45
9721.00,1.45
9720.00,1.45
9719.00,1.45
9718.00,1.45
9717.00,1.45
9716.00,1.45
9715.00,1.46
9714.00,1.46
9713.00,1.46
9712.00,1.46
9711.00,1.47
9710.00,1.47
9709.00,1.47
9708.00,1.48
9707.00,1.48
9706.00,1.49
9705.00,1.49
9704.00,1.49
9703.00,1.50
9702.00,1.50
9701.00,1.50
9700.00,1.50
9699.00,1.50
9698.00,1.50
9697.00,1.50
9696.00,1.50
9695.00,1.50
9694.00,1.50
9693.00,1.50
9692.00,1.50
9691.00,1.49
9690.00,1.49
9689.00,1.49
9688.00,1.49
9687.00,1.49
9686.00,1.49
9685.00,1.48
9684.00,1.48
9683.00,1.48
9682.00,1.48
9681.00,1.48
9680.00,1.48
9679.00,1.48
9678.00,1.48
9677.00,1.48
9676.00,1.48
9675.00,1.48
9674.00,1.48
9673.00,1.48
9672.00,1.48
9671.00,1.48
9670.00,1.48
9669.00,1.48
9668.00,1.48
9667.00,1.48
9666.00,1.47
9665.00,1.47
9664.00,1.47
9663.00,1.47
9662.00,1.47
9661.00,1.47
9660.00,1.47
9659.00,1.47
9658.00,1.46
9657.00,1.46
9656.00,1.46
9655.00,1.46
9654.00,1.46
9653.00,1.46
9652.00,1.46
9651.00,1.45
9650.00,1.45
9649.00,1.45
9648.00,1.45
9647.00,1.45
9646.00,1.45
9645.00,1.45
9644.00,1.45
9643.00,1.45
9642.00,1.45
9641.00,1.45
9640.00,1.45
9639.00,1.45
9638.00,1.45
9637.00,1.46
9636.00,1.46
9635.00,1.46
9634.00,1.46
9633.00,1.47
9632.00,1.47
9631.00,1.47
9630.00,1.47
9629.00,1.48
9628.00,1.48
9627.00,1.48
9626.00,1.48
9625.00,1.49
9624.00,1.49
9623.00,1.49
9622.00,1.49
9621.00,1.49
9620.00,1.50
9619.00,1.50
9618.00,1.50
9617.00,1.50
9616.00,1.50
9615.00,1.50
9614.00,1.50
9613.00,1.50
9612.00,1.50
9611.00,1.50
9610.00,1.50
9609.00,1.50
9608.00,1.50
9607.00,1.50
9606.00,1.50
9605.00,1.49
9604.00,1.49
9603.00,1.49
9602.00,1.49
9601.00,1.49
9600.00,1.49
9599.00,1.49
9598.00,1.48
9597.00,1.48
9596.00,1.48
9595.00,1.48
9594.00,1.48
9593.00,1.48
9592.00,1.47
9591.00,1.47
9590.00,1.47
9589.00,1.47
9588.00,1.47
9587.00,1.47
9586.00,1.47
9585.00,1.47
9584.00,1.47
9583.00,1.47
9582.00,1.47
9581.00,1.47
9580.00,1.47
9579.00,1.47
9578.00,1.47
9577.00,1.47
9576.00,1.47
9575.00,1.47
9574.00,1.47
9573.00,1.47
9572.00,1.47
9571.00,1.48
9570.00,1.48
9569.00,1.48
9568.00,1.48
9567.00,1.48
9566.00,1.48
9565.00,1.48
9564.00,1.48
9563.00,1.48
9562.00,1.48
9561.00,1.48
9560.00,1.48
9559.00,1.48
9558.00,1.48
9557.00,1.48
9556.00,1.47
9555.00,1.47
9554.00,1.47
9553.00,1.47
9552.00,1.47
9551.00,1.46
9550.00,1.46
9549.00,1.46
9548.00,1.46
9547.00,1.46
9546.00,1.46
9545.00,1.46
9544.00,1.46
9543.00,1.46
9542.00,1.46
9541.00,1.47
9540.00,1.47
9539.00,1.47
9538.00,1.48
9537.00,1.48
9536.00,1.48
9535.00,1.48
9534.00,1.49
9533.00,1.49
9532.00,1.49
9531.00,1.49
9530.00,1.50
9529.00,1.50
9528.00,1.50
9527.00,1.50
9526.00,1.50
9525.00,1.50
9524.00,1.50
9523.00,1.49
9522.00,1.49
9521.00,1.49
9520.00,1.49
9519.00,1.49
9518.00,1.49
9517.00,1.48
9516.00,1.48
9515.00,1.48
9514.00,1.48
9513.00,1.48
9512.00,1.48
9511.00,1.47
9510.00,1.47
9509.00,1.47
9508.00,1.47
9507.00,1.47
9506.00,1.47
9505.00,1.47
9504.00,1.47
9503.00,1.47
9502.00,1.47
9501.00,1.47
9500.00,1.47
9499.00,1.48
9498.00,1.48
9497.00,1.48
9496.00,1.48
9495.00,1.48
9494.00,1.48
9493.00,1.48
9492.00,1.48
9491.00,1.48
9490.00,1.48
9489.00,1.48
9488.00,1.48
9487.00,1.48
9486.00,1.49
9485.00,1.49
9484.00,1.49
9483.00,1.49
9482.00,1.49
9481.00,1.49
9480.00,1.49
9479.00,1.49
9478.00,1.49
9477.00,1.49
9476.00,1.49
9475.00,1.48
9474.00,1.48
9473.00,1.48
9472.00,1.48
9471.00,1.48
9470.00,1.48
9469.00,1.48
9468.00,1.48
9467.00,1.48
9466.00,1.47
9465.00,1.47
9464.00,1.47
9463.00,1.47
9462.00,1.47
9461.00,1.47
9460.00,1.47
9459.00,1.47
9458.00,1.47
9457.00,1.47
9456.00,1.47
9455.00,1.47
9454.00,1.47
9453.00,1.47
9452.00,1.47
9451.00,1.47
9450.00,1.47
9449.00,1.47
9448.00,1.47
9447.00,1.47
9446.00,1.47
9445.00,1.47
9444.00,1.47
9443.00,1.47
9442.00,1.47
9441.00,1.47
9440.00,1.47
9439.00,1.47
9438.00,1.47
9437.00,1.47
9436.00,1.48
9435.00,1.48
9434.00,1.48
9433.00,1.48
9432.00,1.48
9431.00,1.49
9430.00,1.49
9429.00,1.49
9428.00,1.49
9427.00,1.49
9426.00,1.49
9425.00,1.49
9424.00,1.49
9423.00,1.49
9422.00,1.49
9421.00,1.49
9420.00,1.49
9419.00,1.49
9418.00,1.49
9417.00,1.49
9416.00,1.49
9415.00,1.49
9414.00,1.49
9413.00,1.49
9412.00,1.49
9411.00,1.49
9410.00,1.48
9409.00,1.48
9408.00,1.48
9407.00,1.48
9406.00,1.48
9405.00,1.48
9404.00,1.48
9403.00,1.48
9402.00,1.48
9401.00,1.47
9400.00,1.47
9399.00,1.47
9398.00,1.47
9397.00,1.47
9396.00,1.46
9395.00,1.46
9394.00,1.46
9393.00,1.46
9392.00,1.46
9391.00,1.45
9390.00,1.45
9389.00,1.45
9388.00,1.45
9387.00,1.45
9386.00,1.45
9385.00,1.45
9384.00,1.46
9383.00,1.46
9382.00,1.46
9381.00,1.46
9380.00,1.47
9379.00,1.47
9378.00,1.47
9377.00,1.47
9376.00,1.48
9375.00,1.48
9374.00,1.48
9373.00,1.48
9372.00,1.49
9371.00,1.49
9370.00,1.49
9369.00,1.49
9368.00,1.49
9367.00,1.49
9366.00,1.49
9365.00,1.49
9364.00,1.49
9363.00,1.49
9362.00,1.49
9361.00,1.48
9360.00,1.48
9359.00,1.48
9358.00,1.48
9357.00,1.48
9356.00,1.48
9355.00,1.48
9354.00,1.48
9353.00,1.48
9352.00,1.48
9351.00,1.48
9350.00,1.48
9349.00,1.48
9348.00,1.48
9347.00,1.48
9346.00,1.48
9345.00,1.48
9344.00,1.48
9343.00,1.48
9342.00,1.48
9341.00,1.48
9340.00,1.48
9339.00,1.48
9338.00,1.48
9337.00,1.48
9336.00,1.48
9335.00,1.48
9334.00,1.48
9333.00,1.48
9332.00,1.48
9331.00,1.49
9330.00,1.49
9329.00,1.49
9328.00,1.49
9327.00,1.49
9326.00,1.49
9325.00,1.49
9324.00,1.49
9323.00,1.49
9322.00,1.49
9321.00,1.49
9320.00,1.49
9319.00,1.49
9318.00,1.49
9317.00,1.49
9316.00,1.49
9315.00,1.49
9314.00,1.49
9313.00,1.49
9312.00,1.49
9311.00,1.49
9310.00,1.48
9309.00,1.48
9308.00,1.48
9307.00,1.48
9306.00,1.47
9305.00,1.47
9304.00,1.47
9303.00,1.47
9302.00,1.47
9301.00,1.46
9300.00,1.46
9299.00,1.46
9298.00,1.46
9297.00,1.46
9296.00,1.46
9295.00,1.46
9294.00,1.46
9293.00,1.46
9292.00,1.46
9291.00,1.46
9290.00,1.46
9289.00,1.46
9288.00,1.46
9287.00,1.46
9286.00,1.46
9285.00,1.47
9284.00,1.47
9283.00,1.47
9282.00,1.47
9281.00,1.47
9280.00,1.47
9279.00,1.47
9278.00,1.47
9277.00,1.47
9276.00,1.47
9275.00,1.47
9274.00,1.47
9273.00,1.47
9272.00,1.47
9271.00,1.47
9270.00,1.48
9269.00,1.48
9268.00,1.48
9267.00,1.48
9266.00,1.48
9265.00,1.47
9264.00,1.47
9263.00,1.47
9262.00,1.47
9261.00,1.47
9260.00,1.47
9259.00,1.47
9258.00,1.47
9257.00,1.47
9256.00,1.46
9255.00,1.46
9254.00,1.46
9253.00,1.46
9252.00,1.46
9251.00,1.46
9250.00,1.46
9249.00,1.46
9248.00,1.46
9247.00,1.46
9246.00,1.46
9245.00,1.46
9244.00,1.46
9243.00,1.46
9242.00,1.46
9241.00,1.46
9240.00,1.46
9239.00,1.46
9238.00,1.46
9237.00,1.46
9236.00,1.46
9235.00,1.46
9234.00,1.46
9233.00,1.46
9232.00,1.46
9231.00,1.46
9230.00,1.46
9229.00,1.46
9228.00,1.46
9227.00,1.46
9226.00,1.47
9225.00,1.47
9224.00,1.47
9223.00,1.47
9222.00,1.47
9221.00,1.47
9220.00,1.47
9219.00,1.47
9218.00,1.48
9217.00,1.48
9216.00,1.48
9215.00,1.48
9214.00,1.49
9213.00,1.49
9212.00,1.49
9211.00,1.49
9210.00,1.50
9209.00,1.50
9208.00,1.50
9207.00,1.50
9206.00,1.50
9205.00,1.50
9204.00,1.50
9203.00,1.50
9202.00,1.50
9201.00,1.50
9200.00,1.50
9199.00,1.50
9198.00,1.50
9197.00,1.50
9196.00,1.49
9195.00,1.49
9194.00,1.49
9193.00,1.49
9192.00,1.49
9191.00,1.49
9190.00,1.49
9189.00,1.48
9188.00,1.48
9187.00,1.48
9186.00,1.48
9185.00,1.48
9184.00,1.48
9183.00,1.48
9182.00,1.48
9181.00,1.48
9180.00,1.48
9179.00,1.48
9178.00,1.48
9177.00,1.48
9176.00,1.48
9175.00,1.48
9174.00,1.48
9173.00,1.48
9172.00,1.48
9171.00,1.48
9170.00,1.48
9169.00,1.48
9168.00,1.48
9167.00,1.48
9166.00,1.48
9165.00,1.48
9164.00,1.48
9163.00,1.48
9162.00,1.48
9161.00,1.48
9160.00,1.48
9159.00,1.48
9158.00,1.48
9157.00,1.48
9156.00,1.48
9155.00,1.48
9154.00,1.48
9153.00,1.48
9152.00,1.48
9151.00,1.48
9150.00,1.48
9149.00,1.47
9148.00,1.47
9147.00,1.47
9146.00,1.47
9145.00,1.47
9144.00,1.47
9143.00,1.47
9142.00,1.47
9141.00,1.47
9140.00,1.47
9139.00,1.47
9138.00,1.47
9137.00,1.47
9136.00,1.47
9135.00,1.47
9134.00,1.47
9133.00,1.47
9132.00,1.47
9131.00,1.48
9130.00,1.48
9129.00,1.48
9128.00,1.48
9127.00,1.48
9126.00,1.49
9125.00,1.49
9124.00,1.49
9123.00,1.49
9122.00,1.49
9121.00,1.49
9120.00,1.49
9119.00,1.49
9118.00,1.49
9117.00,1.49
9116.00,1.49
9115.00,1.49
9114.00,1.49
9113.00,1.49
9112.00,1.48
9111.00,1.48
9110.00,1.48
9109.00,1.48
9108.00,1.48
9107.00,1.48
9106.00,1.48
9105.00,1.48
9104.00,1.48
9103.00,1.48
9102.00,1.49
9101.00,1.49
9100.00,1.49
9099.00,1.49
9098.00,1.49
9097.00,1.49
9096.00,1.49
9095.00,1.49
9094.00,1.49
9093.00,1.49
9092.00,1.49
9091.00,1.49
9090.00,1.49
9089.00,1.49
9088.00,1.49
9087.00,1.49
9086.00,1.49
9085.00,1.49
9084.00,1.49
9083.00,1.49
9082.00,1.49
9081.00,1.49
9080.00,1.49
9079.00,1.49
9078.00,1.49
9077.00,1.49
9076.00,1.49
9075.00,1.49
9074.00,1.49
9073.00,1.49
9072.00,1.49
9071.00,1.49
9070.00,1.49
9069.00,1.50
9068.00,1.50
9067.00,1.50
9066.00,1.50
9065.00,1.50
9064.00,1.50
9063.00,1.50
9062.00,1.50
9061.00,1.50
9060.00,1.50
9059.00,1.50
9058.00,1.50
9057.00,1.50
9056.00,1.50
9055.00,1.50
9054.00,1.50
9053.00,1.50
9052.00,1.50
9051.00,1.49
9050.00,1.49
9049.00,1.49
9048.00,1.49
9047.00,1.49
9046.00,1.48
9045.00,1.48
9044.00,1.48
9043.00,1.48
9042.00,1.48
9041.00,1.48
9040.00,1.48
9039.00,1.47
9038.00,1.47
9037.00,1.47
9036.00,1.47
9035.00,1.47
9034.00,1.47
9033.00,1.47
9032.00,1.47
9031.00,1.47
9030.00,1.47
9029.00,1.47
9028.00,1.47
9027.00,1.47
9026.00,1.47
9025.00,1.47
9024.00,1.47
9023.00,1.47
9022.00,1.48
9021.00,1.48
9020.00,1.48
9019.00,1.48
9018.00,1.48
9017.00,1.48
9016.00,1.48
9015.00,1.48
9014.00,1.48
9013.00,1.48
9012.00,1.48
9011.00,1.48
9010.00,1.48
9009.00,1.48
9008.00,1.48
9007.00,1.48
9006.00,1.48
9005.00,1.48
9004.00,1.48
9003.00,1.48
9002.00,1.48
9001.00,1.48
9000.00,1.47
8999.00,1.47
8998.00,1.47
8997.00,1.47
8996.00,1.47
8995.00,1.47
8994.00,1.47
8993.00,1.47
8992.00,1.47
8991.00,1.47
8990.00,1.47
8989.00,1.47
8988.00,1.47
8987.00,1.47
8986.00,1.47
8985.00,1.47
8984.00,1.47
8983.00,1.47
8982.00,1.47
8981.00,1.47
8980.00,1.47
8979.00,1.47
8978.00,1.47
8977.00,1.48
8976.00,1.48
8975.00,1.48
8974.00,1.48
8973.00,1.48
8972.00,1.48
8971.00,1.48
8970.00,1.48
8969.00,1.49
8968.00,1.49
8967.00,1.49
8966.00,1.49
8965.00,1.49
8964.00,1.50
8963.00,1.50
8962.00,1.50
8961.00,1.50
8960.00,1.50
8959.00,1.50
8958.00,1.50
8957.00,1.50
8956.00,1.50
8955.00,1.50
8954.00,1.50
8953.00,1.50
8952.00,1.50
8951.00,1.50
8950.00,1.50
8949.00,1.49
8948.00,1.49
8947.00,1.49
8946.00,1.49
8945.00,1.49
8944.00,1.49
8943.00,1.49
8942.00,1.49
8941.00,1.49
8940.00,1.49
8939.00,1.49
8938.00,1.49
8937.00,1.49
8936.00,1.49
8935.00,1.49
8934.00,1.49
8933.00,1.49
8932.00,1.49
8931.00,1.49
8930.00,1.49
8929.00,1.49
8928.00,1.49
8927.00,1.49
8926.00,1.49
8925.00,1.49
8924.00,1.49
8923.00,1.49
8922.00,1.49
8921.00,1.49
8920.00,1.49
8919.00,1.49
8918.00,1.49
8917.00,1.49
8916.00,1.49
8915.00,1.49
8914.00,1.49
8913.00,1.49
8912.00,1.49
8911.00,1.49
8910.00,1.49
8909.00,1.49
8908.00,1.49
8907.00,1.49
8906.00,1.49
8905.00,1.49
8904.00,1.49
8903.00,1.49
8902.00,1.49
8901.00,1.49
8900.00,1.48
8899.00,1.48
8898.00,1.48
8897.00,1.48
8896.00,1.48
8895.00,1.48
8894.00,1.48
8893.00,1.48
8892.00,1.48
8891.00,1.48
8890.00,1.48
8889.00,1.48
8888.00,1.48
8887.00,1.48
8886.00,1.48
8885.00,1.48
8884.00,1.48
8883.00,1.48
8882.00,1.48
8881.00,1.48
8880.00,1.49
8879.00,1.49
8878.00,1.49
8877.00,1.49
8876.00,1.49
8875.00,1.49
8874.00,1.49
8873.00,1.49
8872.00,1.49
8871.00,1.49
8870.00,1.49
8869.00,1.48
8868.00,1.48
8867.00,1.48
8866.00,1.48
8865.00,1.48
8864.00,1.48
8863.00,1.48
8862.00,1.48
8861.00,1.48
8860.00,1.48
8859.00,1.48
8858.00,1.47
8857.00,1.47
8856.00,1.47
8855.00,1.47
8854.00,1.47
8853.00,1.48
8852.00,1.48
8851.00,1.48
8850.00,1.48
8849.00,1.48
8848.00,1.48
8847.00,1.48
8846.00,1.49
8845.00,1.49
8844.00,1.49
8843.00,1.49
8842.00,1.49
8841.00,1.50
8840.00,1.50
8839.00,1.50
8838.00,1.50
8837.00,1.50
8836.00,1.50
8835.00,1.50
8834.00,1.50
8833.00,1.50
8832.00,1.50
8831.00,1.50
8830.00,1.50
8829.00,1.50
8828.00,1.50
8827.00,1.49
8826.00,1.49
8825.00,1.49
8824.00,1.49
8823.00,1.49
8822.00,1.49
8821.00,1.49
8820.00,1.49
8819.00,1.48
8818.00,1.48
8817.00,1.48
8816.00,1.48
8815.00,1.48
8814.00,1.48
8813.00,1.48
8812.00,1.48
8811.00,1.47
8810.00,1.47
8809.00,1.47
8808.00,1.47
8807.00,1.47
8806.00,1.47
8805.00,1.47
8804.00,1.47
8803.00,1.47
8802.00,1.47
8801.00,1.47
8800.00,1.47
8799.00,1.47
8798.00,1.47
8797.00,1.47
8796.00,1.46
8795.00,1.46
8794.00,1.46
8793.00,1.46
8792.00,1.46
8791.00,1.46
8790.00,1.46
8789.00,1.46
8788.00,1.46
8787.00,1.46
8786.00,1.46
8785.00,1.46
8784.00,1.46
8783.00,1.46
8782.00,1.46
8781.00,1.46
8780.00,1.46
8779.00,1.46
8778.00,1.46
8777.00,1.46
8776.00,1.46
8775.00,1.46
8774.00,1.46
8773.00,1.46
8772.00,1.46
8771.00,1.46
8770.00,1.46
8769.00,1.46
8768.00,1.46
8767.00,1.46
8766.00,1.46
8765.00,1.46
8764.00,1.46
8763.00,1.46
8762.00,1.46
8761.00,1.46
8760.00,1.46
8759.00,1.46
8758.00,1.46
8757.00,1.46
8756.00,1.45
8755.00,1.45
8754.00,1.45
8753.00,1.45
8752.00,1.45
8751.00,1.45
8750.00,1.45
8749.00,1.45
8748.00,1.45
8747.00,1.45
8746.00,1.44
8745.00,1.44
8744.00,1.44
8743.00,1.44
8742.00,1.44
8741.00,1.44
8740.00,1.44
8739.00,1.44
8738.00,1.44
8737.00,1.43
8736.00,1.43
8735.00,1.43
8734.00,1.43
8733.00,1.43
8732.00,1.43
8731.00,1.43
8730.00,1.43
8729.00,1.43
8728.00,1.43
8727.00,1.43
8726.00,1.43
8725.00,1.43
8724.00,1.43
8723.00,1.43
8722.00,1.43
8721.00,1.43
8720.00,1.43
8719.00,1.43
8718.00,1.43
8717.00,1.43
8716.00,1.43
8715.00,1.43
8714.00,1.43
8713.00,1.44
8712.00,1.44
8711.00,1.44
8710.00,1.44
8709.00,1.44
8708.00,1.44
8707.00,1.44
8706.00,1.44
8705.00,1.44
8704.00,1.44
8703.00,1.45
8702.00,1.45
8701.00,1.45
8700.00,1.45
8699.00,1.45
8698.00,1.45
8697.00,1.45
8696.00,1.45
8695.00,1.45
8694.00,1.45
8693.00,1.45
8692.00,1.45
8691.00,1.45
8690.00,1.45
8689.00,1.45
8688.00,1.45
8687.00,1.45
8686.00,1.45
8685.00,1.46
8684.00,1.46
8683.00,1.46
8682.00,1.46
8681.00,1.46
8680.00,1.46
8679.00,1.46
8678.00,1.45
8677.00,1.45
8676.00,1.45
8675.00,1.45
8674.00,1.45
8673.00,1.45
8672.00,1.45
8671.00,1.45
8670.00,1.45
8669.00,1.45
8668.00,1.44
8667.00,1.44
8666.00,1.44
8665.00,1.44
8664.00,1.44
8663.00,1.44
8662.00,1.44
8661.00,1.44
8660.00,1.44
8659.00,1.44
8658.00,1.44
8657.00,1.44
8656.00,1.44
8655.00,1.44
8654.00,1.44
8653.00,1.44
8652.00,1.44
8651.00,1.44
8650.00,1.44
8649.00,1.44
8648.00,1.44
8647.00,1.44
8646.00,1.44
8645.00,1.44
8644.00,1.44
8643.00,1.44
8642.00,1.44
8641.00,1.44
8640.00,1.43
8639.00,1.43
8638.00,1.43
8637.00,1.43
8636.00,1.43
8635.00,1.43
8634.00,1.43
8633.00,1.43
8632.00,1.42
8631.00,1.42
8630.00,1.42
8629.00,1.42
8628.00,1.42
8627.00,1.42
8626.00,1.42
8625.00,1.42
8624.00,1.42
8623.00,1.42
8622.00,1.42
8621.00,1.42
8620.00,1.42
8619.00,1.42
8618.00,1.42
8617.00,1.42
8616.00,1.42
8615.00,1.43
8614.00,1.43
8613.00,1.43
8612.00,1.43
8611.00,1.44
8610.00,1.44
8609.00,1.44
8608.00,1.44
8607.00,1.44
8606.00,1.44
8605.00,1.44
8604.00,1.44
8603.00,1.44
8602.00,1.44
8601.00,1.44
8600.00,1.44
8599.00,1.43
8598.00,1.43
8597.00,1.43
8596.00,1.43
8595.00,1.42
8594.00,1.42
8593.00,1.42
8592.00,1.42
8591.00,1.41
8590.00,1.41
8589.00,1.41
8588.00,1.41
8587.00,1.41
8586.00,1.41
8585.00,1.41
8584.00,1.41
8583.00,1.41
8582.00,1.41
8581.00,1.41
8580.00,1.41
8579.00,1.41
8578.00,1.41
8577.00,1.41
8576.00,1.41
8575.00,1.41
8574.00,1.40
8573.00,1.40
8572.00,1.40
8571.00,1.40
8570.00,1.40
8569.00,1.40
8568.00,1.40
8567.00,1.40
8566.00,1.40
8565.00,1.40
8564.00,1.40
8563.00,1.40
8562.00,1.40
8561.00,1.40
8560.00,1.40
8559.00,1.41
8558.00,1.41
8557.00,1.41
8556.00,1.41
8555.00,1.41
8554.00,1.41
8553.00,1.41
8552.00,1.41
8551.00,1.41
8550.00,1.41
8549.00,1.41
8548.00,1.41
8547.00,1.41
8546.00,1.41
8545.00,1.41
8544.00,1.41
8543.00,1.41
8542.00,1.40
8541.00,1.40
8540.00,1.40
8539.00,1.40
8538.00,1.40
8537.00,1.40
8536.00,1.39
8535.00,1.39
8534.00,1.39
8533.00,1.39
8532.00,1.39
8531.00,1.39
8530.00,1.39
8529.00,1.39
8528.00,1.39
8527.00,1.39
8526.00,1.38
8525.00,1.38
8524.00,1.38
8523.00,1.38
8522.00,1.38
8521.00,1.38
8520.00,1.38
8519.00,1.38
8518.00,1.38
8517.00,1.38
8516.00,1.38
8515.00,1.38
8514.00,1.38
8513.00,1.38
8512.00,1.38
8511.00,1.38
8510.00,1.38
8509.00,1.38
8508.00,1.38
8507.00,1.39
8506.00,1.39
8505.00,1.39
8504.00,1.39
8503.00,1.39
8502.00,1.39
8501.00,1.39
8500.00,1.39
8499.00,1.39
8498.00,1.39
8497.00,1.39
8496.00,1.39
8495.00,1.39
8494.00,1.39
8493.00,1.39
8492.00,1.39
8491.00,1.39
8490.00,1.39
8489.00,1.38
8488.00,1.38
8487.00,1.38
8486.00,1.38
8485.00,1.38
8484.00,1.38
8483.00,1.38
8482.00,1.38
8481.00,1.38
8480.00,1.37
8479.00,1.37
8478.00,1.37
8477.00,1.37
8476.00,1.37
8475.00,1.37
8474.00,1.37
8473.00,1.37
8472.00,1.37
8471.00,1.37
8470.00,1.37
8469.00,1.37
8468.00,1.37
8467.00,1.37
8466.00,1.37
8465.00,1.37
8464.00,1.37
8463.00,1.37
8462.00,1.37
8461.00,1.36
8460.00,1.36
8459.00,1.36
8458.00,1.36
8457.00,1.36
8456.00,1.36
8455.00,1.36
8454.00,1.36
8453.00,1.36
8452.00,1.36
8451.00,1.35
8450.00,1.35
8449.00,1.35
8448.00,1.35
8447.00,1.35
8446.00,1.35
8445.00,1.35
8444.00,1.35
8443.00,1.35
8442.00,1.35
8441.00,1.35
8440.00,1.35
8439.00,1.35
8438.00,1.35
8437.00,1.35
8436.00,1.35
8435.00,1.35
8434.00,1.35
8433.00,1.35
8432.00,1.35
8431.00,1.35
8430.00,1.35
8429.00,1.35
8428.00,1.35
8427.00,1.35
8426.00,1.36
8425.00,1.36
8424.00,1.36
8423.00,1.36
8422.00,1.36
8421.00,1.36
8420.00,1.36
8419.00,1.36
8418.00,1.36
8417.00,1.36
8416.00,1.36
8415.00,1.36
8414.00,1.36
8413.00,1.36
8412.00,1.36
8411.00,1.36
8410.00,1.36
8409.00,1.36
8408.00,1.36
8407.00,1.37
8406.00,1.37
8405.00,1.37
8404.00,1.37
8403.00,1.37
8402.00,1.37
8401.00,1.37
8400.00,1.37
8399.00,1.37
8398.00,1.37
8397.00,1.38
8396.00,1.38
8395.00,1.38
8394.00,1.38
8393.00,1.38
8392.00,1.38
8391.00,1.38
8390.00,1.38
8389.00,1.38
8388.00,1.38
8387.00,1.38
8386.00,1.38
8385.00,1.39
8384.00,1.39
8383.00,1.39
8382.00,1.39
8381.00,1.39
8380.00,1.39
8379.00,1.39
8378.00,1.39
8377.00,1.39
8376.00,1.39
8375.00,1.39
8374.00,1.39
8373.00,1.39
8372.00,1.39
8371.00,1.38
8370.00,1.38
8369.00,1.38
8368.00,1.38
8367.00,1.38
8366.00,1.38
8365.00,1.38
8364.00,1.38
8363.00,1.38
8362.00,1.38
8361.00,1.38
8360.00,1.38
8359.00,1.38
8358.00,1.38
8357.00,1.38
8356.00,1.38
8355.00,1.38
8354.00,1.39
8353.00,1.39
8352.00,1.39
8351.00,1.39
8350.00,1.39
8349.00,1.39
8348.00,1.39
8347.00,1.39
8346.00,1.39
8345.00,1.39
8344.00,1.39
8343.00,1.39
8342.00,1.39
8341.00,1.39
8340.00,1.39
8339.00,1.39
8338.00,1.39
8337.00,1.39
8336.00,1.39
8335.00,1.39
8334.00,1.39
8333.00,1.39
8332.00,1.39
8331.00,1.39
8330.00,1.39
8329.00,1.39
8328.00,1.39
8327.00,1.39
8326.00,1.39
8325.00,1.39
8324.00,1.39
8323.00,1.39
8322.00,1.39
8321.00,1.39
8320.00,1.39
8319.00,1.39
8318.00,1.39
8317.00,1.39
8316.00,1.39
8315.00,1.39
8314.00,1.40
8313.00,1.40
8312.00,1.40
8311.00,1.40
8310.00,1.40
8309.00,1.40
8308.00,1.40
8307.00,1.40
8306.00,1.40
8305.00,1.40
8304.00,1.40
8303.00,1.40
8302.00,1.40
8301.00,1.40
8300.00,1.40
8299.00,1.40
8298.00,1.40
8297.00,1.40
8296.00,1.40
8295.00,1.39
8294.00,1.39
8293.00,1.39
8292.00,1.39
8291.00,1.39
8290.00,1.39
8289.00,1.39
8288.00,1.39
8287.00,1.39
8286.00,1.39
8285.00,1.39
8284.00,1.39
8283.00,1.40
8282.00,1.40
8281.00,1.40
8280.00,1.40
8279.00,1.40
8278.00,1.40
8277.00,1.40
8276.00,1.40
8275.00,1.40
8274.00,1.40
8273.00,1.40
8272.00,1.41
8271.00,1.41
8270.00,1.41
8269.00,1.41
8268.00,1.41
8267.00,1.41
8266.00,1.42
8265.00,1.42
8264.00,1.42
8263.00,1.42
8262.00,1.42
8261.00,1.42
8260.00,1.42
8259.00,1.42
8258.00,1.42
8257.00,1.42
8256.00,1.42
8255.00,1.41
8254.00,1.41
8253.00,1.41
8252.00,1.41
8251.00,1.41
8250.00,1.41
8249.00,1.41
8248.00,1.41
8247.00,1.41
8246.00,1.41
8245.00,1.41
8244.00,1.41
8243.00,1.41
8242.00,1.41
8241.00,1.41
8240.00,1.41
8239.00,1.41
8238.00,1.41
8237.00,1.41
8236.00,1.41
8235.00,1.41
8234.00,1.41
8233.00,1.41
8232.00,1.41
8231.00,1.41
8230.00,1.41
8229.00,1.41
8228.00,1.41
8227.00,1.41
8226.00,1.41
8225.00,1.41
8224.00,1.41
8223.00,1.41
8222.00,1.41
8221.00,1.40
8220.00,1.40
8219.00,1.40
8218.00,1.40
8217.00,1.40
8216.00,1.41
8215.00,1.41
8214.00,1.41
8213.00,1.41
8212.00,1.41
8211.00,1.41
8210.00,1.41
8209.00,1.41
8208.00,1.41
8207.00,1.42
8206.00,1.42
8205.00,1.42
8204.00,1.42
8203.00,1.42
8202.00,1.42
8201.00,1.42
8200.00,1.43
8199.00,1.43
8198.00,1.43
8197.00,1.43
8196.00,1.43
8195.00,1.43
8194.00,1.43
8193.00,1.43
8192.00,1.43
8191.00,1.43
8190.00,1.43
8189.00,1.43
8188.00,1.43
8187.00,1.43
8186.00,1.43
8185.00,1.43
8184.00,1.43
8183.00,1.43
8182.00,1.43
8181.00,1.42
8180.00,1.42
8179.00,1.42
8178.00,1.42
8177.00,1.42
8176.00,1.42
8175.00,1.42
8174.00,1.42
8173.00,1.42
8172.00,1.42
8171.00,1.42
8170.00,1.42
8169.00,1.42
8168.00,1.42
8167.00,1.43
8166.00,1.43
8165.00,1.43
8164.00,1.43
8163.00,1.43
8162.00,1.44
8161.00,1.44
8160.00,1.44
8159.00,1.44
8158.00,1.44
8157.00,1.44
8156.00,1.44
8155.00,1.44
8154.00,1.44
8153.00,1.44
8152.00,1.44
8151.00,1.44
8150.00,1.44
8149.00,1.44
8148.00,1.44
8147.00,1.44
8146.00,1.44
8145.00,1.44
8144.00,1.44
8143.00,1.44
8142.00,1.44
8141.00,1.44
8140.00,1.44
8139.00,1.44
8138.00,1.44
8137.00,1.44
8136.00,1.43
8135.00,1.43
8134.00,1.43
8133.00,1.43
8132.00,1.43
8131.00,1.43
8130.00,1.43
8129.00,1.43
8128.00,1.43
8127.00,1.43
8126.00,1.43
8125.00,1.43
8124.00,1.43
8123.00,1.43
8122.00,1.43
8121.00,1.43
8120.00,1.43
8119.00,1.43
8118.00,1.43
8117.00,1.43
8116.00,1.43
8115.00,1.43
8114.00,1.43
8113.00,1.43
8112.00,1.44
8111.00,1.44
8110.00,1.44
8109.00,1.44
8108.00,1.44
8107.00,1.44
8106.00,1.45
8105.00,1.45
8104.00,1.45
8103.00,1.45
8102.00,1.45
8101.00,1.45
8100.00,1.45
8099.00,1.45
8098.00,1.45
8097.00,1.45
8096.00,1.45
8095.00,1.45
8094.00,1.45
8093.00,1.45
8092.00,1.45
8091.00,1.45
8090.00,1.45
8089.00,1.45
8088.00,1.44
8087.00,1.44
8086.00,1.44
8085.00,1.44
8084.00,1.44
8083.00,1.44
8082.00,1.44
8081.00,1.44
8080.00,1.44
8079.00,1.44
8078.00,1.44
8077.00,1.45
8076.00,1.45
8075.00,1.45
8074.00,1.45
8073.00,1.45
8072.00,1.45
8071.00,1.45
8070.00,1.45
8069.00,1.46
8068.00,1.46
8067.00,1.46
8066.00,1.46
8065.00,1.46
8064.00,1.46
8063.00,1.46
8062.00,1.46
8061.00,1.46
8060.00,1.46
8059.00,1.46
8058.00,1.46
8057.00,1.46
8056.00,1.46
8055.00,1.46
8054.00,1.46
8053.00,1.46
8052.00,1.46
8051.00,1.46
8050.00,1.46
8049.00,1.46
8048.00,1.46
8047.00,1.46
8046.00,1.46
8045.00,1.46
8044.00,1.46
8043.00,1.46
8042.00,1.46
8041.00,1.46
8040.00,1.46
8039.00,1.46
8038.00,1.46
8037.00,1.46
8036.00,1.46
8035.00,1.46
8034.00,1.46
8033.00,1.46
8032.00,1.46
8031.00,1.46
8030.00,1.46
8029.00,1.46
8028.00,1.46
8027.00,1.46
8026.00,1.46
8025.00,1.46
8024.00,1.46
8023.00,1.46
8022.00,1.45
8021.00,1.45
8020.00,1.45
8019.00,1.45
8018.00,1.45
8017.00,1.45
8016.00,1.45
8015.00,1.45
8014.00,1.45
8013.00,1.45
8012.00,1.45
8011.00,1.46
8010.00,1.46
8009.00,1.46
8008.00,1.46
8007.00,1.46
8006.00,1.46
8005.00,1.46
8004.00,1.46
8003.00,1.46
8002.00,1.46
8001.00,1.46
8000.00,1.46
7999.00,1.47
7998.00,1.47
7997.00,1.47
7996.00,1.47
7995.00,1.47
7994.00,1.47
7993.00,1.47
7992.00,1.47
7991.00,1.47
7990.00,1.47
7989.00,1.47
7988.00,1.47
7987.00,1.47
7986.00,1.47
7985.00,1.47
7984.00,1.47
7983.00,1.47
7982.00,1.47
7981.00,1.47
7980.00,1.47
7979.00,1.47
7978.00,1.47
7977.00,1.47
7976.00,1.47
7975.00,1.47
7974.00,1.47
7973.00,1.47
7972.00,1.47
7971.00,1.47
7970.00,1.47
7969.00,1.47
7968.00,1.47
7967.00,1.47
7966.00,1.47
7965.00,1.47
7964.00,1.47
7963.00,1.47
7962.00,1.47
7961.00,1.47
7960.00,1.46
7959.00,1.46
7958.00,1.46
7957.00,1.46
7956.00,1.46
7955.00,1.46
7954.00,1.46
7953.00,1.45
7952.00,1.45
7951.00,1.45
7950.00,1.45
7949.00,1.45
7948.00,1.45
7947.00,1.46
7946.00,1.46
7945.00,1.46
7944.00,1.46
7943.00,1.46
7942.00,1.46
7941.00,1.46
7940.00,1.46
7939.00,1.47
7938.00,1.47
7937.00,1.47
7936.00,1.47
7935.00,1.47
7934.00,1.47
7933.00,1.47
7932.00,1.47
7931.00,1.48
7930.00,1.48
7929.00,1.48
7928.00,1.48
7927.00,1.48
7926.00,1.48
7925.00,1.48
7924.00,1.48
7923.00,1.48
7922.00,1.48
7921.00,1.48
7920.00,1.48
7919.00,1.48
7918.00,1.48
7917.00,1.48
7916.00,1.48
7915.00,1.48
7914.00,1.48
7913.00,1.48
7912.00,1.48
7911.00,1.48
7910.00,1.48
7909.00,1.48
7908.00,1.48
7907.00,1.48
7906.00,1.48
7905.00,1.48
7904.00,1.48
7903.00,1.48
7902.00,1.48
7901.00,1.48
7900.00,1.48
7899.00,1.48
7898.00,1.48
7897.00,1.48
7896.00,1.48
7895.00,1.48
7894.00,1.48
7893.00,1.48
7892.00,1.48
7891.00,1.48
7890.00,1.48
7889.00,1.48
7888.00,1.48
7887.00,1.48
7886.00,1.48
7885.00,1.48
7884.00,1.48
7883.00,1.48
7882.00,1.48
7881.00,1.48
7880.00,1.48
7879.00,1.48
7878.00,1.48
7877.00,1.48
7876.00,1.48
7875.00,1.48
7874.00,1.48
7873.00,1.48
7872.00,1.48
7871.00,1.48
7870.00,1.48
7869.00,1.48
7868.00,1.48
7867.00,1.48
7866.00,1.49
7865.00,1.49
7864.00,1.49
7863.00,1.49
7862.00,1.49
7861.00,1.49
7860.00,1.49
7859.00,1.49
7858.00,1.49
7857.00,1.49
7856.00,1.49
7855.00,1.49
7854.00,1.49
7853.00,1.49
7852.00,1.49
7851.00,1.49
7850.00,1.49
7849.00,1.49
7848.00,1.49
7847.00,1.49
7846.00,1.49
7845.00,1.49
7844.00,1.49
7843.00,1.49
7842.00,1.49
7841.00,1.49
7840.00,1.49
7839.00,1.49
7838.00,1.49
7837.00,1.49
7836.00,1.48
7835.00,1.48
7834.00,1.48
7833.00,1.48
7832.00,1.48
7831.00,1.48
7830.00,1.48
7829.00,1.48
7828.00,1.48
7827.00,1.48
7826.00,1.48
7825.00,1.48
7824.00,1.48
7823.00,1.49
7822.00,1.49
7821.00,1.49
7820.00,1.49
7819.00,1.49
7818.00,1.49
7817.00,1.49
7816.00,1.49
7815.00,1.49
7814.00,1.49
7813.00,1.49
7812.00,1.49
7811.00,1.49
7810.00,1.49
7809.00,1.49
7808.00,1.49
7807.00,1.49
7806.00,1.49
7805.00,1.49
7804.00,1.49
7803.00,1.49
7802.00,1.49
7801.00,1.49
7800.00,1.49
7799.00,1.49
7798.00,1.49
7797.00,1.49
7796.00,1.50
7795.00,1.50
7794.00,1.50
7793.00,1.50
7792.00,1.50
7791.00,1.50
7790.00,1.50
7789.00,1.50
7788.00,1.50
7787.00,1.50
7786.00,1.50
7785.00,1.50
7784.00,1.50
7783.00,1.50
7782.00,1.49
7781.00,1.49
7780.00,1.49
7779.00,1.49
7778.00,1.49
7777.00,1.49
7776.00,1.49
7775.00,1.49
7774.00,1.49
7773.00,1.49
7772.00,1.49
7771.00,1.49
7770.00,1.49
7769.00,1.49
7768.00,1.49
7767.00,1.49
7766.00,1.49
7765.00,1.49
7764.00,1.49
7763.00,1.49
7762.00,1.49
7761.00,1.49
7760.00,1.49
7759.00,1.49
7758.00,1.49
7757.00,1.49
7756.00,1.49
7755.00,1.49
7754.00,1.49
7753.00,1.49
7752.00,1.49
7751.00,1.49
7750.00,1.49
7749.00,1.49
7748.00,1.49
7747.00,1.49
7746.00,1.49
7745.00,1.49
7744.00,1.49
7743.00,1.49
7742.00,1.49
7741.00,1.49
7740.00,1.49
7739.00,1.49
7738.00,1.50
7737.00,1.50
7736.00,1.50
7735.00,1.50
7734.00,1.50
7733.00,1.50
7732.00,1.50
7731.00,1.50
7730.00,1.50
7729.00,1.50
7728.00,1.50
7727.00,1.50
7726.00,1.50
7725.00,1.50
7724.00,1.51
7723.00,1.51
7722.00,1.51
7721.00,1.50
7720.00,1.50
7719.00,1.50
7718.00,1.50
7717.00,1.50
7716.00,1.50
7715.00,1.50
7714.00,1.50
7713.00,1.50
7712.00,1.50
7711.00,1.50
7710.00,1.50
7709.00,1.50
7708.00,1.50
7707.00,1.50
7706.00,1.50
7705.00,1.50
7704.00,1.50
7703.00,1.50
7702.00,1.50
7701.00,1.50
7700.00,1.50
7699.00,1.50
7698.00,1.50
7697.00,1.49
7696.00,1.49
7695.00,1.49
7694.00,1.49
7693.00,1.49
7692.00,1.49
7691.00,1.49
7690.00,1.49
7689.00,1.49
7688.00,1.49
7687.00,1.49
7686.00,1.49
7685.00,1.49
7684.00,1.49
7683.00,1.49
7682.00,1.50
7681.00,1.50
7680.00,1.50
7679.00,1.50
7678.00,1.50
7677.00,1.50
7676.00,1.50
7675.00,1.50
7674.00,1.50
7673.00,1.50
7672.00,1.50
7671.00,1.50
7670.00,1.50
7669.00,1.50
7668.00,1.50
7667.00,1.50
7666.00,1.50
7665.00,1.50
7664.00,1.50
7663.00,1.50
7662.00,1.50
7661.00,1.50
7660.00,1.51
7659.00,1.51
7658.00,1.51
7657.00,1.51
7656.00,1.51
7655.00,1.50
7654.00,1.50
7653.00,1.50
7652.00,1.50
7651.00,1.50
7650.00,1.50
7649.00,1.50
7648.00,1.50
7647.00,1.50
7646.00,1.50
7645.00,1.50
7644.00,1.50
7643.00,1.50
7642.00,1.50
7641.00,1.50
7640.00,1.50
7639.00,1.50
7638.00,1.50
7637.00,1.50
7636.00,1.50
7635.00,1.50
7634.00,1.50
7633.00,1.50
7632.00,1.50
7631.00,1.50
7630.00,1.50
7629.00,1.50
7628.00,1.50
7627.00,1.50
7626.00,1.50
7625.00,1.50
7624.00,1.50
7623.00,1.50
7622.00,1.50
7621.00,1.50
7620.00,1.50
7619.00,1.50
7618.00,1.50
7617.00,1.50
7616.00,1.50
7615.00,1.50
7614.00,1.49
7613.00,1.49
7612.00,1.50
7611.00,1.50
7610.00,1.50
7609.00,1.50
7608.00,1.50
7607.00,1.50
7606.00,1.50
7605.00,1.50
7604.00,1.50
7603.00,1.50
7602.00,1.50
7601.00,1.50
7600.00,1.50
7599.00,1.50
7598.00,1.50
7597.00,1.50
7596.00,1.50
7595.00,1.49
7594.00,1.49
7593.00,1.49
7592.00,1.49
7591.00,1.49
7590.00,1.49
7589.00,1.49
7588.00,1.49
7587.00,1.49
7586.00,1.49
7585.00,1.49
7584.00,1.49
7583.00,1.49
7582.00,1.49
7581.00,1.50
7580.00,1.50
7579.00,1.50
7578.00,1.50
7577.00,1.50
7576.00,1.50
7575.00,1.50
7574.00,1.50
7573.00,1.50
7572.00,1.50
7571.00,1.50
7570.00,1.50
7569.00,1.50
7568.00,1.50
7567.00,1.51
7566.00,1.51
7565.00,1.51
7564.00,1.50
7563.00,1.50
7562.00,1.50
7561.00,1.50
7560.00,1.50
7559.00,1.50
7558.00,1.50
7557.00,1.50
7556.00,1.50
7555.00,1.50
7554.00,1.50
7553.00,1.50
7552.00,1.50
7551.00,1.50
7550.00,1.50
7549.00,1.50
7548.00,1.50
7547.00,1.50
7546.00,1.50
7545.00,1.50
7544.00,1.50
7543.00,1.50
7542.00,1.50
7541.00,1.50
7540.00,1.50
7539.00,1.50
7538.00,1.50
7537.00,1.50
7536.00,1.50
7535.00,1.49
7534.00,1.49
7533.00,1.49
7532.00,1.49
7531.00,1.49
7530.00,1.49
7529.00,1.49
7528.00,1.49
7527.00,1.49
7526.00,1.49
7525.00,1.49
7524.00,1.49
7523.00,1.49
7522.00,1.49
7521.00,1.49
7520.00,1.49
7519.00,1.49
7518.00,1.49
7517.00,1.49
7516.00,1.49
7515.00,1.49
7514.00,1.49
7513.00,1.49
7512.00,1.49
7511.00,1.49
7510.00,1.49
7509.00,1.49
7508.00,1.49
7507.00,1.49
7506.00,1.49
7505.00,1.49
7504.00,1.49
7503.00,1.49
7502.00,1.49
7501.00,1.49
7500.00,1.49
7499.00,1.49
7498.00,1.49
7497.00,1.49
7496.00,1.49
7495.00,1.49
7494.00,1.49
7493.00,1.49
7492.00,1.49
7491.00,1.49
7490.00,1.49
7489.00,1.49
7488.00,1.49
7487.00,1.49
7486.00,1.49
7485.00,1.49
7484.00,1.49
7483.00,1.49
7482.00,1.49
7481.00,1.49
7480.00,1.48
7479.00,1.48
7478.00,1.48
7477.00,1.48
7476.00,1.48
7475.00,1.48
7474.00,1.48
7473.00,1.48
7472.00,1.48
7471.00,1.48
7470.00,1.47
7469.00,1.47
7468.00,1.47
7467.00,1.47
7466.00,1.47
7465.00,1.47
7464.00,1.47
7463.00,1.47
7462.00,1.47
7461.00,1.47
7460.00,1.47
7459.00,1.47
7458.00,1.47
7457.00,1.47
7456.00,1.47
7455.00,1.47
7454.00,1.47
7453.00,1.47
7452.00,1.47
7451.00,1.47
7450.00,1.47
7449.00,1.47
7448.00,1.47
7447.00,1.47
7446.00,1.47
7445.00,1.47
7444.00,1.47
7443.00,1.47
7442.00,1.47
7441.00,1.47
7440.00,1.47
7439.00,1.47
7438.00,1.47
7437.00,1.47
7436.00,1.47
7435.00,1.47
7434.00,1.47
7433.00,1.47
7432.00,1.46
7431.00,1.46
7430.00,1.46
7429.00,1.46
7428.00,1.46
7427.00,1.46
7426.00,1.46
7425.00,1.46
7424.00,1.46
7423.00,1.46
7422.00,1.46
7421.00,1.46
7420.00,1.46
7419.00,1.46
7418.00,1.46
7417.00,1.46
7416.00,1.46
7415.00,1.45
7414.00,1.45
7413.00,1.45
7412.00,1.45
7411.00,1.45
7410.00,1.45
7409.00,1.45
7408.00,1.45
7407.00,1.45
7406.00,1.45
7405.00,1.45
7404.00,1.45
7403.00,1.45
7402.00,1.45
7401.00,1.45
7400.00,1.45
7399.00,1.45
7398.00,1.45
7397.00,1.45
7396.00,1.44
7395.00,1.44
7394.00,1.44
7393.00,1.44
7392.00,1.44
7391.00,1.44
7390.00,1.44
7389.00,1.43
7388.00,1.43
7387.00,1.43
7386.00,1.43
7385.00,1.43
7384.00,1.43
7383.00,1.43
7382.00,1.43
7381.00,1.43
7380.00,1.43
7379.00,1.42
7378.00,1.42
7377.00,1.42
7376.00,1.42
7375.00,1.42
7374.00,1.42
7373.00,1.42
7372.00,1.42
7371.00,1.42
7370.00,1.42
7369.00,1.42
7368.00,1.42
7367.00,1.42
7366.00,1.42
7365.00,1.42
7364.00,1.42
7363.00,1.42
7362.00,1.42
7361.00,1.42
7360.00,1.42
7359.00,1.41
7358.00,1.41
7357.00,1.41
7356.00,1.41
7355.00,1.41
7354.00,1.41
7353.00,1.41
7352.00,1.41
7351.00,1.41
7350.00,1.41
7349.00,1.41
7348.00,1.41
7347.00,1.41
7346.00,1.41
7345.00,1.41
7344.00,1.41
7343.00,1.41
7342.00,1.41
7341.00,1.41
7340.00,1.41
7339.00,1.41
7338.00,1.41
7337.00,1.41
7336.00,1.41
7335.00,1.41
7334.00,1.41
7333.00,1.41
7332.00,1.41
7331.00,1.41
7330.00,1.41
7329.00,1.41
7328.00,1.41
7327.00,1.41
7326.00,1.41
7325.00,1.41
7324.00,1.41
7323.00,1.41
7322.00,1.41
7321.00,1.41
7320.00,1.41
7319.00,1.41
7318.00,1.41
7317.00,1.41
7316.00,1.41
7315.00,1.41
7314.00,1.41
7313.00,1.41
7312.00,1.40
7311.00,1.40
7310.00,1.40
7309.00,1.40
7308.00,1.40
7307.00,1.40
7306.00,1.40
7305.00,1.39
7304.00,1.39
7303.00,1.39
7302.00,1.39
7301.00,1.39
7300.00,1.39
7299.00,1.39
7298.00,1.38
7297.00,1.38
7296.00,1.38
7295.00,1.38
7294.00,1.38
7293.00,1.38
7292.00,1.38
7291.00,1.38
7290.00,1.38
7289.00,1.38
7288.00,1.38
7287.00,1.38
7286.00,1.38
7285.00,1.38
7284.00,1.38
7283.00,1.38
7282.00,1.38
7281.00,1.38
7280.00,1.38
7279.00,1.38
7278.00,1.38
7277.00,1.37
7276.00,1.37
7275.00,1.37
7274.00,1.37
7273.00,1.37
7272.00,1.37
7271.00,1.37
7270.00,1.37
7269.00,1.37
7268.00,1.36
7267.00,1.36
7266.00,1.36
7265.00,1.36
7264.00,1.36
7263.00,1.36
7262.00,1.36
7261.00,1.35
7260.00,1.35
7259.00,1.35
7258.00,1.35
7257.00,1.35
7256.00,1.35
7255.00,1.35
7254.00,1.35
7253.00,1.34
7252.00,1.34
7251.00,1.34
7250.00,1.34
7249.00,1.34
7248.00,1.34
7247.00,1.33
7246.00,1.33
7245.00,1.33
7244.00,1.33
7243.00,1.33
7242.00,1.32
7241.00,1.32
7240.00,1.32
7239.00,1.32
7238.00,1.32
7237.00,1.31
7236.00,1.31
7235.00,1.31
7234.00,1.31
7233.00,1.30
7232.00,1.30
7231.00,1.30
7230.00,1.30
7229.00,1.29
7228.00,1.29
7227.00,1.29
7226.00,1.29
7225.00,1.29
7224.00,1.28
7223.00,1.28
7222.00,1.28
7221.00,1.28
7220.00,1.27
7219.00,1.27
7218.00,1.27
7217.00,1.27
7216.00,1.26
7215.00,1.26
7214.00,1.26
7213.00,1.25
7212.00,1.25
7211.00,1.25
7210.00,1.24
7209.00,1.24
7208.00,1.24
7207.00,1.23
7206.00,1.23
7205.00,1.23
7204.00,1.22
7203.00,1.22
7202.00,1.22
7201.00,1.21
7200.00,1.21
7199.00,1.21
7198.00,1.21
7197.00,1.20
7196.00,1.20
7195.00,1.20
7194.00,1.19
7193.00,1.19
7192.00,1.19
7191.00,1.18
7190.00,1.18
7189.00,1.18
7188.00,1.17
7187.00,1.17
7186.00,1.17
7185.00,1.17
7184.00,1.16
7183.00,1.16
7182.00,1.16
7181.00,1.16
7180.00,1.15
7179.00,1.15
7178.00,1.15
7177.00,1.15
7176.00,1.15
7175.00,1.14
7174.00,1.14
7173.00,1.14
7172.00,1.14
7171.00,1.14
7170.00,1.13
7169.00,1.13
7168.00,1.13
7167.00,1.13
7166.00,1.12
7165.00,1.12
7164.00,1.12
7163.00,1.12
7162.00,1.12
7161.00,1.11
7160.00,1.11
7159.00,1.11
7158.00,1.11
7157.00,1.10
7156.00,1.10
7155.00,1.10
7154.00,1.09
7153.00,1.09
7152.00,1.09
7151.00,1.09
7150.00,1.08
7149.00,1.08
7148.00,1.08
7147.00,1.07
7146.00,1.07
7145.00,1.07
7144.00,1.06
7143.00,1.06
7142.00,1.06
7141.00,1.05
7140.00,1.05
7139.00,1.05
7138.00,1.05
7137.00,1.04
7136.00,1.04
7135.00,1.04
7134.00,1.04
7133.00,1.04
7132.00,1.03
7131.00,1.03
7130.00,1.03
7129.00,1.03
7128.00,1.03
7127.00,1.02
7126.00,1.02
7125.00,1.02
7124.00,1.02
7123.00,1.02
7122.00,1.01
7121.00,1.01
7120.00,1.01
7119.00,1.01
7118.00,1.01
7117.00,1.00
7116.00,1.00
7115.00,1.00
7114.00,1.00
7113.00,0.99
7112.00,0.99
7111.00,0.99
7110.00,0.99
7109.00,0.98
7108.00,0.98
7107.00,0.98
7106.00,0.98
7105.00,0.97
7104.00,0.97
7103.00,0.97
7102.00,0.97
7101.00,0.96
7100.00,0.96
7099.00,0.96
7098.00,0.96
7097.00,0.95
7096.00,0.95
7095.00,0.95
7094.00,0.95
7093.00,0.95
7092.00,0.94
7091.00,0.94
7090.00,0.94
7089.00,0.94
7088.00,0.94
7087.00,0.93
7086.00,0.93
7085.00,0.93
7084.00,0.93
7083.00,0.93
7082.00,0.92
7081.00,0.92
7080.00,0.92
7079.00,0.92
7078.00,0.92
7077.00,0.91
7076.00,0.91
7075.00,0.91
7074.00,0.91
7073.00,0.91
7072.00,0.90
7071.00,0.90
7070.00,0.90
7069.00,0.90
7068.00,0.89
7067.00,0.89
7066.00,0.89
7065.00,0.89
7064.00,0.89
7063.00,0.89
7062.00,0.88
7061.00,0.88
7060.00,0.88
7059.00,0.88
7058.00,0.88
7057.00,0.88
7056.00,0.87
7055.00,0.87
7054.00,0.87
7053.00,0.87
7052.00,0.87
7051.00,0.86
7050.00,0.86
7049.00,0.86
7048.00,0.86
7047.00,0.86
7046.00,0.86
7045.00,0.85
7044.00,0.85
7043.00,0.85
7042.00,0.85
7041.00,0.85
7040.00,0.85
7039.00,0.85
7038.00,0.85
7037.00,0.84
7036.00,0.84
7035.00,0.84
7034.00,0.84
7033.00,0.84
7032.00,0.84
7031.00,0.84
7030.00,0.84
7029.00,0.84
7028.00,0.84
7027.00,0.83
7026.00,0.83
7025.00,0.83
7024.00,0.83
7023.00,0.83
7022.00,0.83
7021.00,0.83
7020.00,0.83
7019.00,0.82
7018.00,0.82
7017.00,0.82
7016.00,0.82
7015.00,0.82
7014.00,0.82
7013.00,0.82
7012.00,0.82
7011.00,0.82
7010.00,0.82
7009.00,0.81
7008.00,0.81
7007.00,0.81
7006.00,0.81
7005.00,0.81
7004.00,0.81
7003.00,0.81
7002.00,0.81
7001.00,0.81
7000.00,0.81
6999.00,0.81
6998.00,0.81
6997.00,0.80
6996.00,0.80
6995.00,0.80
6994.00,0.80
6993.00,0.80
6992.00,0.80
6991.00,0.80
6990.00,0.80
6989.00,0.80
6988.00,0.80
6987.00,0.79
6986.00,0.79
6985.00,0.79
6984.00,0.79
6983.00,0.79
6982.00,0.79
6981.00,0.79
6980.00,0.79
6979.00,0.79
6978.00,0.79
6977.00,0.79
6976.00,0.78
6975.00,0.78
6974.00,0.78
6973.00,0.78
6972.00,0.78
6971.00,0.78
6970.00,0.78
6969.00,0.78
6968.00,0.78
6967.00,0.78
6966.00,0.78
6965.00,0.78
6964.00,0.78
6963.00,0.78
6962.00,0.78
6961.00,0.78
6960.00,0.78
6959.00,0.78
6958.00,0.78
6957.00,0.78
6956.00,0.77
6955.00,0.77
6954.00,0.77
6953.00,0.77
6952.00,0.77
6951.00,0.77
6950.00,0.77
6949.00,0.77
6948.00,0.77
6947.00,0.77
6946.00,0.77
6945.00,0.77
6944.00,0.77
6943.00,0.76
6942.00,0.76
6941.00,0.76
6940.00,0.76
6939.00,0.76
6938.00,0.76
6937.00,0.76
6936.00,0.76
6935.00,0.76
6934.00,0.76
6933.00,0.76
6932.00,0.76
6931.00,0.76
6930.00,0.76
6929.00,0.76
6928.00,0.76
6927.00,0.76
6926.00,0.76
6925.00,0.76
6924.00,0.76
6923.00,0.76
6922.00,0.76
6921.00,0.76
6920.00,0.75
6919.00,0.75
6918.00,0.75
6917.00,0.75
6916.00,0.75
6915.00,0.75
6914.00,0.75
6913.00,0.75
6912.00,0.75
6911.00,0.75
6910.00,0.75
6909.00,0.75
6908.00,0.74
6907.00,0.74
6906.00,0.74
6905.00,0.74
6904.00,0.74
6903.00,0.74
6902.00,0.74
6901.00,0.74
6900.00,0.74
6899.00,0.74
6898.00,0.74
6897.00,0.74
6896.00,0.74
6895.00,0.74
6894.00,0.74
6893.00,0.74
6892.00,0.74
6891.00,0.74
6890.00,0.74
6889.00,0.74
6888.00,0.74
6887.00,0.74
6886.00,0.74
6885.00,0.74
6884.00,0.74
6883.00,0.74
6882.00,0.74
6881.00,0.74
6880.00,0.74
6879.00,0.74
6878.00,0.74
6877.00,0.74
6876.00,0.74
6875.00,0.74
6874.00,0.74
6873.00,0.74
6872.00,0.74
6871.00,0.74
6870.00,0.74
6869.00,0.74
6868.00,0.74
6867.00,0.74
6866.00,0.74
6865.00,0.74
6864.00,0.74
6863.00,0.74
6862.00,0.74
6861.00,0.74
6860.00,0.74
6859.00,0.74
6858.00,0.74
6857.00,0.74
6856.00,0.74
6855.00,0.74
6854.00,0.74
6853.00,0.74
6852.00,0.74
6851.00,0.74
6850.00,0.74
6849.00,0.74
6848.00,0.74
6847.00,0.74
6846.00,0.74
6845.00,0.74
6844.00,0.74
6843.00,0.74
6842.00,0.74
6841.00,0.74
6840.00,0.74
6839.00,0.74
6838.00,0.74
6837.00,0.74
6836.00,0.74
6835.00,0.74
6834.00,0.74
6833.00,0.74
6832.00,0.74
6831.00,0.74
6830.00,0.74
6829.00,0.74
6828.00,0.74
6827.00,0.74
6826.00,0.74
6825.00,0.74
6824.00,0.74
6823.00,0.74
6822.00,0.74
6821.00,0.74
6820.00,0.74
6819.00,0.74
6818.00,0.74
6817.00,0.74
6816.00,0.74
6815.00,0.74
6814.00,0.74
6813.00,0.74
6812.00,0.74
6811.00,0.74
6810.00,0.74
6809.00,0.74
6808.00,0.74
6807.00,0.74
6806.00,0.74
6805.00,0.75
6804.00,0.75
6803.00,0.75
6802.00,0.75
6801.00,0.75
6800.00,0.75
6799.00,0.75
6798.00,0.75
6797.00,0.76
6796.00,0.76
6795.00,0.76
6794.00,0.76
6793.00,0.76
6792.00,0.76
6791.00,0.76
6790.00,0.76
6789.00,0.76
6788.00,0.77
6787.00,0.77
6786.00,0.77
6785.00,0.77
6784.00,0.77
6783.00,0.77
6782.00,0.77
6781.00,0.77
6780.00,0.77
6779.00,0.77
6778.00,0.77
6777.00,0.77
6776.00,0.77
6775.00,0.77
6774.00,0.77
6773.00,0.77
6772.00,0.77
6771.00,0.77
6770.00,0.77
6769.00,0.77
6768.00,0.77
6767.00,0.77
6766.00,0.77
6765.00,0.77
6764.00,0.77
6763.00,0.77
6762.00,0.77
6761.00,0.78
6760.00,0.78
6759.00,0.78
6758.00,0.78
6757.00,0.78
6756.00,0.78
6755.00,0.78
6754.00,0.78
6753.00,0.78
6752.00,0.78
6751.00,0.79
6750.00,0.79
6749.00,0.79
6748.00,0.79
6747.00,0.79
6746.00,0.79
6745.00,0.79
6744.00,0.79
6743.00,0.79
6742.00,0.79
6741.00,0.80
6740.00,0.80
6739.00,0.80
6738.00,0.80
6737.00,0.80
6736.00,0.80
6735.00,0.80
6734.00,0.80
6733.00,0.80
6732.00,0.80
6731.00,0.81
6730.00,0.81
6729.00,0.81
6728.00,0.81
6727.00,0.81
6726.00,0.81
6725.00,0.81
6724.00,0.81
6723.00,0.81
6722.00,0.81
6721.00,0.81
6720.00,0.81
6719.00,0.81
6718.00,0.81
6717.00,0.81
6716.00,0.81
6715.00,0.81
6714.00,0.81
6713.00,0.82
6712.00,0.82
6711.00,0.82
6710.00,0.82
6709.00,0.82
6708.00,0.82
6707.00,0.82
6706.00,0.82
6705.00,0.82
6704.00,0.82
6703.00,0.82
6702.00,0.82
6701.00,0.82
6700.00,0.82
6699.00,0.82
6698.00,0.82
6697.00,0.83
6696.00,0.83
6695.00,0.83
6694.00,0.83
6693.00,0.83
6692.00,0.83
6691.00,0.83
6690.00,0.83
6689.00,0.83
6688.00,0.83
6687.00,0.84
6686.00,0.84
6685.00,0.84
6684.00,0.84
6683.00,0.84
6682.00,0.84
6681.00,0.84
6680.00,0.84
6679.00,0.84
6678.00,0.85
6677.00,0.85
6676.00,0.85
6675.00,0.85
6674.00,0.85
6673.00,0.85
6672.00,0.85
6671.00,0.86
6670.00,0.86
6669.00,0.86
6668.00,0.86
6667.00,0.86
6666.00,0.86
6665.00,0.86
6664.00,0.86
6663.00,0.86
6662.00,0.86
6661.00,0.86
6660.00,0.86
6659.00,0.86
6658.00,0.86
6657.00,0.87
6656.00,0.87
6655.00,0.87
6654.00,0.87
6653.00,0.87
6652.00,0.87
6651.00,0.87
6650.00,0.87
6649.00,0.87
6648.00,0.88
6647.00,0.88
6646.00,0.88
6645.00,0.88
6644.00,0.88
6643.00,0.88
6642.00,0.88
6641.00,0.88
6640.00,0.88
6639.00,0.89
6638.00,0.89
6637.00,0.89
6636.00,0.89
6635.00,0.89
6634.00,0.89
6633.00,0.89
6632.00,0.89
6631.00,0.89
6630.00,0.89
6629.00,0.89
6628.00,0.90
6627.00,0.90
6626.00,0.90
6625.00,0.90
6624.00,0.90
6623.00,0.90
6622.00,0.90
6621.00,0.90
6620.00,0.90
6619.00,0.90
6618.00,0.91
6617.00,0.91
6616.00,0.91
6615.00,0.91
6614.00,0.91
6613.00,0.91
6612.00,0.91
6611.00,0.92
6610.00,0.92
6609.00,0.92
6608.00,0.92
6607.00,0.92
6606.00,0.92
6605.00,0.92
6604.00,0.92
6603.00,0.92
6602.00,0.92
6601.00,0.92
6600.00,0.93
6599.00,0.93
6598.00,0.93
6597.00,0.93
6596.00,0.93
6595.00,0.93
6594.00,0.93
6593.00,0.93
6592.00,0.93
6591.00,0.93
6590.00,0.93
6589.00,0.94
6588.00,0.94
6587.00,0.94
6586.00,0.94
6585.00,0.94
6584.00,0.94
6583.00,0.94
6582.00,0.94
6581.00,0.94
6580.00,0.94
6579.00,0.94
6578.00,0.95
6577.00,0.95
6576.00,0.95
6575.00,0.95
6574.00,0.95
6573.00,0.95
6572.00,0.95
6571.00,0.95
6570.00,0.95
6569.00,0.96
6568.00,0.96
6567.00,0.96
6566.00,0.96
6565.00,0.96
6564.00,0.96
6563.00,0.96
6562.00,0.96
6561.00,0.96
6560.00,0.96
6559.00,0.96
6558.00,0.97
6557.00,0.97
6556.00,0.97
6555.00,0.97
6554.00,0.97
6553.00,0.97
6552.00,0.97
6551.00,0.97
6550.00,0.97
6549.00,0.97
6548.00,0.97
6547.00,0.97
6546.00,0.98
6545.00,0.98
6544.00,0.98
6543.00,0.98
6542.00,0.98
6541.00,0.98
6540.00,0.98
6539.00,0.98
6538.00,0.98
6537.00,0.98
6536.00,0.98
6535.00,0.98
6534.00,0.98
6533.00,0.98
6532.00,0.98
6531.00,0.99
6530.00,0.99
6529.00,0.99
6528.00,0.99
6527.00,0.99
6526.00,0.99
6525.00,0.99
6524.00,0.99
6523.00,0.99
6522.00,1.00
6521.00,1.00
6520.00,1.00
6519.00,1.00
6518.00,1.00
6517.00,1.00
6516.00,1.00
6515.00,1.00
6514.00,1.00
6513.00,1.00
6512.00,1.00
6511.00,1.01
6510.00,1.01
6509.00,1.01
6508.00,1.01
6507.00,1.01
6506.00,1.01
6505.00,1.01
6504.00,1.01
6503.00,1.01
6502.00,1.01
6501.00,1.01
6500.00,1.01
6499.00,1.01
6498.00,1.01
6497.00,1.01
6496.00,1.01
6495.00,1.01
6494.00,1.01
6493.00,1.02
6492.00,1.02
6491.00,1.02
6490.00,1.02
6489.00,1.02
6488.00,1.02
6487.00,1.02
6486.00,1.02
6485.00,1.02
6484.00,1.02
6483.00,1.02
6482.00,1.02
6481.00,1.02
6480.00,1.02
6479.00,1.02
6478.00,1.03
6477.00,1.03
6476.00,1.03
6475.00,1.03
6474.00,1.03
6473.00,1.03
6472.00,1.03
6471.00,1.03
6470.00,1.03
6469.00,1.03
6468.00,1.03
6467.00,1.03
6466.00,1.03
6465.00,1.03
6464.00,1.03
6463.00,1.03
6462.00,1.03
6461.00,1.03
6460.00,1.04
6459.00,1.04
6458.00,1.04
6457.00,1.04
6456.00,1.04
6455.00,1.04
6454.00,1.04
6453.00,1.04
6452.00,1.04
6451.00,1.04
6450.00,1.04
6449.00,1.04
6448.00,1.04
6447.00,1.04
6446.00,1.04
6445.00,1.04
6444.00,1.04
6443.00,1.04
6442.00,1.04
6441.00,1.04
6440.00,1.05
6439.00,1.05
6438.00,1.05
6437.00,1.05
6436.00,1.05
6435.00,1.05
6434.00,1.05
6433.00,1.05
6432.00,1.05
6431.00,1.05
6430.00,1.05
6429.00,1.05
6428.00,1.05
6427.00,1.05
6426.00,1.05
6425.00,1.05
6424.00,1.05
6423.00,1.05
6422.00,1.05
6421.00,1.05
6420.00,1.05
6419.00,1.05
6418.00,1.05
6417.00,1.06
6416.00,1.06
6415.00,1.06
6414.00,1.06
6413.00,1.06
6412.00,1.06
6411.00,1.06
6410.00,1.06
6409.00,1.06
6408.00,1.06
6407.00,1.06
6406.00,1.06
6405.00,1.06
6404.00,1.06
6403.00,1.06
6402.00,1.06
6401.00,1.06
6400.00,1.06
6399.00,1.06
6398.00,1.06
6397.00,1.06
6396.00,1.06
6395.00,1.06
6394.00,1.07
6393.00,1.07
6392.00,1.07
6391.00,1.07
6390.00,1.07
6389.00,1.07
6388.00,1.07
6387.00,1.07
6386.00,1.07
6385.00,1.07
6384.00,1.07
6383.00,1.08
6382.00,1.08
6381.00,1.08
6380.00,1.08
6379.00,1.08
6378.00,1.08
6377.00,1.08
6376.00,1.08
6375.00,1.08
6374.00,1.08
6373.00,1.08
6372.00,1.08
6371.00,1.08
6370.00,1.09
6369.00,1.09
6368.00,1.09
6367.00,1.09
6366.00,1.09
6365.00,1.09
6364.00,1.09
6363.00,1.09
6362.00,1.09
6361.00,1.09
6360.00,1.09
6359.00,1.09
6358.00,1.09
6357.00,1.09
6356.00,1.09
6355.00,1.09
6354.00,1.10
6353.00,1.10
6352.00,1.10
6351.00,1.10
6350.00,1.10
6349.00,1.10
6348.00,1.10
6347.00,1.10
6346.00,1.10
6345.00,1.10
6344.00,1.10
6343.00,1.10
6342.00,1.11
6341.00,1.11
6340.00,1.11
6339.00,1.11
6338.00,1.11
6337.00,1.11
6336.00,1.11
6335.00,1.11
6334.00,1.12
6333.00,1.12
6332.00,1.12
6331.00,1.12
6330.00,1.12
6329.00,1.12
6328.00,1.12
6327.00,1.12
6326.00,1.12
6325.00,1.12
6324.00,1.12
6323.00,1.12
6322.00,1.12
6321.00,1.12
6320.00,1.12
6319.00,1.12
6318.00,1.12
6317.00,1.12
6316.00,1.12
6315.00,1.13
6314.00,1.13
6313.00,1.13
6312.00,1.13
6311.00,1.13
6310.00,1.13
6309.00,1.13
6308.00,1.13
6307.00,1.13
6306.00,1.14
6305.00,1.14
6304.00,1.14
6303.00,1.14
6302.00,1.14
6301.00,1.14
6300.00,1.14
6299.00,1.14
6298.00,1.14
6297.00,1.14
6296.00,1.15
6295.00,1.15
6294.00,1.15
6293.00,1.15
6292.00,1.15
6291.00,1.15
6290.00,1.15
6289.00,1.15
6288.00,1.15
6287.00,1.15
6286.00,1.15
6285.00,1.15
6284.00,1.16
6283.00,1.16
6282.00,1.16
6281.00,1.16
6280.00,1.16
6279.00,1.16
6278.00,1.16
6277.00,1.16
6276.00,1.17
6275.00,1.17
6274.00,1.17
6273.00,1.17
6272.00,1.17
6271.00,1.17
6270.00,1.17
6269.00,1.17
6268.00,1.17
6267.00,1.18
6266.00,1.18
6265.00,1.18
6264.00,1.18
6263.00,1.18
6262.00,1.18
6261.00,1.18
6260.00,1.18
6259.00,1.18
6258.00,1.18
6257.00,1.19
6256.00,1.19
6255.00,1.19
6254.00,1.19
6253.00,1.19
6252.00,1.19
6251.00,1.19
6250.00,1.19
6249.00,1.19
6248.00,1.19
6247.00,1.20
6246.00,1.20
6245.00,1.20
6244.00,1.20
6243.00,1.20
6242.00,1.20
6241.00,1.20
6240.00,1.20
6239.00,1.20
6238.00,1.21
6237.00,1.21
6236.00,1.21
6235.00,1.21
6234.00,1.21
6233.00,1.21
6232.00,1.21
6231.00,1.21
6230.00,1.21
6229.00,1.22
6228.00,1.22
6227.00,1.22
6226.00,1.22
6225.00,1.22
6224.00,1.22
6223.00,1.22
6222.00,1.22
6221.00,1.22
6220.00,1.22
6219.00,1.23
6218.00,1.23
6217.00,1.23
6216.00,1.23
6215.00,1.23
6214.00,1.23
6213.00,1.23
6212.00,1.23
6211.00,1.24
6210.00,1.24
6209.00,1.24
6208.00,1.24
6207.00,1.24
6206.00,1.24
6205.00,1.24
6204.00,1.24
6203.00,1.25
6202.00,1.25
6201.00,1.25
6200.00,1.25
6199.00,1.25
6198.00,1.25
6197.00,1.25
6196.00,1.25
6195.00,1.25
6194.00,1.25
6193.00,1.25
6192.00,1.26
6191.00,1.26
6190.00,1.26
6189.00,1.26
6188.00,1.26
6187.00,1.26
6186.00,1.26
6185.00,1.26
6184.00,1.26
6183.00,1.27
6182.00,1.27
6181.00,1.27
6180.00,1.27
6179.00,1.27
6178.00,1.27
6177.00,1.27
6176.00,1.28
6175.00,1.28
6174.00,1.28
6173.00,1.28
6172.00,1.28
6171.00,1.28
6170.00,1.28
6169.00,1.29
6168.00,1.29
6167.00,1.29
6166.00,1.29
6165.00,1.29
6164.00,1.29
6163.00,1.29
6162.00,1.29
6161.00,1.30
6160.00,1.30
6159.00,1.30
6158.00,1.30
6157.00,1.30
6156.00,1.30
6155.00,1.30
6154.00,1.30
6153.00,1.31
6152.00,1.31
6151.00,1.31
6150.00,1.31
6149.00,1.31
6148.00,1.31
6147.00,1.31
6146.00,1.31
6145.00,1.31
6144.00,1.32
6143.00,1.32
6142.00,1.32
6141.00,1.32
6140.00,1.32
6139.00,1.32
6138.00,1.32
6137.00,1.32
6136.00,1.32
6135.00,1.33
6134.00,1.33
6133.00,1.33
6132.00,1.33
6131.00,1.33
6130.00,1.33
6129.00,1.33
6128.00,1.34
6127.00,1.34
6126.00,1.34
6125.00,1.34
6124.00,1.34
6123.00,1.34
6122.00,1.34
6121.00,1.35
6120.00,1.35
6119.00,1.35
6118.00,1.35
6117.00,1.35
6116.00,1.35
6115.00,1.35
6114.00,1.35
6113.00,1.36
6112.00,1.36
6111.00,1.36
6110.00,1.36
6109.00,1.36
6108.00,1.36
6107.00,1.36
6106.00,1.36
6105.00,1.36
6104.00,1.37
6103.00,1.37
6102.00,1.37
6101.00,1.37
6100.00,1.37
6099.00,1.37
6098.00,1.37
6097.00,1.37
6096.00,1.37
6095.00,1.38
6094.00,1.38
6093.00,1.38
6092.00,1.38
6091.00,1.38
6090.00,1.38
6089.00,1.38
6088.00,1.38
6087.00,1.39
6086.00,1.39
6085.00,1.39
6084.00,1.39
6083.00,1.39
6082.00,1.39
6081.00,1.39
6080.00,1.39
6079.00,1.40
6078.00,1.40
6077.00,1.40
6076.00,1.40
6075.00,1.40
6074.00,1.40
6073.00,1.40
6072.00,1.40
6071.00,1.40
6070.00,1.40
6069.00,1.40
6068.00,1.41
6067.00,1.41
6066.00,1.41
6065.00,1.41
6064.00,1.41
6063.00,1.41
6062.00,1.41
6061.00,1.41
6060.00,1.41
6059.00,1.41
6058.00,1.41
6057.00,1.41
6056.00,1.41
6055.00,1.41
6054.00,1.42
6053.00,1.42
6052.00,1.42
6051.00,1.42
6050.00,1.42
6049.00,1.42
6048.00,1.42
6047.00,1.42
6046.00,1.42
6045.00,1.42
6044.00,1.42
6043.00,1.42
6042.00,1.42
6041.00,1.42
6040.00,1.42
6039.00,1.42
6038.00,1.42
6037.00,1.42
6036.00,1.42
6035.00,1.42
6034.00,1.43
6033.00,1.43
6032.00,1.43
6031.00,1.43
6030.00,1.43
6029.00,1.43
6028.00,1.43
6027.00,1.43
6026.00,1.43
6025.00,1.43
6024.00,1.43
6023.00,1.43
6022.00,1.43
6021.00,1.43
6020.00,1.43
6019.00,1.43
6018.00,1.43
6017.00,1.43
6016.00,1.43
6015.00,1.43
6014.00,1.43
6013.00,1.43
6012.00,1.43
6011.00,1.43
6010.00,1.43
6009.00,1.43
6008.00,1.43
6007.00,1.43
6006.00,1.43
6005.00,1.43
6004.00,1.43
6003.00,1.43
6002.00,1.43
6001.00,1.43
6000.00,1.43
5999.00,1.43
5998.00,1.43
5997.00,1.43
5996.00,1.43
5995.00,1.42
5994.00,1.42
5993.00,1.42
5992.00,1.42
5991.00,1.42
5990.00,1.42
5989.00,1.41
5988.00,1.41
5987.00,1.41
5986.00,1.41
5985.00,1.41
5984.00,1.40
5983.00,1.40
5982.00,1.40
5981.00,1.40
5980.00,1.39
5979.00,1.39
5978.00,1.39
5977.00,1.39
5976.00,1.38
5975.00,1.38
5974.00,1.38
5973.00,1.37
5972.00,1.37
5971.00,1.36
5970.00,1.36
5969.00,1.35
5968.00,1.35
5967.00,1.34
5966.00,1.34
5965.00,1.33
5964.00,1.33
5963.00,1.32
5962.00,1.31
5961.00,1.31
5960.00,1.30
5959.00,1.29
5958.00,1.29
5957.00,1.28
5956.00,1.27
5955.00,1.27
5954.00,1.26
5953.00,1.26
5952.00,1.25
5951.00,1.25
5950.00,1.24
5949.00,1.24
5948.00,1.23
5947.00,1.23
5946.00,1.22
5945.00,1.22
5944.00,1.22
5943.00,1.21
5942.00,1.21
5941.00,1.21
5940.00,1.21
5939.00,1.20
5938.00,1.20
5937.00,1.20
5936.00,1.20
5935.00,1.20
5934.00,1.20
5933.00,1.20
5932.00,1.20
5931.00,1.20
5930.00,1.19
5929.00,1.19
5928.00,1.19
5927.00,1.19
5926.00,1.19
5925.00,1.19
5924.00,1.19
5923.00,1.18
5922.00,1.18
5921.00,1.18
5920.00,1.18
5919.00,1.18
5918.00,1.17
5917.00,1.17
5916.00,1.17
5915.00,1.17
5914.00,1.16
5913.00,1.16
5912.00,1.16
5911.00,1.15
5910.00,1.15
5909.00,1.15
5908.00,1.15
5907.00,1.15
5906.00,1.14
5905.00,1.14
5904.00,1.14
5903.00,1.14
5902.00,1.14
5901.00,1.14
5900.00,1.14
5899.00,1.14
5898.00,1.14
5897.00,1.14
5896.00,1.14
5895.00,1.15
5894.00,1.15
5893.00,1.15
5892.00,1.15
5891.00,1.15
5890.00,1.16
5889.00,1.16
5888.00,1.16
5887.00,1.17
5886.00,1.17
5885.00,1.17
5884.00,1.18
5883.00,1.18
5882.00,1.18
5881.00,1.18
5880.00,1.19
5879.00,1.19
5878.00,1.19
5877.00,1.19
5876.00,1.20
5875.00,1.20
5874.00,1.20
5873.00,1.20
5872.00,1.20
5871.00,1.20
5870.00,1.21
5869.00,1.21
5868.00,1.21
5867.00,1.21
5866.00,1.21
5865.00,1.21
5864.00,1.21
5863.00,1.22
5862.00,1.22
5861.00,1.22
5860.00,1.22
5859.00,1.22
5858.00,1.22
5857.00,1.22
5856.00,1.23
5855.00,1.23
5854.00,1.23
5853.00,1.23
5852.00,1.23
5851.00,1.23
5850.00,1.23
5849.00,1.23
5848.00,1.23
5847.00,1.23
5846.00,1.23
5845.00,1.23
5844.00,1.23
5843.00,1.23
5842.00,1.23
5841.00,1.23
5840.00,1.23
5839.00,1.23
5838.00,1.23
5837.00,1.23
5836.00,1.23
5835.00,1.23
5834.00,1.23
5833.00,1.23
5832.00,1.23
5831.00,1.23
5830.00,1.23
5829.00,1.23
5828.00,1.23
5827.00,1.23
5826.00,1.23
5825.00,1.23
5824.00,1.23
5823.00,1.23
5822.00,1.23
5821.00,1.23
5820.00,1.23
5819.00,1.23
5818.00,1.23
5817.00,1.23
5816.00,1.23
5815.00,1.23
5814.00,1.23
5813.00,1.23
5812.00,1.23
5811.00,1.23
5810.00,1.23
5809.00,1.23
5808.00,1.23
5807.00,1.23
5806.00,1.23
5805.00,1.23
5804.00,1.23
5803.00,1.23
5802.00,1.23
5801.00,1.23
5800.00,1.23
5799.00,1.23
5798.00,1.22
5797.00,1.22
5796.00,1.22
5795.00,1.22
5794.00,1.22
5793.00,1.22
5792.00,1.21
5791.00,1.21
5790.00,1.21
5789.00,1.21
5788.00,1.21
5787.00,1.21
5786.00,1.20
5785.00,1.20
5784.00,1.20
5783.00,1.20
5782.00,1.20
5781.00,1.20
5780.00,1.20
5779.00,1.19
5778.00,1.19
5777.00,1.19
5776.00,1.19
5775.00,1.19
5774.00,1.19
5773.00,1.19
5772.00,1.19
5771.00,1.19
5770.00,1.19
5769.00,1.19
5768.00,1.19
5767.00,1.19
5766.00,1.19
5765.00,1.20
5764.00,1.20
5763.00,1.20
5762.00,1.20
5761.00,1.20
5760.00,1.20
5759.00,1.21
5758.00,1.21
5757.00,1.21
5756.00,1.21
5755.00,1.22
5754.00,1.22
5753.00,1.22
5752.00,1.23
5751.00,1.23
5750.00,1.23
5749.00,1.24
5748.00,1.24
5747.00,1.24
5746.00,1.25
5745.00,1.25
5744.00,1.25
5743.00,1.25
5742.00,1.26
5741.00,1.26
5740.00,1.26
5739.00,1.27
5738.00,1.27
5737.00,1.27
5736.00,1.27
5735.00,1.27
5734.00,1.27
5733.00,1.28
5732.00,1.28
5731.00,1.28
5730.00,1.28
5729.00,1.28
5728.00,1.28
5727.00,1.28
5726.00,1.28
5725.00,1.28
5724.00,1.28
5723.00,1.28
5722.00,1.29
5721.00,1.29
5720.00,1.29
5719.00,1.29
5718.00,1.29
5717.00,1.29
5716.00,1.29
5715.00,1.29
5714.00,1.29
5713.00,1.29
5712.00,1.29
5711.00,1.29
5710.00,1.29
5709.00,1.29
5708.00,1.29
5707.00,1.29
5706.00,1.29
5705.00,1.29
5704.00,1.29
5703.00,1.28
5702.00,1.28
5701.00,1.28
5700.00,1.28
5699.00,1.28
5698.00,1.28
5697.00,1.28
5696.00,1.28
5695.00,1.27
5694.00,1.27
5693.00,1.27
5692.00,1.27
5691.00,1.27
5690.00,1.27
5689.00,1.26
5688.00,1.26
5687.00,1.26
5686.00,1.26
5685.00,1.26
5684.00,1.26
5683.00,1.26
5682.00,1.26
5681.00,1.26
5680.00,1.25
5679.00,1.25
5678.00,1.25
5677.00,1.25
5676.00,1.25
5675.00,1.25
5674.00,1.25
5673.00,1.25
5672.00,1.25
5671.00,1.25
5670.00,1.25
5669.00,1.25
5668.00,1.25
5667.00,1.26
5666.00,1.26
5665.00,1.26
5664.00,1.26
5663.00,1.26
5662.00,1.26
5661.00,1.26
5660.00,1.26
5659.00,1.26
5658.00,1.27
5657.00,1.27
5656.00,1.27
5655.00,1.27
5654.00,1.27
5653.00,1.27
5652.00,1.28
5651.00,1.28
5650.00,1.28
5649.00,1.28
5648.00,1.28
5647.00,1.29
5646.00,1.29
5645.00,1.29
5644.00,1.29
5643.00,1.29
5642.00,1.29
5641.00,1.30
5640.00,1.30
5639.00,1.30
5638.00,1.30
5637.00,1.30
5636.00,1.30
5635.00,1.31
5634.00,1.31
5633.00,1.31
5632.00,1.31
5631.00,1.31
5630.00,1.31
5629.00,1.32
5628.00,1.32
5627.00,1.32
5626.00,1.32
5625.00,1.32
5624.00,1.32
5623.00,1.32
5622.00,1.33
5621.00,1.33
5620.00,1.33
5619.00,1.33
5618.00,1.33
5617.00,1.33
5616.00,1.33
5615.00,1.33
5614.00,1.34
5613.00,1.34
5612.00,1.34
5611.00,1.34
5610.00,1.34
5609.00,1.34
5608.00,1.35
5607.00,1.35
5606.00,1.35
5605.00,1.35
5604.00,1.35
5603.00,1.35
5602.00,1.35
5601.00,1.36
5600.00,1.36
5599.00,1.36
5598.00,1.36
5597.00,1.36
5596.00,1.36
5595.00,1.36
5594.00,1.36
5593.00,1.36
5592.00,1.37
5591.00,1.37
5590.00,1.37
5589.00,1.37
5588.00,1.37
5587.00,1.37
5586.00,1.37
5585.00,1.38
5584.00,1.38
5583.00,1.38
5582.00,1.38
5581.00,1.38
5580.00,1.39
5579.00,1.39
5578.00,1.39
5577.00,1.39
5576.00,1.39
5575.00,1.39
5574.00,1.40
5573.00,1.40
5572.00,1.40
5571.00,1.40
5570.00,1.40
5569.00,1.40
5568.00,1.40
5567.00,1.40
5566.00,1.40
5565.00,1.41
5564.00,1.41
5563.00,1.41
5562.00,1.41
5561.00,1.41
5560.00,1.41
5559.00,1.41
5558.00,1.41
5557.00,1.41
5556.00,1.41
5555.00,1.41
5554.00,1.41
5553.00,1.41
5552.00,1.41
5551.00,1.41
5550.00,1.41
5549.00,1.42
5548.00,1.42
5547.00,1.42
5546.00,1.42
5545.00,1.42
5544.00,1.42
5543.00,1.42
5542.00,1.42
5541.00,1.42
5540.00,1.42
5539.00,1.43
5538.00,1.43
5537.00,1.43
5536.00,1.43
5535.00,1.43
5534.00,1.43
5533.00,1.43
5532.00,1.43
5531.00,1.44
5530.00,1.44
5529.00,1.44
5528.00,1.44
5527.00,1.44
5526.00,1.44
5525.00,1.44
5524.00,1.44
5523.00,1.44
5522.00,1.44
5521.00,1.44
5520.00,1.44
5519.00,1.44
5518.00,1.44
5517.00,1.45
5516.00,1.45
5515.00,1.45
5514.00,1.45
5513.00,1.45
5512.00,1.45
5511.00,1.45
5510.00,1.45
5509.00,1.45
5508.00,1.45
5507.00,1.45
5506.00,1.45
5505.00,1.45
5504.00,1.45
5503.00,1.45
5502.00,1.45
5501.00,1.45
5500.00,1.45
5499.00,1.45
5498.00,1.45
5497.00,1.45
5496.00,1.45
5495.00,1.45
5494.00,1.45
5493.00,1.45
5492.00,1.45
5491.00,1.45
5490.00,1.45
5489.00,1.45
5488.00,1.46
5487.00,1.46
5486.00,1.46
5485.00,1.46
5484.00,1.46
5483.00,1.46
5482.00,1.46
5481.00,1.47
5480.00,1.47
5479.00,1.47
5478.00,1.47
5477.00,1.47
5476.00,1.47
5475.00,1.47
5474.00,1.47
5473.00,1.48
5472.00,1.48
5471.00,1.48
5470.00,1.48
5469.00,1.48
5468.00,1.48
5467.00,1.48
5466.00,1.48
5465.00,1.48
5464.00,1.48
5463.00,1.49
5462.00,1.49
5461.00,1.49
5460.00,1.49
5459.00,1.49
5458.00,1.49
5457.00,1.49
5456.00,1.49
5455.00,1.49
5454.00,1.49
5453.00,1.49
5452.00,1.49
5451.00,1.49
5450.00,1.49
5449.00,1.49
5448.00,1.49
5447.00,1.49
5446.00,1.49
5445.00,1.49
5444.00,1.49
5443.00,1.49
5442.00,1.49
5441.00,1.49
5440.00,1.49
5439.00,1.49
5438.00,1.49
5437.00,1.49
5436.00,1.49
5435.00,1.49
5434.00,1.49
5433.00,1.50
5432.00,1.50
5431.00,1.50
5430.00,1.50
5429.00,1.50
5428.00,1.50
5427.00,1.50
5426.00,1.50
5425.00,1.50
5424.00,1.50
5423.00,1.51
5422.00,1.51
5421.00,1.51
5420.00,1.51
5419.00,1.51
5418.00,1.51
5417.00,1.51
5416.00,1.51
5415.00,1.51
5414.00,1.50
5413.00,1.50
5412.00,1.50
5411.00,1.50
5410.00,1.50
5409.00,1.50
5408.00,1.50
5407.00,1.50
5406.00,1.50
5405.00,1.50
5404.00,1.50
5403.00,1.50
5402.00,1.50
5401.00,1.51
5400.00,1.51
5399.00,1.51
5398.00,1.51
5397.00,1.51
5396.00,1.51
5395.00,1.51
5394.00,1.50
5393.00,1.50
5392.00,1.50
5391.00,1.50
5390.00,1.50
5389.00,1.50
5388.00,1.50
5387.00,1.50
5386.00,1.50
5385.00,1.50
5384.00,1.49
5383.00,1.49
5382.00,1.49
5381.00,1.49
5380.00,1.49
5379.00,1.48
5378.00,1.48
5377.00,1.48
5376.00,1.48
5375.00,1.47
5374.00,1.47
5373.00,1.47
5372.00,1.46
5371.00,1.46
5370.00,1.46
5369.00,1.45
5368.00,1.45
5367.00,1.45
5366.00,1.44
5365.00,1.44
5364.00,1.43
5363.00,1.43
5362.00,1.42
5361.00,1.42
5360.00,1.41
5359.00,1.41
5358.00,1.40
5357.00,1.40
5356.00,1.39
5355.00,1.38
5354.00,1.38
5353.00,1.37
5352.00,1.36
5351.00,1.35
5350.00,1.35
5349.00,1.34
5348.00,1.33
5347.00,1.32
5346.00,1.31
5345.00,1.30
5344.00,1.30
5343.00,1.29
5342.00,1.28
5341.00,1.27
5340.00,1.26
5339.00,1.25
5338.00,1.24
5337.00,1.23
5336.00,1.22
5335.00,1.22
5334.00,1.21
5333.00,1.20
5332.00,1.19
5331.00,1.18
5330.00,1.17
5329.00,1.16
5328.00,1.15
5327.00,1.14
5326.00,1.13
5325.00,1.12
5324.00,1.11
5323.00,1.10
5322.00,1.09
5321.00,1.08
5320.00,1.07
5319.00,1.06
5318.00,1.05
5317.00,1.03
5316.00,1.02
5315.00,1.01
5314.00,1.00
5313.00,0.99
5312.00,0.98
5311.00,0.97
5310.00,0.96
5309.00,0.95
5308.00,0.94
5307.00,0.93
5306.00,0.92
5305.00,0.91
5304.00,0.90
5303.00,0.89
5302.00,0.89
5301.00,0.88
5300.00,0.87
5299.00,0.86
5298.00,0.85
5297.00,0.85
5296.00,0.84
5295.00,0.83
5294.00,0.83
5293.00,0.82
5292.00,0.82
5291.00,0.81
5290.00,0.80
5289.00,0.80
5288.00,0.79
5287.00,0.79
5286.00,0.79
5285.00,0.78
5284.00,0.78
5283.00,0.77
5282.00,0.77
5281.00,0.77
5280.00,0.76
5279.00,0.76
5278.00,0.76
5277.00,0.76
5276.00,0.75
5275.00,0.75
5274.00,0.75
5273.00,0.75
5272.00,0.74
5271.00,0.74
5270.00,0.74
5269.00,0.74
5268.00,0.74
5267.00,0.73
5266.00,0.73
5265.00,0.73
5264.00,0.73
5263.00,0.73
5262.00,0.72
5261.00,0.72
5260.00,0.72
5259.00,0.72
5258.00,0.72
5257.00,0.72
5256.00,0.72
5255.00,0.71
5254.00,0.71
5253.00,0.71
5252.00,0.71
5251.00,0.71
5250.00,0.71
5249.00,0.71
5248.00,0.71
5247.00,0.70
5246.00,0.70
5245.00,0.70
5244.00,0.70
5243.00,0.70
5242.00,0.70
5241.00,0.70
5240.00,0.70
5239.00,0.70
5238.00,0.70
5237.00,0.70
5236.00,0.70
5235.00,0.70
5234.00,0.70
5233.00,0.70
5232.00,0.70
5231.00,0.70
5230.00,0.70
5229.00,0.70
5228.00,0.70
5227.00,0.70
5226.00,0.70
5225.00,0.70
5224.00,0.70
5223.00,0.70
5222.00,0.70
5221.00,0.70
5220.00,0.70
5219.00,0.70
5218.00,0.70
5217.00,0.70
5216.00,0.70
5215.00,0.69
5214.00,0.69
5213.00,0.69
5212.00,0.69
5211.00,0.69
5210.00,0.69
5209.00,0.69
5208.00,0.69
5207.00,0.69
5206.00,0.69
5205.00,0.69
5204.00,0.69
5203.00,0.69
5202.00,0.69
5201.00,0.69
5200.00,0.69
5199.00,0.69
5198.00,0.69
5197.00,0.70
5196.00,0.70
5195.00,0.70
5194.00,0.70
5193.00,0.70
5192.00,0.70
5191.00,0.70
5190.00,0.70
5189.00,0.70
5188.00,0.70
5187.00,0.70
5186.00,0.70
5185.00,0.70
5184.00,0.70
5183.00,0.70
5182.00,0.70
5181.00,0.70
5180.00,0.70
5179.00,0.70
5178.00,0.70
5177.00,0.71
5176.00,0.71
5175.00,0.71
5174.00,0.71
5173.00,0.71
5172.00,0.71
5171.00,0.71
5170.00,0.71
5169.00,0.71
5168.00,0.71
5167.00,0.71
5166.00,0.71
5165.00,0.71
5164.00,0.71
5163.00,0.71
5162.00,0.71
5161.00,0.71
5160.00,0.71
5159.00,0.71
5158.00,0.71
5157.00,0.72
5156.00,0.72
5155.00,0.72
5154.00,0.72
5153.00,0.72
5152.00,0.72
5151.00,0.72
5150.00,0.72
5149.00,0.72
5148.00,0.72
5147.00,0.72
5146.00,0.72
5145.00,0.72
5144.00,0.73
5143.00,0.73
5142.00,0.73
5141.00,0.73
5140.00,0.73
5139.00,0.73
5138.00,0.73
5137.00,0.73
5136.00,0.73
5135.00,0.73
5134.00,0.73
5133.00,0.73
5132.00,0.73
5131.00,0.73
5130.00,0.73
5129.00,0.73
5128.00,0.73
5127.00,0.73
5126.00,0.73
5125.00,0.73
5124.00,0.73
5123.00,0.73
5122.00,0.73
5121.00,0.73
5120.00,0.74
5119.00,0.74
5118.00,0.74
5117.00,0.74
5116.00,0.74
5115.00,0.74
5114.00,0.74
5113.00,0.74
5112.00,0.74
5111.00,0.74
5110.00,0.74
5109.00,0.74
5108.00,0.74
5107.00,0.75
5106.00,0.75
5105.00,0.75
5104.00,0.75
5103.00,0.75
5102.00,0.75
5101.00,0.75
5100.00,0.75
5099.00,0.75
5098.00,0.75
5097.00,0.75
5096.00,0.75
5095.00,0.75
5094.00,0.76
5093.00,0.76
5092.00,0.76
5091.00,0.76
5090.00,0.76
5089.00,0.76
5088.00,0.76
5087.00,0.76
5086.00,0.76
5085.00,0.76
5084.00,0.76
5083.00,0.76
5082.00,0.76
5081.00,0.76
5080.00,0.77
5079.00,0.77
5078.00,0.77
5077.00,0.77
5076.00,0.77
5075.00,0.77
5074.00,0.77
5073.00,0.77
5072.00,0.77
5071.00,0.77
5070.00,0.78
5069.00,0.78
5068.00,0.78
5067.00,0.78
5066.00,0.78
5065.00,0.78
5064.00,0.78
5063.00,0.78
5062.00,0.78
5061.00,0.78
5060.00,0.79
5059.00,0.79
5058.00,0.79
5057.00,0.79
5056.00,0.79
5055.00,0.79
5054.00,0.79
5053.00,0.79
5052.00,0.80
5051.00,0.80
5050.00,0.80
5049.00,0.80
5048.00,0.80
5047.00,0.80
5046.00,0.80
5045.00,0.81
5044.00,0.81
5043.00,0.81
5042.00,0.81
5041.00,0.81
5040.00,0.81
5039.00,0.81
5038.00,0.82
5037.00,0.82
5036.00,0.82
5035.00,0.82
5034.00,0.82
5033.00,0.82
5032.00,0.82
5031.00,0.82
5030.00,0.82
5029.00,0.83
5028.00,0.83
5027.00,0.83
5026.00,0.83
5025.00,0.83
5024.00,0.83
5023.00,0.83
5022.00,0.83
5021.00,0.84
5020.00,0.84
5019.00,0.84
5018.00,0.84
5017.00,0.84
5016.00,0.84
5015.00,0.84
5014.00,0.84
5013.00,0.85
5012.00,0.85
5011.00,0.85
5010.00,0.85
5009.00,0.85
5008.00,0.85
5007.00,0.85
5006.00,0.85
5005.00,0.85
5004.00,0.85
5003.00,0.85
5002.00,0.86
5001.00,0.86
5000.00,0.86
4999.00,0.86
4998.00,0.86
4997.00,0.86
4996.00,0.86
4995.00,0.86
4994.00,0.87
4993.00,0.87
4992.00,0.87
4991.00,0.87
4990.00,0.87
4989.00,0.88
4988.00,0.88
4987.00,0.88
4986.00,0.88
4985.00,0.88
4984.00,0.89
4983.00,0.89
4982.00,0.89
4981.00,0.89
4980.00,0.89
4979.00,0.89
4978.00,0.89
4977.00,0.90
4976.00,0.90
4975.00,0.90
4974.00,0.90
4973.00,0.90
4972.00,0.90
4971.00,0.90
4970.00,0.90
4969.00,0.91
4968.00,0.91
4967.00,0.91
4966.00,0.91
4965.00,0.91
4964.00,0.91
4963.00,0.91
4962.00,0.92
4961.00,0.92
4960.00,0.92
4959.00,0.92
4958.00,0.92
4957.00,0.92
4956.00,0.92
4955.00,0.93
4954.00,0.93
4953.00,0.93
4952.00,0.93
4951.00,0.93
4950.00,0.93
4949.00,0.93
4948.00,0.93
4947.00,0.93
4946.00,0.93
4945.00,0.93
4944.00,0.94
4943.00,0.94
4942.00,0.94
4941.00,0.94
4940.00,0.94
4939.00,0.94
4938.00,0.94
4937.00,0.94
4936.00,0.94
4935.00,0.95
4934.00,0.95
4933.00,0.95
4932.00,0.95
4931.00,0.95
4930.00,0.95
4929.00,0.95
4928.00,0.95
4927.00,0.95
4926.00,0.96
4925.00,0.96
4924.00,0.96
4923.00,0.96
4922.00,0.96
4921.00,0.96
4920.00,0.96
4919.00,0.96
4918.00,0.96
4917.00,0.96
4916.00,0.96
4915.00,0.96
4914.00,0.96
4913.00,0.96
4912.00,0.96
4911.00,0.97
4910.00,0.97
4909.00,0.97
4908.00,0.97
4907.00,0.97
4906.00,0.97
4905.00,0.97
4904.00,0.97
4903.00,0.97
4902.00,0.97
4901.00,0.97
4900.00,0.98
4899.00,0.98
4898.00,0.98
4897.00,0.98
4896.00,0.98
4895.00,0.98
4894.00,0.98
4893.00,0.98
4892.00,0.98
4891.00,0.98
4890.00,0.98
4889.00,0.98
4888.00,0.98
4887.00,0.98
4886.00,0.98
4885.00,0.98
4884.00,0.98
4883.00,0.98
4882.00,0.98
4881.00,0.98
4880.00,0.99
4879.00,0.99
4878.00,0.99
4877.00,0.99
4876.00,0.99
4875.00,0.99
4874.00,0.99
4873.00,0.99
4872.00,0.99
4871.00,0.99
4870.00,1.00
4869.00,1.00
4868.00,1.00
4867.00,1.00
4866.00,1.00
4865.00,1.00
4864.00,1.00
4863.00,1.00
4862.00,1.01
4861.00,1.01
4860.00,1.01
4859.00,1.01
4858.00,1.01
4857.00,1.01
4856.00,1.01
4855.00,1.01
4854.00,1.01
4853.00,1.01
4852.00,1.01
4851.00,1.01
4850.00,1.01
4849.00,1.01
4848.00,1.01
4847.00,1.01
4846.00,1.01
4845.00,1.02
4844.00,1.02
4843.00,1.02
4842.00,1.02
4841.00,1.02
4840.00,1.02
4839.00,1.02
4838.00,1.02
4837.00,1.02
4836.00,1.02
4835.00,1.02
4834.00,1.02
4833.00,1.02
4832.00,1.02
4831.00,1.03
4830.00,1.03
4829.00,1.03
4828.00,1.03
4827.00,1.03
4826.00,1.03
4825.00,1.03
4824.00,1.03
4823.00,1.04
4822.00,1.04
4821.00,1.04
4820.00,1.04
4819.00,1.04
4818.00,1.04
4817.00,1.04
4816.00,1.05
4815.00,1.05
4814.00,1.05
4813.00,1.05
4812.00,1.05
4811.00,1.05
4810.00,1.05
4809.00,1.05
4808.00,1.05
4807.00,1.06
4806.00,1.06
4805.00,1.06
4804.00,1.06
4803.00,1.06
4802.00,1.06
4801.00,1.06
4800.00,1.06
4799.00,1.07
4798.00,1.07
4797.00,1.07
4796.00,1.07
4795.00,1.07
4794.00,1.07
4793.00,1.07
4792.00,1.08
4791.00,1.08
4790.00,1.08
4789.00,1.08
4788.00,1.08
4787.00,1.09
4786.00,1.09
4785.00,1.09
4784.00,1.09
4783.00,1.09
4782.00,1.09
4781.00,1.10
4780.00,1.10
4779.00,1.10
4778.00,1.10
4777.00,1.10
4776.00,1.10
4775.00,1.11
4774.00,1.11
4773.00,1.11
4772.00,1.11
4771.00,1.11
4770.00,1.11
4769.00,1.12
4768.00,1.12
4767.00,1.12
4766.00,1.12
4765.00,1.12
4764.00,1.13
4763.00,1.13
4762.00,1.13
4761.00,1.13
4760.00,1.14
4759.00,1.14
4758.00,1.14
4757.00,1.14
4756.00,1.14
4755.00,1.15
4754.00,1.15
4753.00,1.15
4752.00,1.15
4751.00,1.16
4750.00,1.16
4749.00,1.16
4748.00,1.16
4747.00,1.16
4746.00,1.17
4745.00,1.17
4744.00,1.17
4743.00,1.17
4742.00,1.18
4741.00,1.18
4740.00,1.18
4739.00,1.18
4738.00,1.18
4737.00,1.19
4736.00,1.19
4735.00,1.19
4734.00,1.19
4733.00,1.19
4732.00,1.20
4731.00,1.20
4730.00,1.20
4729.00,1.20
4728.00,1.21
4727.00,1.21
4726.00,1.21
4725.00,1.21
4724.00,1.21
4723.00,1.22
4722.00,1.22
4721.00,1.22
4720.00,1.22
4719.00,1.23
4718.00,1.23
4717.00,1.23
4716.00,1.23
4715.00,1.23
4714.00,1.24
4713.00,1.24
4712.00,1.24
4711.00,1.24
4710.00,1.24
4709.00,1.25
4708.00,1.25
4707.00,1.25
4706.00,1.25
4705.00,1.25
4704.00,1.26
4703.00,1.26
4702.00,1.26
4701.00,1.26
4700.00,1.26
4699.00,1.27
4698.00,1.27
4697.00,1.27
4696.00,1.27
4695.00,1.27
4694.00,1.28
4693.00,1.28
4692.00,1.28
4691.00,1.29
4690.00,1.29
4689.00,1.29
4688.00,1.29
4687.00,1.29
4686.00,1.30
4685.00,1.30
4684.00,1.30
4683.00,1.30
4682.00,1.31
4681.00,1.31
4680.00,1.31
4679.00,1.31
4678.00,1.31
4677.00,1.31
4676.00,1.32
4675.00,1.32
4674.00,1.32
4673.00,1.32
4672.00,1.32
4671.00,1.32
4670.00,1.33
4669.00,1.33
4668.00,1.33
4667.00,1.33
4666.00,1.33
4665.00,1.33
4664.00,1.34
4663.00,1.34
4662.00,1.34
4661.00,1.34
4660.00,1.34
4659.00,1.35
4658.00,1.35
4657.00,1.35
4656.00,1.35
4655.00,1.35
4654.00,1.36
4653.00,1.36
4652.00,1.36
4651.00,1.36
4650.00,1.36
4649.00,1.37
4648.00,1.37
4647.00,1.37
4646.00,1.37
4645.00,1.37
4644.00,1.38
4643.00,1.38
4642.00,1.38
4641.00,1.38
4640.00,1.38
4639.00,1.38
4638.00,1.39
4637.00,1.39
4636.00,1.39
4635.00,1.39
4634.00,1.39
4633.00,1.39
4632.00,1.39
4631.00,1.40
4630.00,1.40
4629.00,1.40
4628.00,1.40
4627.00,1.40
4626.00,1.40
4625.00,1.40
4624.00,1.40
4623.00,1.40
4622.00,1.40
4621.00,1.40
4620.00,1.40
4619.00,1.41
4618.00,1.41
4617.00,1.41
4616.00,1.41
4615.00,1.41
4614.00,1.41
4613.00,1.41
4612.00,1.41
4611.00,1.41
4610.00,1.41
4609.00,1.41
4608.00,1.42
4607.00,1.42
4606.00,1.42
4605.00,1.42
4604.00,1.42
4603.00,1.42
4602.00,1.42
4601.00,1.42
4600.00,1.43
4599.00,1.43
4598.00,1.43
4597.00,1.43
4596.00,1.43
4595.00,1.43
4594.00,1.43
4593.00,1.43
4592.00,1.43
4591.00,1.43
4590.00,1.44
4589.00,1.44
4588.00,1.44
4587.00,1.44
4586.00,1.44
4585.00,1.44
4584.00,1.44
4583.00,1.45
4582.00,1.45
4581.00,1.45
4580.00,1.45
4579.00,1.45
4578.00,1.45
4577.00,1.45
4576.00,1.46
4575.00,1.46
4574.00,1.46
4573.00,1.46
4572.00,1.46
4571.00,1.46
4570.00,1.46
4569.00,1.46
4568.00,1.46
4567.00,1.46
4566.00,1.47
4565.00,1.47
4564.00,1.47
4563.00,1.47
4562.00,1.47
4561.00,1.47
4560.00,1.47
4559.00,1.47
4558.00,1.48
4557.00,1.48
4556.00,1.48
4555.00,1.48
4554.00,1.48
4553.00,1.48
4552.00,1.48
4551.00,1.49
4550.00,1.49
4549.00,1.49
4548.00,1.49
4547.00,1.49
4546.00,1.49
4545.00,1.49
4544.00,1.49
4543.00,1.49
4542.00,1.49
4541.00,1.49
4540.00,1.49
4539.00,1.49
4538.00,1.49
4537.00,1.49
4536.00,1.49
4535.00,1.49
4534.00,1.49
4533.00,1.49
4532.00,1.49
4531.00,1.49
4530.00,1.49
4529.00,1.49
4528.00,1.49
4527.00,1.49
4526.00,1.50
4525.00,1.50
4524.00,1.50
4523.00,1.50
4522.00,1.50
4521.00,1.50
4520.00,1.50
4519.00,1.50
4518.00,1.50
4517.00,1.50
4516.00,1.50
4515.00,1.50
4514.00,1.51
4513.00,1.51
4512.00,1.51
4511.00,1.51
4510.00,1.51
4509.00,1.51
4508.00,1.51
4507.00,1.51
4506.00,1.51
4505.00,1.51
4504.00,1.51
4503.00,1.51
4502.00,1.51
4501.00,1.51
4500.00,1.51
4499.00,1.50
4498.00,1.50
4497.00,1.50
4496.00,1.50
4495.00,1.50
4494.00,1.50
4493.00,1.50
4492.00,1.50
4491.00,1.50
4490.00,1.50
4489.00,1.49
4488.00,1.49
4487.00,1.49
4486.00,1.49
4485.00,1.49
4484.00,1.49
4483.00,1.48
4482.00,1.48
4481.00,1.48
4480.00,1.48
4479.00,1.48
4478.00,1.47
4477.00,1.47
4476.00,1.47
4475.00,1.47
4474.00,1.46
4473.00,1.46
4472.00,1.46
4471.00,1.46
4470.00,1.45
4469.00,1.45
4468.00,1.45
4467.00,1.45
4466.00,1.44
4465.00,1.44
4464.00,1.43
4463.00,1.43
4462.00,1.43
4461.00,1.42
4460.00,1.42
4459.00,1.41
4458.00,1.41
4457.00,1.40
4456.00,1.40
4455.00,1.39
4454.00,1.39
4453.00,1.38
4452.00,1.38
4451.00,1.37
4450.00,1.37
4449.00,1.36
4448.00,1.35
4447.00,1.35
4446.00,1.34
4445.00,1.33
4444.00,1.33
4443.00,1.32
4442.00,1.31
4441.00,1.31
4440.00,1.30
4439.00,1.29
4438.00,1.29
4437.00,1.28
4436.00,1.27
4435.00,1.26
4434.00,1.26
4433.00,1.25
4432.00,1.24
4431.00,1.24
4430.00,1.23
4429.00,1.23
4428.00,1.22
4427.00,1.21
4426.00,1.21
4425.00,1.21
4424.00,1.20
4423.00,1.20
4422.00,1.19
4421.00,1.19
4420.00,1.19
4419.00,1.19
4418.00,1.18
4417.00,1.18
4416.00,1.18
4415.00,1.18
4414.00,1.18
4413.00,1.18
4412.00,1.18
4411.00,1.18
4410.00,1.18
4409.00,1.18
4408.00,1.18
4407.00,1.18
4406.00,1.18
4405.00,1.18
4404.00,1.18
4403.00,1.19
4402.00,1.19
4401.00,1.19
4400.00,1.19
4399.00,1.19
4398.00,1.19
4397.00,1.19
4396.00,1.20
4395.00,1.20
4394.00,1.20
4393.00,1.20
4392.00,1.20
4391.00,1.21
4390.00,1.21
4389.00,1.21
4388.00,1.21
4387.00,1.21
4386.00,1.22
4385.00,1.22
4384.00,1.22
4383.00,1.22
4382.00,1.23
4381.00,1.23
4380.00,1.23
4379.00,1.23
4378.00,1.23
4377.00,1.24
4376.00,1.24
4375.00,1.24
4374.00,1.24
4373.00,1.24
4372.00,1.24
4371.00,1.24
4370.00,1.24
4369.00,1.24
4368.00,1.24
4367.00,1.24
4366.00,1.24
4365.00,1.24
4364.00,1.24
4363.00,1.24
4362.00,1.24
4361.00,1.24
4360.00,1.24
4359.00,1.23
4358.00,1.23
4357.00,1.23
4356.00,1.23
4355.00,1.23
4354.00,1.23
4353.00,1.23
4352.00,1.23
4351.00,1.23
4350.00,1.23
4349.00,1.23
4348.00,1.23
4347.00,1.23
4346.00,1.23
4345.00,1.23
4344.00,1.23
4343.00,1.23
4342.00,1.23
4341.00,1.23
4340.00,1.23
4339.00,1.23
4338.00,1.23
4337.00,1.23
4336.00,1.23
4335.00,1.24
4334.00,1.24
4333.00,1.24
4332.00,1.24
4331.00,1.24
4330.00,1.24
4329.00,1.25
4328.00,1.25
4327.00,1.25
4326.00,1.25
4325.00,1.26
4324.00,1.26
4323.00,1.26
4322.00,1.26
4321.00,1.27
4320.00,1.27
4319.00,1.27
4318.00,1.28
4317.00,1.28
4316.00,1.28
4315.00,1.28
4314.00,1.29
4313.00,1.29
4312.00,1.29
4311.00,1.30
4310.00,1.30
4309.00,1.30
4308.00,1.31
4307.00,1.31
4306.00,1.31
4305.00,1.31
4304.00,1.32
4303.00,1.32
4302.00,1.32
4301.00,1.33
4300.00,1.33
4299.00,1.33
4298.00,1.33
4297.00,1.34
4296.00,1.34
4295.00,1.34
4294.00,1.34
4293.00,1.35
4292.00,1.35
4291.00,1.35
4290.00,1.35
4289.00,1.35
4288.00,1.36
4287.00,1.36
4286.00,1.36
4285.00,1.36
4284.00,1.36
4283.00,1.36
4282.00,1.36
4281.00,1.36
4280.00,1.36
4279.00,1.36
4278.00,1.36
4277.00,1.36
4276.00,1.36
4275.00,1.36
4274.00,1.36
4273.00,1.36
4272.00,1.36
4271.00,1.36
4270.00,1.35
4269.00,1.35
4268.00,1.35
4267.00,1.35
4266.00,1.35
4265.00,1.34
4264.00,1.34
4263.00,1.34
4262.00,1.34
4261.00,1.34
4260.00,1.34
4259.00,1.34
4258.00,1.34
4257.00,1.33
4256.00,1.33
4255.00,1.34
4254.00,1.34
4253.00,1.34
4252.00,1.34
4251.00,1.34
4250.00,1.34
4249.00,1.34
4248.00,1.35
4247.00,1.35
4246.00,1.35
4245.00,1.35
4244.00,1.36
4243.00,1.36
4242.00,1.36
4241.00,1.36
4240.00,1.37
4239.00,1.37
4238.00,1.37
4237.00,1.37
4236.00,1.38
4235.00,1.38
4234.00,1.38
4233.00,1.38
4232.00,1.38
4231.00,1.38
4230.00,1.38
4229.00,1.39
4228.00,1.39
4227.00,1.39
4226.00,1.39
4225.00,1.39
4224.00,1.39
4223.00,1.39
4222.00,1.40
4221.00,1.40
4220.00,1.40
4219.00,1.40
4218.00,1.40
4217.00,1.40
4216.00,1.41
4215.00,1.41
4214.00,1.41
4213.00,1.41
4212.00,1.41
4211.00,1.41
4210.00,1.41
4209.00,1.41
4208.00,1.41
4207.00,1.41
4206.00,1.41
4205.00,1.41
4204.00,1.41
4203.00,1.41
4202.00,1.41
4201.00,1.41
4200.00,1.41
4199.00,1.41
4198.00,1.41
4197.00,1.41
4196.00,1.41
4195.00,1.41
4194.00,1.41
4193.00,1.41
4192.00,1.41
4191.00,1.41
4190.00,1.41
4189.00,1.41
4188.00,1.41
4187.00,1.41
4186.00,1.41
4185.00,1.41
4184.00,1.41
4183.00,1.41
4182.00,1.41
4181.00,1.41
4180.00,1.41
4179.00,1.41
4178.00,1.41
4177.00,1.41
4176.00,1.41
4175.00,1.41
4174.00,1.41
4173.00,1.41
4172.00,1.41
4171.00,1.41
4170.00,1.41
4169.00,1.42
4168.00,1.42
4167.00,1.42
4166.00,1.42
4165.00,1.42
4164.00,1.42
4163.00,1.42
4162.00,1.42
4161.00,1.42
4160.00,1.42
4159.00,1.42
4158.00,1.42
4157.00,1.42
4156.00,1.42
4155.00,1.42
4154.00,1.42
4153.00,1.42
4152.00,1.42
4151.00,1.42
4150.00,1.42
4149.00,1.42
4148.00,1.42
4147.00,1.42
4146.00,1.42
4145.00,1.42
4144.00,1.42
4143.00,1.42
4142.00,1.41
4141.00,1.42
4140.00,1.42
4139.00,1.42
4138.00,1.42
4137.00,1.42
4136.00,1.42
4135.00,1.42
4134.00,1.42
4133.00,1.42
4132.00,1.42
4131.00,1.43
4130.00,1.43
4129.00,1.43
4128.00,1.43
4127.00,1.43
4126.00,1.44
4125.00,1.44
4124.00,1.44
4123.00,1.44
4122.00,1.44
4121.00,1.44
4120.00,1.44
4119.00,1.44
4118.00,1.45
4117.00,1.45
4116.00,1.45
4115.00,1.45
4114.00,1.45
4113.00,1.45
4112.00,1.45
4111.00,1.45
4110.00,1.45
4109.00,1.45
4108.00,1.45
4107.00,1.45
4106.00,1.44
4105.00,1.44
4104.00,1.44
4103.00,1.44
4102.00,1.44
4101.00,1.44
4100.00,1.44
4099.00,1.44
4098.00,1.43
4097.00,1.43
4096.00,1.43
4095.00,1.43
4094.00,1.43
4093.00,1.43
4092.00,1.42
4091.00,1.42
4090.00,1.42
4089.00,1.42
4088.00,1.42
4087.00,1.42
4086.00,1.42
4085.00,1.42
4084.00,1.42
4083.00,1.42
4082.00,1.42
4081.00,1.42
4080.00,1.42
4079.00,1.43
4078.00,1.43
4077.00,1.43
4076.00,1.43
4075.00,1.43
4074.00,1.43
4073.00,1.43
4072.00,1.43
4071.00,1.44
4070.00,1.44
4069.00,1.44
4068.00,1.44
4067.00,1.44
4066.00,1.44
4065.00,1.45
4064.00,1.45
4063.00,1.45
4062.00,1.45
4061.00,1.45
4060.00,1.45
4059.00,1.45
4058.00,1.45
4057.00,1.46
4056.00,1.46
4055.00,1.46
4054.00,1.46
4053.00,1.46
4052.00,1.46
4051.00,1.46
4050.00,1.46
4049.00,1.46
4048.00,1.47
4047.00,1.47
4046.00,1.47
4045.00,1.47
4044.00,1.47
4043.00,1.47
4042.00,1.48
4041.00,1.48
4040.00,1.48
4039.00,1.48
4038.00,1.48
4037.00,1.48
4036.00,1.48
4035.00,1.49
4034.00,1.49
4033.00,1.49
4032.00,1.49
4031.00,1.49
4030.00,1.49
4029.00,1.49
4028.00,1.49
4027.00,1.49
4026.00,1.49
4025.00,1.49
4024.00,1.49
4023.00,1.49
4022.00,1.49
4021.00,1.49
4020.00,1.49
4019.00,1.49
4018.00,1.49
4017.00,1.49
4016.00,1.49
4015.00,1.49
4014.00,1.49
4013.00,1.49
4012.00,1.49
4011.00,1.50
4010.00,1.50
4009.00,1.50
4008.00,1.50
4007.00,1.50
4006.00,1.50
4005.00,1.50
4004.00,1.50
4003.00,1.50
4002.00,1.50
4001.00,1.51
4000.00,1.51
